%OpenBCI Raw EEG Data
%
%Sample Rate = 250.0 Hz
%First Column = SampleIndex
%Other Columns = EEG data in microvolts followed by Accel Data (in G) interleaved with Aux Data
0, 0.00, 87155.33, 0.00, 0.00, 0.00, 0.00, 0.00, 0.00, 0.01, -0.00, 0.52
1, 0.00, 87193.05, 0.00, 0.00, 0.00, 0.00, 0.00, 0.00, 0.01, -0.00, 0.52
2, 0.00, 87146.63, 0.00, 0.00, 0.00, 0.00, 0.00, 0.00, 0.00, 0.00, 1.04
3, 0.00, 87132.55, 0.00, 0.00, 0.00, 0.00, 0.00, 0.00, 0.00, 0.00, 1.04
4, 0.00, 87130.43, 0.00, 0.00, 0.00, 0.00, 0.00, 0.00, 0.00, 0.00, 1.04
5, 0.00, 87133.71, 0.00, 0.00, 0.00, 0.00, 0.00, 0.00, 0.00, 0.00, 1.04
6, 0.00, 87159.38, 0.00, 0.00, 0.00, 0.00, 0.00, 0.00, 0.00, 0.00, 1.04
7, 0.00, 87153.98, 0.00, 0.00, 0.00, 0.00, 0.00, 0.00, 0.01, 0.00, 1.03
8, 0.00, 87137.55, 0.00, 0.00, 0.00, 0.00, 0.00, 0.00, 0.01, 0.00, 1.03
9, 0.00, 87167.24, 0.00, 0.00, 0.00, 0.00, 0.00, 0.00, 0.01, 0.00, 1.03
10, 0.00, 87160.83, 0.00, 0.00, 0.00, 0.00, 0.00, 0.00, 0.01, 0.00, 1.03
11, 0.00, 87149.18, 0.00, 0.00, 0.00, 0.00, 0.00, 0.00, 0.01, 0.00, 1.03
12, 0.00, 87132.51, 0.00, 0.00, 0.00, 0.00, 0.00, 0.00, 0.01, -0.00, 1.03
13, 0.00, 87180.72, 0.00, 0.00, 0.00, 0.00, 0.00, 0.00, 0.01, -0.00, 1.03
14, 0.00, 87199.94, 0.00, 0.00, 0.00, 0.00, 0.00, 0.00, 0.01, -0.00, 1.03
15, 0.00, 87187.27, 0.00, 0.00, 0.00, 0.00, 0.00, 0.00, 0.01, -0.00, 1.03
16, 0.00, 87160.06, 0.00, 0.00, 0.00, 0.00, 0.00, 0.00, 0.01, -0.00, 1.03
17, 0.00, 87157.12, 0.00, 0.00, 0.00, 0.00, 0.00, 0.00, 0.02, -0.00, 1.02
18, 0.00, 87155.64, 0.00, 0.00, 0.00, 0.00, 0.00, 0.00, 0.02, -0.00, 1.02
19, 0.00, 87166.23, 0.00, 0.00, 0.00, 0.00, 0.00, 0.00, 0.02, -0.00, 1.02
20, 0.00, 87166.55, 0.00, 0.00, 0.00, 0.00, 0.00, 0.00, 0.02, -0.00, 1.02
21, 0.00, 87167.38, 0.00, 0.00, 0.00, 0.00, 0.00, 0.00, 0.02, -0.00, 1.02
22, 0.00, 87170.93, 0.00, 0.00, 0.00, 0.00, 0.00, 0.00, 0.01, -0.01, 1.03
23, 0.00, 87185.03, 0.00, 0.00, 0.00, 0.00, 0.00, 0.00, 0.01, -0.01, 1.03
24, 0.00, 87195.23, 0.00, 0.00, 0.00, 0.00, 0.00, 0.00, 0.01, -0.01, 1.03
25, 0.00, 87167.95, 0.00, 0.00, 0.00, 0.00, 0.00, 0.00, 0.01, -0.01, 1.03
26, 0.00, 87166.19, 0.00, 0.00, 0.00, 0.00, 0.00, 0.00, 0.01, -0.01, 1.03
27, 0.00, 87183.94, 0.00, 0.00, 0.00, 0.00, 0.00, 0.00, 0.01, -0.01, 1.02
28, 0.00, 87181.21, 0.00, 0.00, 0.00, 0.00, 0.00, 0.00, 0.01, -0.01, 1.02
29, 0.00, 87183.05, 0.00, 0.00, 0.00, 0.00, 0.00, 0.00, 0.01, -0.01, 1.02
30, 0.00, 87187.58, 0.00, 0.00, 0.00, 0.00, 0.00, 0.00, 0.01, -0.01, 1.02
31, 0.00, 87184.12, 0.00, 0.00, 0.00, 0.00, 0.00, 0.00, 0.01, -0.01, 1.02
32, 0.00, 87167.29, 0.00, 0.00, 0.00, 0.00, 0.00, 0.00, 0.01, 0.00, 1.03
33, 0.00, 87178.62, 0.00, 0.00, 0.00, 0.00, 0.00, 0.00, 0.01, 0.00, 1.03
34, 0.00, 87190.17, 0.00, 0.00, 0.00, 0.00, 0.00, 0.00, 0.01, 0.00, 1.03
35, 0.00, 87178.48, 0.00, 0.00, 0.00, 0.00, 0.00, 0.00, 0.01, 0.00, 1.03
36, 0.00, 87207.97, 0.00, 0.00, 0.00, 0.00, 0.00, 0.00, 0.01, 0.00, 1.03
37, 0.00, 87210.89, 0.00, 0.00, 0.00, 0.00, 0.00, 0.00, 0.01, 0.00, 1.03
38, 0.00, 87209.66, 0.00, 0.00, 0.00, 0.00, 0.00, 0.00, 0.01, 0.00, 1.03
39, 0.00, 87181.16, 0.00, 0.00, 0.00, 0.00, 0.00, 0.00, 0.01, 0.00, 1.03
40, 0.00, 87183.16, 0.00, 0.00, 0.00, 0.00, 0.00, 0.00, 0.01, 0.00, 1.03
41, 0.00, 87183.27, 0.00, 0.00, 0.00, 0.00, 0.00, 0.00, 0.01, 0.00, 1.03
42, 0.00, 87161.02, 0.00, 0.00, 0.00, 0.00, 0.00, 0.00, 0.02, -0.00, 1.02
43, 0.00, 87161.36, 0.00, 0.00, 0.00, 0.00, 0.00, 0.00, 0.02, -0.00, 1.02
44, 0.00, 87203.41, 0.00, 0.00, 0.00, 0.00, 0.00, 0.00, 0.02, -0.00, 1.02
45, 0.00, 87189.16, 0.00, 0.00, 0.00, 0.00, 0.00, 0.00, 0.02, -0.00, 1.02
46, 0.00, 87176.92, 0.00, 0.00, 0.00, 0.00, 0.00, 0.00, 0.02, -0.00, 1.02
47, 0.00, 87171.13, 0.00, 0.00, 0.00, 0.00, 0.00, 0.00, 0.01, -0.01, 1.02
48, 0.00, 87161.36, 0.00, 0.00, 0.00, 0.00, 0.00, 0.00, 0.01, -0.01, 1.02
49, 0.00, 87158.03, 0.00, 0.00, 0.00, 0.00, 0.00, 0.00, 0.01, -0.01, 1.02
50, 0.00, 87189.19, 0.00, 0.00, 0.00, 0.00, 0.00, 0.00, 0.01, -0.01, 1.02
51, 0.00, 87199.38, 0.00, 0.00, 0.00, 0.00, 0.00, 0.00, 0.01, -0.01, 1.02
52, 0.00, 87197.59, 0.00, 0.00, 0.00, 0.00, 0.00, 0.00, 0.02, -0.01, 1.03
53, 0.00, 87192.72, 0.00, 0.00, 0.00, 0.00, 0.00, 0.00, 0.02, -0.01, 1.03
54, 0.00, 87161.95, 0.00, 0.00, 0.00, 0.00, 0.00, 0.00, 0.02, -0.01, 1.03
55, 0.00, 87156.00, 0.00, 0.00, 0.00, 0.00, 0.00, 0.00, 0.02, -0.01, 1.03
56, 0.00, 87189.48, 0.00, 0.00, 0.00, 0.00, 0.00, 0.00, 0.02, -0.01, 1.03
57, 0.00, 87191.20, 0.00, 0.00, 0.00, 0.00, 0.00, 0.00, 0.02, -0.01, 1.02
58, 0.00, 87178.51, 0.00, 0.00, 0.00, 0.00, 0.00, 0.00, 0.02, -0.01, 1.02
59, 0.00, 87178.93, 0.00, 0.00, 0.00, 0.00, 0.00, 0.00, 0.02, -0.01, 1.02
60, 0.00, 87166.84, 0.00, 0.00, 0.00, 0.00, 0.00, 0.00, 0.02, -0.01, 1.02
61, 0.00, 87150.01, 0.00, 0.00, 0.00, 0.00, 0.00, 0.00, 0.02, -0.01, 1.02
62, 0.00, 87183.76, 0.00, 0.00, 0.00, 0.00, 0.00, 0.00, 0.02, -0.01, 1.02
63, 0.00, 87206.18, 0.00, 0.00, 0.00, 0.00, 0.00, 0.00, 0.02, -0.01, 1.02
64, 0.00, 87194.53, 0.00, 0.00, 0.00, 0.00, 0.00, 0.00, 0.02, -0.01, 1.02
65, 0.00, 87175.31, 0.00, 0.00, 0.00, 0.00, 0.00, 0.00, 0.02, -0.01, 1.02
66, 0.00, 87210.89, 0.00, 0.00, 0.00, 0.00, 0.00, 0.00, 0.02, -0.01, 1.02
67, 0.00, 87202.42, 0.00, 0.00, 0.00, 0.00, 0.00, 0.00, 0.01, -0.01, 1.03
68, 0.00, 87176.07, 0.00, 0.00, 0.00, 0.00, 0.00, 0.00, 0.01, -0.01, 1.03
69, 0.00, 87196.79, 0.00, 0.00, 0.00, 0.00, 0.00, 0.00, 0.01, -0.01, 1.03
70, 0.00, 87203.00, 0.00, 0.00, 0.00, 0.00, 0.00, 0.00, 0.01, -0.01, 1.03
71, 0.00, 87220.17, 0.00, 0.00, 0.00, 0.00, 0.00, 0.00, 0.01, -0.01, 1.03
72, 0.00, 87217.73, 0.00, 0.00, 0.00, 0.00, 0.00, 0.00, 0.02, -0.01, 1.03
73, 0.00, 87249.07, 0.00, 0.00, 0.00, 0.00, 0.00, 0.00, 0.02, -0.01, 1.03
74, 0.00, 87246.90, 0.00, 0.00, 0.00, 0.00, 0.00, 0.00, 0.02, -0.01, 1.03
75, 0.00, 87242.01, 0.00, 0.00, 0.00, 0.00, 0.00, 0.00, 0.02, -0.01, 1.03
76, 0.00, 87258.39, 0.00, 0.00, 0.00, 0.00, 0.00, 0.00, 0.02, -0.01, 1.03
77, 0.00, 87260.02, 0.00, 0.00, 0.00, 0.00, 0.00, 0.00, 0.02, -0.00, 1.03
78, 0.00, 87265.09, 0.00, 0.00, 0.00, 0.00, 0.00, 0.00, 0.02, -0.00, 1.03
79, 0.00, 87270.88, 0.00, 0.00, 0.00, 0.00, 0.00, 0.00, 0.02, -0.00, 1.03
80, 0.00, 87268.65, 0.00, 0.00, 0.00, 0.00, 0.00, 0.00, 0.02, -0.00, 1.03
81, 0.00, 87279.58, 0.00, 0.00, 0.00, 0.00, 0.00, 0.00, 0.02, -0.00, 1.03
82, 0.00, 87252.69, 0.00, 0.00, 0.00, 0.00, 0.00, 0.00, 0.01, -0.01, 1.03
83, 0.00, 87235.19, 0.00, 0.00, 0.00, 0.00, 0.00, 0.00, 0.01, -0.01, 1.03
84, 0.00, 87253.79, 0.00, 0.00, 0.00, 0.00, 0.00, 0.00, 0.01, -0.01, 1.03
85, 0.00, 87291.56, 0.00, 0.00, 0.00, 0.00, 0.00, 0.00, 0.01, -0.01, 1.03
86, 0.00, 87269.45, 0.00, 0.00, 0.00, 0.00, 0.00, 0.00, 0.01, -0.01, 1.03
87, 0.00, 87252.00, 0.00, 0.00, 0.00, 0.00, 0.00, 0.00, 0.01, -0.01, 1.03
88, 0.00, 87253.72, 0.00, 0.00, 0.00, 0.00, 0.00, 0.00, 0.01, -0.01, 1.03
89, 0.00, 87254.23, 0.00, 0.00, 0.00, 0.00, 0.00, 0.00, 0.01, -0.01, 1.03
90, 0.00, 87272.31, 0.00, 0.00, 0.00, 0.00, 0.00, 0.00, 0.01, -0.01, 1.03
91, 0.00, 87267.53, 0.00, 0.00, 0.00, 0.00, 0.00, 0.00, 0.01, -0.01, 1.03
92, 0.00, 87257.84, 0.00, 0.00, 0.00, 0.00, 0.00, 0.00, 0.02, -0.01, 1.03
93, 0.00, 87289.57, 0.00, 0.00, 0.00, 0.00, 0.00, 0.00, 0.02, -0.01, 1.03
94, 0.00, 87296.10, 0.00, 0.00, 0.00, 0.00, 0.00, 0.00, 0.02, -0.01, 1.03
95, 0.00, 87252.67, 0.00, 0.00, 0.00, 0.00, 0.00, 0.00, 0.02, -0.01, 1.03
96, 0.00, 87271.53, 0.00, 0.00, 0.00, 0.00, 0.00, 0.00, 0.02, -0.01, 1.03
97, 0.00, 87262.86, 0.00, 0.00, 0.00, 0.00, 0.00, 0.00, 0.02, -0.01, 1.03
98, 0.00, 87270.39, 0.00, 0.00, 0.00, 0.00, 0.00, 0.00, 0.02, -0.01, 1.03
99, 0.00, 87283.80, 0.00, 0.00, 0.00, 0.00, 0.00, 0.00, 0.02, -0.01, 1.03
100, 0.00, 87263.17, 0.00, 0.00, 0.00, 0.00, 0.00, 0.00, 0.02, -0.01, 1.03
101, 0.00, 87272.00, 0.00, 0.00, 0.00, 0.00, 0.00, 0.00, 0.02, -0.01, 1.03
102, 0.00, 87275.36, 0.00, 0.00, 0.00, 0.00, 0.00, 0.00, 0.01, -0.01, 1.03
103, 0.00, 87264.49, 0.00, 0.00, 0.00, 0.00, 0.00, 0.00, 0.01, -0.01, 1.03
104, 0.00, 87251.84, 0.00, 0.00, 0.00, 0.00, 0.00, 0.00, 0.01, -0.01, 1.03
105, 0.00, 87280.19, 0.00, 0.00, 0.00, 0.00, 0.00, 0.00, 0.01, -0.01, 1.03
106, 0.00, 87296.14, 0.00, 0.00, 0.00, 0.00, 0.00, 0.00, 0.01, -0.01, 1.03
107, 0.00, 87272.70, 0.00, 0.00, 0.00, 0.00, 0.00, 0.00, 0.01, -0.00, 1.03
108, 0.00, 87262.70, 0.00, 0.00, 0.00, 0.00, 0.00, 0.00, 0.01, -0.00, 1.03
109, 0.00, 87261.61, 0.00, 0.00, 0.00, 0.00, 0.00, 0.00, 0.01, -0.00, 1.03
110, 0.00, 87263.24, 0.00, 0.00, 0.00, 0.00, 0.00, 0.00, 0.01, -0.00, 1.03
111, 0.00, 87277.08, 0.00, 0.00, 0.00, 0.00, 0.00, 0.00, 0.01, -0.00, 1.03
112, 0.00, 87258.88, 0.00, 0.00, 0.00, 0.00, 0.00, 0.00, 0.02, -0.00, 1.03
113, 0.00, 87276.20, 0.00, 0.00, 0.00, 0.00, 0.00, 0.00, 0.02, -0.00, 1.03
114, 0.00, 87284.70, 0.00, 0.00, 0.00, 0.00, 0.00, 0.00, 0.02, -0.00, 1.03
115, 0.00, 87237.36, 0.00, 0.00, 0.00, 0.00, 0.00, 0.00, 0.02, -0.00, 1.03
116, 0.00, 87224.08, 0.00, 0.00, 0.00, 0.00, 0.00, 0.00, 0.02, -0.00, 1.03
117, 0.00, 87259.77, 0.00, 0.00, 0.00, 0.00, 0.00, 0.00, 0.01, -0.00, 1.03
118, 0.00, 87261.79, 0.00, 0.00, 0.00, 0.00, 0.00, 0.00, 0.01, -0.00, 1.03
119, 0.00, 87271.78, 0.00, 0.00, 0.00, 0.00, 0.00, 0.00, 0.01, -0.00, 1.03
120, 0.00, 87265.41, 0.00, 0.00, 0.00, 0.00, 0.00, 0.00, 0.01, -0.00, 1.03
121, 0.00, 87255.58, 0.00, 0.00, 0.00, 0.00, 0.00, 0.00, 0.01, -0.00, 1.03
122, 0.00, 87260.96, 0.00, 0.00, 0.00, 0.00, 0.00, 0.00, 0.01, -0.01, 1.02
123, 0.00, 87263.48, 0.00, 0.00, 0.00, 0.00, 0.00, 0.00, 0.01, -0.01, 1.02
124, 0.00, 87253.70, 0.00, 0.00, 0.00, 0.00, 0.00, 0.00, 0.01, -0.01, 1.02
125, 0.00, 87256.78, 0.00, 0.00, 0.00, 0.00, 0.00, 0.00, 0.01, -0.01, 1.02
126, 0.00, 87279.06, 0.00, 0.00, 0.00, 0.00, 0.00, 0.00, 0.01, -0.01, 1.02
127, 0.00, 87281.34, 0.00, 0.00, 0.00, 0.00, 0.00, 0.00, 0.01, -0.01, 1.02
128, 0.00, 87271.96, 0.00, 0.00, 0.00, 0.00, 0.00, 0.00, 0.02, -0.01, 1.03
129, 0.00, 87279.02, 0.00, 0.00, 0.00, 0.00, 0.00, 0.00, 0.02, -0.01, 1.03
130, 0.00, 87270.48, 0.00, 0.00, 0.00, 0.00, 0.00, 0.00, 0.02, -0.01, 1.03
131, 0.00, 87264.76, 0.00, 0.00, 0.00, 0.00, 0.00, 0.00, 0.02, -0.01, 1.03
132, 0.00, 87255.69, 0.00, 0.00, 0.00, 0.00, 0.00, 0.00, 0.02, -0.01, 1.03
133, 0.00, 87286.78, 0.00, 0.00, 0.00, 0.00, 0.00, 0.00, 0.02, -0.01, 1.03
134, 0.00, 87281.91, 0.00, 0.00, 0.00, 0.00, 0.00, 0.00, 0.02, -0.01, 1.03
135, 0.00, 87303.77, 0.00, 0.00, 0.00, 0.00, 0.00, 0.00, 0.02, -0.01, 1.03
136, 0.00, 87285.19, 0.00, 0.00, 0.00, 0.00, 0.00, 0.00, 0.02, -0.01, 1.03
137, 0.00, 87239.03, 0.00, 0.00, 0.00, 0.00, 0.00, 0.00, 0.02, -0.01, 1.03
138, 0.00, 87223.77, 0.00, 0.00, 0.00, 0.00, 0.00, 0.00, 0.02, -0.00, 1.02
139, 0.00, 87269.16, 0.00, 0.00, 0.00, 0.00, 0.00, 0.00, 0.02, -0.00, 1.02
140, 0.00, 87248.73, 0.00, 0.00, 0.00, 0.00, 0.00, 0.00, 0.02, -0.00, 1.02
141, 0.00, 87231.44, 0.00, 0.00, 0.00, 0.00, 0.00, 0.00, 0.02, -0.00, 1.02
142, 0.00, 87239.59, 0.00, 0.00, 0.00, 0.00, 0.00, 0.00, 0.02, -0.00, 1.02
143, 0.00, 87258.66, 0.00, 0.00, 0.00, 0.00, 0.00, 0.00, 0.01, -0.01, 1.03
144, 0.00, 87270.17, 0.00, 0.00, 0.00, 0.00, 0.00, 0.00, 0.01, -0.01, 1.03
145, 0.00, 87272.47, 0.00, 0.00, 0.00, 0.00, 0.00, 0.00, 0.01, -0.01, 1.03
146, 0.00, 87229.65, 0.00, 0.00, 0.00, 0.00, 0.00, 0.00, 0.01, -0.01, 1.03
147, 0.00, 87234.70, 0.00, 0.00, 0.00, 0.00, 0.00, 0.00, 0.01, -0.01, 1.03
148, 0.00, 87256.70, 0.00, 0.00, 0.00, 0.00, 0.00, 0.00, 0.01, -0.01, 1.03
149, 0.00, 87270.82, 0.00, 0.00, 0.00, 0.00, 0.00, 0.00, 0.01, -0.01, 1.03
150, 0.00, 87258.15, 0.00, 0.00, 0.00, 0.00, 0.00, 0.00, 0.01, -0.01, 1.03
151, 0.00, 87267.20, 0.00, 0.00, 0.00, 0.00, 0.00, 0.00, 0.01, -0.01, 1.03
152, 0.00, 87277.28, 0.00, 0.00, 0.00, 0.00, 0.00, 0.00, 0.01, -0.01, 1.03
153, 0.00, 87267.20, 0.00, 0.00, 0.00, 0.00, 0.00, 0.00, 0.01, -0.01, 1.03
154, 0.00, 87258.32, 0.00, 0.00, 0.00, 0.00, 0.00, 0.00, 0.01, -0.01, 1.03
155, 0.00, 87272.34, 0.00, 0.00, 0.00, 0.00, 0.00, 0.00, 0.01, -0.01, 1.03
156, 0.00, 87307.90, 0.00, 0.00, 0.00, 0.00, 0.00, 0.00, 0.01, -0.01, 1.03
157, 0.00, 87265.03, 0.00, 0.00, 0.00, 0.00, 0.00, 0.00, 0.01, -0.01, 1.03
158, 0.00, 87244.33, 0.00, 0.00, 0.00, 0.00, 0.00, 0.00, 0.01, -0.01, 1.03
159, 0.00, 87235.91, 0.00, 0.00, 0.00, 0.00, 0.00, 0.00, 0.01, -0.01, 1.03
160, 0.00, 87274.20, 0.00, 0.00, 0.00, 0.00, 0.00, 0.00, 0.01, -0.01, 1.03
161, 0.00, 87267.35, 0.00, 0.00, 0.00, 0.00, 0.00, 0.00, 0.01, -0.01, 1.03
162, 0.00, 87268.78, 0.00, 0.00, 0.00, 0.00, 0.00, 0.00, 0.01, -0.01, 1.03
163, 0.00, 87262.17, 0.00, 0.00, 0.00, 0.00, 0.00, 0.00, 0.01, 0.00, 1.02
164, 0.00, 87244.69, 0.00, 0.00, 0.00, 0.00, 0.00, 0.00, 0.01, 0.00, 1.02
165, 0.00, 87225.78, 0.00, 0.00, 0.00, 0.00, 0.00, 0.00, 0.01, 0.00, 1.02
166, 0.00, 87245.54, 0.00, 0.00, 0.00, 0.00, 0.00, 0.00, 0.01, 0.00, 1.02
167, 0.00, 87281.16, 0.00, 0.00, 0.00, 0.00, 0.00, 0.00, 0.01, 0.00, 1.02
168, 0.00, 87293.33, 0.00, 0.00, 0.00, 0.00, 0.00, 0.00, 0.01, -0.01, 1.03
169, 0.00, 87267.89, 0.00, 0.00, 0.00, 0.00, 0.00, 0.00, 0.01, -0.01, 1.03
170, 0.00, 87263.40, 0.00, 0.00, 0.00, 0.00, 0.00, 0.00, 0.01, -0.01, 1.03
171, 0.00, 87230.41, 0.00, 0.00, 0.00, 0.00, 0.00, 0.00, 0.01, -0.01, 1.03
172, 0.00, 87254.08, 0.00, 0.00, 0.00, 0.00, 0.00, 0.00, 0.01, -0.01, 1.03
173, 0.00, 87259.93, 0.00, 0.00, 0.00, 0.00, 0.00, 0.00, 0.02, -0.01, 1.03
174, 0.00, 87266.33, 0.00, 0.00, 0.00, 0.00, 0.00, 0.00, 0.02, -0.01, 1.03
175, 0.00, 87250.19, 0.00, 0.00, 0.00, 0.00, 0.00, 0.00, 0.02, -0.01, 1.03
176, 0.00, 87247.91, 0.00, 0.00, 0.00, 0.00, 0.00, 0.00, 0.02, -0.01, 1.03
177, 0.00, 87279.96, 0.00, 0.00, 0.00, 0.00, 0.00, 0.00, 0.02, -0.01, 1.03
178, 0.00, 87274.69, 0.00, 0.00, 0.00, 0.00, 0.00, 0.00, 0.02, -0.01, 1.03
179, 0.00, 87231.08, 0.00, 0.00, 0.00, 0.00, 0.00, 0.00, 0.02, -0.01, 1.03
180, 0.00, 87252.80, 0.00, 0.00, 0.00, 0.00, 0.00, 0.00, 0.02, -0.01, 1.03
181, 0.00, 87275.67, 0.00, 0.00, 0.00, 0.00, 0.00, 0.00, 0.02, -0.01, 1.03
182, 0.00, 87285.70, 0.00, 0.00, 0.00, 0.00, 0.00, 0.00, 0.02, -0.01, 1.03
183, 0.00, 87265.32, 0.00, 0.00, 0.00, 0.00, 0.00, 0.00, 0.01, -0.01, 1.03
184, 0.00, 87236.62, 0.00, 0.00, 0.00, 0.00, 0.00, 0.00, 0.01, -0.01, 1.03
185, 0.00, 87248.83, 0.00, 0.00, 0.00, 0.00, 0.00, 0.00, 0.01, -0.01, 1.03
186, 0.00, 87250.77, 0.00, 0.00, 0.00, 0.00, 0.00, 0.00, 0.01, -0.01, 1.03
187, 0.00, 87231.99, 0.00, 0.00, 0.00, 0.00, 0.00, 0.00, 0.01, -0.01, 1.03
188, 0.00, 87238.99, 0.00, 0.00, 0.00, 0.00, 0.00, 0.00, 0.01, -0.00, 1.03
189, 0.00, 87292.81, 0.00, 0.00, 0.00, 0.00, 0.00, 0.00, 0.01, -0.00, 1.03
190, 0.00, 87284.85, 0.00, 0.00, 0.00, 0.00, 0.00, 0.00, 0.01, -0.00, 1.03
191, 0.00, 87277.59, 0.00, 0.00, 0.00, 0.00, 0.00, 0.00, 0.01, -0.00, 1.03
192, 0.00, 87238.72, 0.00, 0.00, 0.00, 0.00, 0.00, 0.00, 0.01, -0.00, 1.03
193, 0.00, 87232.06, 0.00, 0.00, 0.00, 0.00, 0.00, 0.00, 0.01, -0.00, 1.02
194, 0.00, 87239.26, 0.00, 0.00, 0.00, 0.00, 0.00, 0.00, 0.01, -0.00, 1.02
195, 0.00, 87206.36, 0.00, 0.00, 0.00, 0.00, 0.00, 0.00, 0.01, -0.00, 1.02
196, 0.00, 87172.85, 0.00, 0.00, 0.00, 0.00, 0.00, 0.00, 0.01, -0.00, 1.02
197, 0.00, 87174.84, 0.00, 0.00, 0.00, 0.00, 0.00, 0.00, 0.01, -0.00, 1.02
198, 0.00, 87183.85, 0.00, 0.00, 0.00, 0.00, 0.00, 0.00, 0.01, -0.01, 1.03
199, 0.00, 87163.06, 0.00, 0.00, 0.00, 0.00, 0.00, 0.00, 0.01, -0.01, 1.03
200, 0.00, 87181.34, 0.00, 0.00, 0.00, 0.00, 0.00, 0.00, 0.01, -0.01, 1.03
201, 0.00, 87186.62, 0.00, 0.00, 0.00, 0.00, 0.00, 0.00, 0.01, -0.01, 1.03
202, 0.00, 87192.14, 0.00, 0.00, 0.00, 0.00, 0.00, 0.00, 0.01, -0.01, 1.03
203, 0.00, 87190.60, 0.00, 0.00, 0.00, 0.00, 0.00, 0.00, 0.01, -0.00, 1.04
204, 0.00, 87156.40, 0.00, 0.00, 0.00, 0.00, 0.00, 0.00, 0.01, -0.00, 1.04
205, 0.00, 87170.08, 0.00, 0.00, 0.00, 0.00, 0.00, 0.00, 0.01, -0.00, 1.04
206, 0.00, 87186.28, 0.00, 0.00, 0.00, 0.00, 0.00, 0.00, 0.01, -0.00, 1.04
207, 0.00, 87176.92, 0.00, 0.00, 0.00, 0.00, 0.00, 0.00, 0.01, -0.00, 1.04
208, 0.00, 87197.04, 0.00, 0.00, 0.00, 0.00, 0.00, 0.00, 0.01, -0.01, 1.03
209, 0.00, 87208.88, 0.00, 0.00, 0.00, 0.00, 0.00, 0.00, 0.01, -0.01, 1.03
210, 0.00, 87179.87, 0.00, 0.00, 0.00, 0.00, 0.00, 0.00, 0.01, -0.01, 1.03
211, 0.00, 87196.63, 0.00, 0.00, 0.00, 0.00, 0.00, 0.00, 0.01, -0.01, 1.03
212, 0.00, 87213.93, 0.00, 0.00, 0.00, 0.00, 0.00, 0.00, 0.01, -0.01, 1.03
213, 0.00, 87188.85, 0.00, 0.00, 0.00, 0.00, 0.00, 0.00, 0.01, -0.01, 1.03
214, 0.00, 87166.48, 0.00, 0.00, 0.00, 0.00, 0.00, 0.00, 0.01, -0.01, 1.03
215, 0.00, 87191.76, 0.00, 0.00, 0.00, 0.00, 0.00, 0.00, 0.01, -0.01, 1.03
216, 0.00, 87223.68, 0.00, 0.00, 0.00, 0.00, 0.00, 0.00, 0.01, -0.01, 1.03
217, 0.00, 87202.78, 0.00, 0.00, 0.00, 0.00, 0.00, 0.00, 0.01, -0.01, 1.03
218, 0.00, 87159.98, 0.00, 0.00, 0.00, 0.00, 0.00, 0.00, 0.01, -0.01, 1.03
219, 0.00, 87162.50, 0.00, 0.00, 0.00, 0.00, 0.00, 0.00, 0.01, -0.01, 1.03
220, 0.00, 87164.38, 0.00, 0.00, 0.00, 0.00, 0.00, 0.00, 0.01, -0.01, 1.03
221, 0.00, 87190.33, 0.00, 0.00, 0.00, 0.00, 0.00, 0.00, 0.01, -0.01, 1.03
222, 0.00, 87185.70, 0.00, 0.00, 0.00, 0.00, 0.00, 0.00, 0.01, -0.01, 1.03
223, 0.00, 87208.97, 0.00, 0.00, 0.00, 0.00, 0.00, 0.00, 0.01, -0.01, 1.03
224, 0.00, 87221.02, 0.00, 0.00, 0.00, 0.00, 0.00, 0.00, 0.01, -0.01, 1.03
225, 0.00, 87206.47, 0.00, 0.00, 0.00, 0.00, 0.00, 0.00, 0.01, -0.01, 1.03
226, 0.00, 87195.45, 0.00, 0.00, 0.00, 0.00, 0.00, 0.00, 0.01, -0.01, 1.03
227, 0.00, 87173.90, 0.00, 0.00, 0.00, 0.00, 0.00, 0.00, 0.01, -0.01, 1.03
228, 0.00, 87214.02, 0.00, 0.00, 0.00, 0.00, 0.00, 0.00, 0.01, -0.01, 1.03
229, 0.00, 87200.59, 0.00, 0.00, 0.00, 0.00, 0.00, 0.00, 0.01, -0.01, 1.03
230, 0.00, 87192.12, 0.00, 0.00, 0.00, 0.00, 0.00, 0.00, 0.01, -0.01, 1.03
231, 0.00, 87212.13, 0.00, 0.00, 0.00, 0.00, 0.00, 0.00, 0.01, -0.01, 1.03
232, 0.00, 87225.73, 0.00, 0.00, 0.00, 0.00, 0.00, 0.00, 0.01, -0.01, 1.03
233, 0.00, 87224.91, 0.00, 0.00, 0.00, 0.00, 0.00, 0.00, 0.01, -0.00, 1.03
234, 0.00, 87212.91, 0.00, 0.00, 0.00, 0.00, 0.00, 0.00, 0.01, -0.00, 1.03
235, 0.00, 87225.34, 0.00, 0.00, 0.00, 0.00, 0.00, 0.00, 0.01, -0.00, 1.03
236, 0.00, 87210.45, 0.00, 0.00, 0.00, 0.00, 0.00, 0.00, 0.01, -0.00, 1.03
237, 0.00, 87206.06, 0.00, 0.00, 0.00, 0.00, 0.00, 0.00, 0.01, -0.00, 1.03
238, 0.00, 87213.77, 0.00, 0.00, 0.00, 0.00, 0.00, 0.00, 0.02, 0.00, 1.03
239, 0.00, 87212.70, 0.00, 0.00, 0.00, 0.00, 0.00, 0.00, 0.02, 0.00, 1.03
240, 0.00, 87194.02, 0.00, 0.00, 0.00, 0.00, 0.00, 0.00, 0.02, 0.00, 1.03
241, 0.00, 87196.52, 0.00, 0.00, 0.00, 0.00, 0.00, 0.00, 0.02, 0.00, 1.03
242, 0.00, 87194.20, 0.00, 0.00, 0.00, 0.00, 0.00, 0.00, 0.02, 0.00, 1.03
243, 0.00, 87183.63, 0.00, 0.00, 0.00, 0.00, 0.00, 0.00, 0.02, -0.01, 1.03
244, 0.00, 87194.89, 0.00, 0.00, 0.00, 0.00, 0.00, 0.00, 0.02, -0.01, 1.03
245, 0.00, 87204.68, 0.00, 0.00, 0.00, 0.00, 0.00, 0.00, 0.02, -0.01, 1.03
246, 0.00, 87207.66, 0.00, 0.00, 0.00, 0.00, 0.00, 0.00, 0.02, -0.01, 1.03
247, 0.00, 87180.14, 0.00, 0.00, 0.00, 0.00, 0.00, 0.00, 0.02, -0.01, 1.03
248, 0.00, 87192.48, 0.00, 0.00, 0.00, 0.00, 0.00, 0.00, 0.02, -0.01, 1.03
249, 0.00, 87224.93, 0.00, 0.00, 0.00, 0.00, 0.00, 0.00, 0.02, -0.01, 1.03
250, 0.00, 87204.84, 0.00, 0.00, 0.00, 0.00, 0.00, 0.00, 0.02, -0.01, 1.03
251, 0.00, 87154.16, 0.00, 0.00, 0.00, 0.00, 0.00, 0.00, 0.02, -0.01, 1.03
252, 0.00, 87180.88, 0.00, 0.00, 0.00, 0.00, 0.00, 0.00, 0.02, -0.01, 1.03
253, 0.00, 87177.19, 0.00, 0.00, 0.00, 0.00, 0.00, 0.00, 0.02, -0.01, 1.03
254, 0.00, 87197.04, 0.00, 0.00, 0.00, 0.00, 0.00, 0.00, 0.02, -0.01, 1.03
255, 0.00, 87213.66, 0.00, 0.00, 0.00, 0.00, 0.00, 0.00, 0.02, -0.01, 1.03
0, 0.00, 87205.51, 0.00, 0.00, 0.00, 0.00, 0.00, 0.00, 0.02, -0.01, 1.03
1, 0.00, 87192.38, 0.00, 0.00, 0.00, 0.00, 0.00, 0.00, 0.02, -0.01, 1.03
2, 0.00, 87169.09, 0.00, 0.00, 0.00, 0.00, 0.00, 0.00, 0.02, -0.02, 1.03
3, 0.00, 87191.34, 0.00, 0.00, 0.00, 0.00, 0.00, 0.00, 0.02, -0.02, 1.03
4, 0.00, 87197.41, 0.00, 0.00, 0.00, 0.00, 0.00, 0.00, 0.02, -0.02, 1.03
5, 0.00, 87216.84, 0.00, 0.00, 0.00, 0.00, 0.00, 0.00, 0.02, -0.02, 1.03
6, 0.00, 87202.98, 0.00, 0.00, 0.00, 0.00, 0.00, 0.00, 0.02, -0.02, 1.03
7, 0.00, 87200.84, 0.00, 0.00, 0.00, 0.00, 0.00, 0.00, 0.02, -0.01, 1.03
8, 0.00, 87212.16, 0.00, 0.00, 0.00, 0.00, 0.00, 0.00, 0.02, -0.01, 1.03
9, 0.00, 87228.41, 0.00, 0.00, 0.00, 0.00, 0.00, 0.00, 0.02, -0.01, 1.03
10, 0.00, 87230.67, 0.00, 0.00, 0.00, 0.00, 0.00, 0.00, 0.02, -0.01, 1.03
11, 0.00, 87237.36, 0.00, 0.00, 0.00, 0.00, 0.00, 0.00, 0.02, -0.01, 1.03
12, 0.00, 87198.35, 0.00, 0.00, 0.00, 0.00, 0.00, 0.00, 0.02, -0.01, 1.03
13, 0.00, 87176.65, 0.00, 0.00, 0.00, 0.00, 0.00, 0.00, 0.02, -0.01, 1.03
14, 0.00, 87188.07, 0.00, 0.00, 0.00, 0.00, 0.00, 0.00, 0.02, -0.01, 1.03
15, 0.00, 87216.03, 0.00, 0.00, 0.00, 0.00, 0.00, 0.00, 0.02, -0.01, 1.03
16, 0.00, 87237.76, 0.00, 0.00, 0.00, 0.00, 0.00, 0.00, 0.02, -0.01, 1.03
17, 0.00, 87233.80, 0.00, 0.00, 0.00, 0.00, 0.00, 0.00, 0.01, -0.02, 1.03
18, 0.00, 87229.20, 0.00, 0.00, 0.00, 0.00, 0.00, 0.00, 0.01, -0.02, 1.03
19, 0.00, 87200.95, 0.00, 0.00, 0.00, 0.00, 0.00, 0.00, 0.01, -0.02, 1.03
20, 0.00, 87156.76, 0.00, 0.00, 0.00, 0.00, 0.00, 0.00, 0.01, -0.02, 1.03
21, 0.00, 87183.53, 0.00, 0.00, 0.00, 0.00, 0.00, 0.00, 0.01, -0.02, 1.03
22, 0.00, 87199.23, 0.00, 0.00, 0.00, 0.00, 0.00, 0.00, 0.01, -0.01, 1.03
23, 0.00, 87210.11, 0.00, 0.00, 0.00, 0.00, 0.00, 0.00, 0.01, -0.01, 1.03
24, 0.00, 87196.92, 0.00, 0.00, 0.00, 0.00, 0.00, 0.00, 0.01, -0.01, 1.03
25, 0.00, 87204.34, 0.00, 0.00, 0.00, 0.00, 0.00, 0.00, 0.01, -0.01, 1.03
26, 0.00, 87208.08, 0.00, 0.00, 0.00, 0.00, 0.00, 0.00, 0.01, -0.01, 1.03
27, 0.00, 87218.38, 0.00, 0.00, 0.00, 0.00, 0.00, 0.00, 0.01, -0.01, 1.03
28, 0.00, 87228.66, 0.00, 0.00, 0.00, 0.00, 0.00, 0.00, 0.01, -0.01, 1.03
29, 0.00, 87205.71, 0.00, 0.00, 0.00, 0.00, 0.00, 0.00, 0.01, -0.01, 1.03
30, 0.00, 87193.57, 0.00, 0.00, 0.00, 0.00, 0.00, 0.00, 0.01, -0.01, 1.03
31, 0.00, 87221.58, 0.00, 0.00, 0.00, 0.00, 0.00, 0.00, 0.01, -0.01, 1.03
32, 0.00, 87196.92, 0.00, 0.00, 0.00, 0.00, 0.00, 0.00, 0.01, -0.01, 1.04
33, 0.00, 87189.46, 0.00, 0.00, 0.00, 0.00, 0.00, 0.00, 0.01, -0.01, 1.04
34, 0.00, 87207.30, 0.00, 0.00, 0.00, 0.00, 0.00, 0.00, 0.01, -0.01, 1.04
35, 0.00, 87200.55, 0.00, 0.00, 0.00, 0.00, 0.00, 0.00, 0.01, -0.01, 1.04
36, 0.00, 87206.69, 0.00, 0.00, 0.00, 0.00, 0.00, 0.00, 0.01, -0.01, 1.04
37, 0.00, 87213.22, 0.00, 0.00, 0.00, 0.00, 0.00, 0.00, 0.01, -0.01, 1.03
38, 0.00, 87212.23, 0.00, 0.00, 0.00, 0.00, 0.00, 0.00, 0.01, -0.01, 1.03
39, 0.00, 87202.83, 0.00, 0.00, 0.00, 0.00, 0.00, 0.00, 0.01, -0.01, 1.03
40, 0.00, 87176.59, 0.00, 0.00, 0.00, 0.00, 0.00, 0.00, 0.01, -0.01, 1.03
41, 0.00, 87207.92, 0.00, 0.00, 0.00, 0.00, 0.00, 0.00, 0.01, -0.01, 1.03
42, 0.00, 87183.65, 0.00, 0.00, 0.00, 0.00, 0.00, 0.00, 0.01, -0.01, 1.04
43, 0.00, 87185.91, 0.00, 0.00, 0.00, 0.00, 0.00, 0.00, 0.01, -0.01, 1.04
44, 0.00, 87199.78, 0.00, 0.00, 0.00, 0.00, 0.00, 0.00, 0.01, -0.01, 1.04
45, 0.00, 87202.49, 0.00, 0.00, 0.00, 0.00, 0.00, 0.00, 0.01, -0.01, 1.04
46, 0.00, 87210.16, 0.00, 0.00, 0.00, 0.00, 0.00, 0.00, 0.01, -0.01, 1.04
47, 0.00, 87232.51, 0.00, 0.00, 0.00, 0.00, 0.00, 0.00, 0.01, -0.01, 1.04
48, 0.00, 87218.18, 0.00, 0.00, 0.00, 0.00, 0.00, 0.00, 0.01, -0.01, 1.04
49, 0.00, 87195.47, 0.00, 0.00, 0.00, 0.00, 0.00, 0.00, 0.01, -0.01, 1.04
50, 0.00, 87216.15, 0.00, 0.00, 0.00, 0.00, 0.00, 0.00, 0.01, -0.01, 1.04
51, 0.00, 87239.98, 0.00, 0.00, 0.00, 0.00, 0.00, 0.00, 0.01, -0.01, 1.04
52, 0.00, 87258.32, 0.00, 0.00, 0.00, 0.00, 0.00, 0.00, 0.02, -0.01, 1.04
53, 0.00, 87236.66, 0.00, 0.00, 0.00, 0.00, 0.00, 0.00, 0.02, -0.01, 1.04
54, 0.00, 87195.70, 0.00, 0.00, 0.00, 0.00, 0.00, 0.00, 0.02, -0.01, 1.04
55, 0.00, 87180.67, 0.00, 0.00, 0.00, 0.00, 0.00, 0.00, 0.02, -0.01, 1.04
56, 0.00, 87185.28, 0.00, 0.00, 0.00, 0.00, 0.00, 0.00, 0.02, -0.01, 1.04
57, 0.00, 87181.92, 0.00, 0.00, 0.00, 0.00, 0.00, 0.00, 0.01, -0.01, 1.04
58, 0.00, 87194.06, 0.00, 0.00, 0.00, 0.00, 0.00, 0.00, 0.01, -0.01, 1.04
59, 0.00, 87199.72, 0.00, 0.00, 0.00, 0.00, 0.00, 0.00, 0.01, -0.01, 1.04
60, 0.00, 87202.51, 0.00, 0.00, 0.00, 0.00, 0.00, 0.00, 0.01, -0.01, 1.04
61, 0.00, 87213.48, 0.00, 0.00, 0.00, 0.00, 0.00, 0.00, 0.01, -0.01, 1.04
62, 0.00, 87217.78, 0.00, 0.00, 0.00, 0.00, 0.00, 0.00, 0.01, -0.01, 1.04
63, 0.00, 87203.74, 0.00, 0.00, 0.00, 0.00, 0.00, 0.00, 0.02, -0.01, 1.03
64, 0.00, 87228.26, 0.00, 0.00, 0.00, 0.00, 0.00, 0.00, 0.02, -0.01, 1.03
65, 0.00, 87214.11, 0.00, 0.00, 0.00, 0.00, 0.00, 0.00, 0.02, -0.01, 1.03
66, 0.00, 87209.58, 0.00, 0.00, 0.00, 0.00, 0.00, 0.00, 0.02, -0.01, 1.03
67, 0.00, 87218.18, 0.00, 0.00, 0.00, 0.00, 0.00, 0.00, 0.02, -0.01, 1.03
68, 0.00, 87217.82, 0.00, 0.00, 0.00, 0.00, 0.00, 0.00, 0.01, -0.00, 1.02
69, 0.00, 87230.01, 0.00, 0.00, 0.00, 0.00, 0.00, 0.00, 0.01, -0.00, 1.02
70, 0.00, 87232.13, 0.00, 0.00, 0.00, 0.00, 0.00, 0.00, 0.01, -0.00, 1.02
71, 0.00, 87239.93, 0.00, 0.00, 0.00, 0.00, 0.00, 0.00, 0.01, -0.00, 1.02
72, 0.00, 87206.60, 0.00, 0.00, 0.00, 0.00, 0.00, 0.00, 0.01, -0.00, 1.02
73, 0.00, 87207.07, 0.00, 0.00, 0.00, 0.00, 0.00, 0.00, 0.01, -0.00, 1.03
74, 0.00, 87219.70, 0.00, 0.00, 0.00, 0.00, 0.00, 0.00, 0.01, -0.00, 1.03
75, 0.00, 87224.23, 0.00, 0.00, 0.00, 0.00, 0.00, 0.00, 0.01, -0.00, 1.03
76, 0.00, 87223.84, 0.00, 0.00, 0.00, 0.00, 0.00, 0.00, 0.01, -0.00, 1.03
77, 0.00, 87203.90, 0.00, 0.00, 0.00, 0.00, 0.00, 0.00, 0.01, -0.00, 1.03
78, 0.00, 87200.92, 0.00, 0.00, 0.00, 0.00, 0.00, 0.00, 0.01, -0.01, 1.02
79, 0.00, 87212.64, 0.00, 0.00, 0.00, 0.00, 0.00, 0.00, 0.01, -0.01, 1.02
80, 0.00, 87242.86, 0.00, 0.00, 0.00, 0.00, 0.00, 0.00, 0.01, -0.01, 1.02
81, 0.00, 87232.38, 0.00, 0.00, 0.00, 0.00, 0.00, 0.00, 0.01, -0.01, 1.02
82, 0.00, 87227.55, 0.00, 0.00, 0.00, 0.00, 0.00, 0.00, 0.01, -0.01, 1.02
83, 0.00, 87195.11, 0.00, 0.00, 0.00, 0.00, 0.00, 0.00, 0.01, -0.01, 1.02
84, 0.00, 87209.46, 0.00, 0.00, 0.00, 0.00, 0.00, 0.00, 0.01, -0.01, 1.02
85, 0.00, 87238.43, 0.00, 0.00, 0.00, 0.00, 0.00, 0.00, 0.01, -0.01, 1.02
86, 0.00, 87218.91, 0.00, 0.00, 0.00, 0.00, 0.00, 0.00, 0.01, -0.01, 1.02
87, 0.00, 87190.24, 0.00, 0.00, 0.00, 0.00, 0.00, 0.00, 0.01, -0.01, 1.02
88, 0.00, 87213.51, 0.00, 0.00, 0.00, 0.00, 0.00, 0.00, 0.02, -0.01, 1.03
89, 0.00, 87223.30, 0.00, 0.00, 0.00, 0.00, 0.00, 0.00, 0.02, -0.01, 1.03
90, 0.00, 87215.05, 0.00, 0.00, 0.00, 0.00, 0.00, 0.00, 0.02, -0.01, 1.03
91, 0.00, 87234.61, 0.00, 0.00, 0.00, 0.00, 0.00, 0.00, 0.02, -0.01, 1.03
92, 0.00, 87238.03, 0.00, 0.00, 0.00, 0.00, 0.00, 0.00, 0.02, -0.01, 1.03
93, 0.00, 87221.53, 0.00, 0.00, 0.00, 0.00, 0.00, 0.00, 0.02, -0.01, 1.03
94, 0.00, 87191.38, 0.00, 0.00, 0.00, 0.00, 0.00, 0.00, 0.02, -0.01, 1.03
95, 0.00, 87180.27, 0.00, 0.00, 0.00, 0.00, 0.00, 0.00, 0.02, -0.01, 1.03
96, 0.00, 87215.27, 0.00, 0.00, 0.00, 0.00, 0.00, 0.00, 0.02, -0.01, 1.03
97, 0.00, 87210.31, 0.00, 0.00, 0.00, 0.00, 0.00, 0.00, 0.02, -0.01, 1.03
98, 0.00, 87192.25, 0.00, 0.00, 0.00, 0.00, 0.00, 0.00, 0.02, -0.01, 1.03
99, 0.00, 87191.89, 0.00, 0.00, 0.00, 0.00, 0.00, 0.00, 0.02, -0.01, 1.03
100, 0.00, 87204.16, 0.00, 0.00, 0.00, 0.00, 0.00, 0.00, 0.02, -0.01, 1.03
101, 0.00, 87185.46, 0.00, 0.00, 0.00, 0.00, 0.00, 0.00, 0.02, -0.01, 1.03
102, 0.00, 87179.80, 0.00, 0.00, 0.00, 0.00, 0.00, 0.00, 0.02, -0.01, 1.03
103, 0.00, 87188.19, 0.00, 0.00, 0.00, 0.00, 0.00, 0.00, 0.01, -0.01, 1.03
104, 0.00, 87191.20, 0.00, 0.00, 0.00, 0.00, 0.00, 0.00, 0.01, -0.01, 1.03
105, 0.00, 87185.93, 0.00, 0.00, 0.00, 0.00, 0.00, 0.00, 0.01, -0.01, 1.03
106, 0.00, 87191.67, 0.00, 0.00, 0.00, 0.00, 0.00, 0.00, 0.01, -0.01, 1.03
107, 0.00, 87186.69, 0.00, 0.00, 0.00, 0.00, 0.00, 0.00, 0.01, -0.01, 1.03
108, 0.00, 87200.45, 0.00, 0.00, 0.00, 0.00, 0.00, 0.00, 0.01, -0.01, 1.03
109, 0.00, 87217.11, 0.00, 0.00, 0.00, 0.00, 0.00, 0.00, 0.01, -0.01, 1.03
110, 0.00, 87243.23, 0.00, 0.00, 0.00, 0.00, 0.00, 0.00, 0.01, -0.01, 1.03
111, 0.00, 87227.03, 0.00, 0.00, 0.00, 0.00, 0.00, 0.00, 0.01, -0.01, 1.03
112, 0.00, 87204.73, 0.00, 0.00, 0.00, 0.00, 0.00, 0.00, 0.01, -0.01, 1.03
113, 0.00, 87195.96, 0.00, 0.00, 0.00, 0.00, 0.00, 0.00, 0.01, -0.01, 1.03
114, 0.00, 87190.89, 0.00, 0.00, 0.00, 0.00, 0.00, 0.00, 0.01, -0.01, 1.03
115, 0.00, 87183.27, 0.00, 0.00, 0.00, 0.00, 0.00, 0.00, 0.01, -0.01, 1.03
116, 0.00, 87194.76, 0.00, 0.00, 0.00, 0.00, 0.00, 0.00, 0.01, -0.01, 1.03
117, 0.00, 87195.25, 0.00, 0.00, 0.00, 0.00, 0.00, 0.00, 0.01, -0.01, 1.03
118, 0.00, 87201.64, 0.00, 0.00, 0.00, 0.00, 0.00, 0.00, 0.00, -0.01, 1.04
119, 0.00, 87231.08, 0.00, 0.00, 0.00, 0.00, 0.00, 0.00, 0.00, -0.01, 1.04
120, 0.00, 87215.19, 0.00, 0.00, 0.00, 0.00, 0.00, 0.00, 0.00, -0.01, 1.04
121, 0.00, 87204.10, 0.00, 0.00, 0.00, 0.00, 0.00, 0.00, 0.00, -0.01, 1.04
122, 0.00, 87225.78, 0.00, 0.00, 0.00, 0.00, 0.00, 0.00, 0.00, -0.01, 1.04
123, 0.00, 87202.38, 0.00, 0.00, 0.00, 0.00, 0.00, 0.00, 0.00, -0.01, 1.03
124, 0.00, 87210.54, 0.00, 0.00, 0.00, 0.00, 0.00, 0.00, 0.00, -0.01, 1.03
125, 0.00, 87206.80, 0.00, 0.00, 0.00, 0.00, 0.00, 0.00, 0.00, -0.01, 1.03
126, 0.00, 87203.90, 0.00, 0.00, 0.00, 0.00, 0.00, 0.00, 0.00, -0.01, 1.03
127, 0.00, 87219.72, 0.00, 0.00, 0.00, 0.00, 0.00, 0.00, 0.00, -0.01, 1.03
128, 0.00, 87200.14, 0.00, 0.00, 0.00, 0.00, 0.00, 0.00, 0.01, -0.01, 1.04
129, 0.00, 87164.29, 0.00, 0.00, 0.00, 0.00, 0.00, 0.00, 0.01, -0.01, 1.04
130, 0.00, 87212.46, 0.00, 0.00, 0.00, 0.00, 0.00, 0.00, 0.01, -0.01, 1.04
131, 0.00, 87215.34, 0.00, 0.00, 0.00, 0.00, 0.00, 0.00, 0.01, -0.01, 1.04
132, 0.00, 87206.47, 0.00, 0.00, 0.00, 0.00, 0.00, 0.00, 0.01, -0.01, 1.04
133, 0.00, 87214.70, 0.00, 0.00, 0.00, 0.00, 0.00, 0.00, 0.01, -0.01, 1.04
134, 0.00, 87219.68, 0.00, 0.00, 0.00, 0.00, 0.00, 0.00, 0.01, -0.01, 1.04
135, 0.00, 87205.91, 0.00, 0.00, 0.00, 0.00, 0.00, 0.00, 0.01, -0.01, 1.04
136, 0.00, 87202.11, 0.00, 0.00, 0.00, 0.00, 0.00, 0.00, 0.01, -0.01, 1.04
137, 0.00, 87221.82, 0.00, 0.00, 0.00, 0.00, 0.00, 0.00, 0.01, -0.01, 1.04
138, 0.00, 87220.70, 0.00, 0.00, 0.00, 0.00, 0.00, 0.00, 0.01, -0.01, 1.03
139, 0.00, 87215.70, 0.00, 0.00, 0.00, 0.00, 0.00, 0.00, 0.01, -0.01, 1.03
140, 0.00, 87225.16, 0.00, 0.00, 0.00, 0.00, 0.00, 0.00, 0.01, -0.01, 1.03
141, 0.00, 87206.78, 0.00, 0.00, 0.00, 0.00, 0.00, 0.00, 0.01, -0.01, 1.03
142, 0.00, 87199.63, 0.00, 0.00, 0.00, 0.00, 0.00, 0.00, 0.01, -0.01, 1.03
143, 0.00, 87193.13, 0.00, 0.00, 0.00, 0.00, 0.00, 0.00, 0.02, -0.01, 1.03
144, 0.00, 87203.65, 0.00, 0.00, 0.00, 0.00, 0.00, 0.00, 0.02, -0.01, 1.03
145, 0.00, 87188.32, 0.00, 0.00, 0.00, 0.00, 0.00, 0.00, 0.02, -0.01, 1.03
146, 0.00, 87184.74, 0.00, 0.00, 0.00, 0.00, 0.00, 0.00, 0.02, -0.01, 1.03
147, 0.00, 87194.95, 0.00, 0.00, 0.00, 0.00, 0.00, 0.00, 0.02, -0.01, 1.03
148, 0.00, 87203.49, 0.00, 0.00, 0.00, 0.00, 0.00, 0.00, 0.02, -0.01, 1.03
149, 0.00, 87189.52, 0.00, 0.00, 0.00, 0.00, 0.00, 0.00, 0.02, -0.01, 1.03
150, 0.00, 87208.13, 0.00, 0.00, 0.00, 0.00, 0.00, 0.00, 0.02, -0.01, 1.03
151, 0.00, 87232.51, 0.00, 0.00, 0.00, 0.00, 0.00, 0.00, 0.02, -0.01, 1.03
152, 0.00, 87231.79, 0.00, 0.00, 0.00, 0.00, 0.00, 0.00, 0.02, -0.01, 1.03
153, 0.00, 87199.90, 0.00, 0.00, 0.00, 0.00, 0.00, 0.00, 0.02, -0.01, 1.04
154, 0.00, 87245.88, 0.00, 0.00, 0.00, 0.00, 0.00, 0.00, 0.02, -0.01, 1.04
155, 0.00, 87252.69, 0.00, 0.00, 0.00, 0.00, 0.00, 0.00, 0.02, -0.01, 1.04
156, 0.00, 87194.06, 0.00, 0.00, 0.00, 0.00, 0.00, 0.00, 0.02, -0.01, 1.04
157, 0.00, 87209.71, 0.00, 0.00, 0.00, 0.00, 0.00, 0.00, 0.02, -0.01, 1.04
158, 0.00, 87213.89, 0.00, 0.00, 0.00, 0.00, 0.00, 0.00, 0.01, -0.01, 1.03
159, 0.00, 87220.26, 0.00, 0.00, 0.00, 0.00, 0.00, 0.00, 0.01, -0.01, 1.03
160, 0.00, 87175.40, 0.00, 0.00, 0.00, 0.00, 0.00, 0.00, 0.01, -0.01, 1.03
161, 0.00, 87182.57, 0.00, 0.00, 0.00, 0.00, 0.00, 0.00, 0.01, -0.01, 1.03
162, 0.00, 87201.66, 0.00, 0.00, 0.00, 0.00, 0.00, 0.00, 0.01, -0.01, 1.03
163, 0.00, 87207.70, 0.00, 0.00, 0.00, 0.00, 0.00, 0.00, 0.02, -0.01, 1.03
164, 0.00, 87223.79, 0.00, 0.00, 0.00, 0.00, 0.00, 0.00, 0.02, -0.01, 1.03
165, 0.00, 87206.05, 0.00, 0.00, 0.00, 0.00, 0.00, 0.00, 0.02, -0.01, 1.03
166, 0.00, 87200.14, 0.00, 0.00, 0.00, 0.00, 0.00, 0.00, 0.02, -0.01, 1.03
167, 0.00, 87194.47, 0.00, 0.00, 0.00, 0.00, 0.00, 0.00, 0.02, -0.01, 1.03
168, 0.00, 87185.16, 0.00, 0.00, 0.00, 0.00, 0.00, 0.00, 0.02, -0.01, 1.03
169, 0.00, 87186.28, 0.00, 0.00, 0.00, 0.00, 0.00, 0.00, 0.02, -0.01, 1.03
170, 0.00, 87221.16, 0.00, 0.00, 0.00, 0.00, 0.00, 0.00, 0.02, -0.01, 1.03
171, 0.00, 87198.27, 0.00, 0.00, 0.00, 0.00, 0.00, 0.00, 0.02, -0.01, 1.03
172, 0.00, 87172.00, 0.00, 0.00, 0.00, 0.00, 0.00, 0.00, 0.02, -0.01, 1.03
173, 0.00, 87171.73, 0.00, 0.00, 0.00, 0.00, 0.00, 0.00, 0.02, -0.01, 1.02
174, 0.00, 87198.96, 0.00, 0.00, 0.00, 0.00, 0.00, 0.00, 0.02, -0.01, 1.02
175, 0.00, 87210.11, 0.00, 0.00, 0.00, 0.00, 0.00, 0.00, 0.02, -0.01, 1.02
176, 0.00, 87219.52, 0.00, 0.00, 0.00, 0.00, 0.00, 0.00, 0.02, -0.01, 1.02
177, 0.00, 87226.77, 0.00, 0.00, 0.00, 0.00, 0.00, 0.00, 0.02, -0.01, 1.02
178, 0.00, 87213.46, 0.00, 0.00, 0.00, 0.00, 0.00, 0.00, 0.01, 0.00, 1.02
179, 0.00, 87201.26, 0.00, 0.00, 0.00, 0.00, 0.00, 0.00, 0.01, 0.00, 1.02
180, 0.00, 87226.56, 0.00, 0.00, 0.00, 0.00, 0.00, 0.00, 0.01, 0.00, 1.02
181, 0.00, 87217.51, 0.00, 0.00, 0.00, 0.00, 0.00, 0.00, 0.01, 0.00, 1.02
182, 0.00, 87216.59, 0.00, 0.00, 0.00, 0.00, 0.00, 0.00, 0.01, 0.00, 1.02
183, 0.00, 87216.52, 0.00, 0.00, 0.00, 0.00, 0.00, 0.00, 0.01, -0.00, 1.02
184, 0.00, 87186.53, 0.00, 0.00, 0.00, 0.00, 0.00, 0.00, 0.01, -0.00, 1.02
185, 0.00, 87230.34, 0.00, 0.00, 0.00, 0.00, 0.00, 0.00, 0.01, -0.00, 1.02
186, 0.00, 87230.67, 0.00, 0.00, 0.00, 0.00, 0.00, 0.00, 0.01, -0.00, 1.02
187, 0.00, 87219.81, 0.00, 0.00, 0.00, 0.00, 0.00, 0.00, 0.01, -0.00, 1.02
188, 0.00, 87198.94, 0.00, 0.00, 0.00, 0.00, 0.00, 0.00, 0.01, -0.00, 1.02
189, 0.00, 87194.30, 0.00, 0.00, 0.00, 0.00, 0.00, 0.00, 0.01, -0.00, 1.02
190, 0.00, 87207.49, 0.00, 0.00, 0.00, 0.00, 0.00, 0.00, 0.01, -0.00, 1.02
191, 0.00, 87215.50, 0.00, 0.00, 0.00, 0.00, 0.00, 0.00, 0.01, -0.00, 1.02
192, 0.00, 87219.79, 0.00, 0.00, 0.00, 0.00, 0.00, 0.00, 0.01, -0.00, 1.02
193, 0.00, 87236.13, 0.00, 0.00, 0.00, 0.00, 0.00, 0.00, 0.01, -0.00, 1.03
194, 0.00, 87238.19, 0.00, 0.00, 0.00, 0.00, 0.00, 0.00, 0.01, -0.00, 1.03
195, 0.00, 87202.89, 0.00, 0.00, 0.00, 0.00, 0.00, 0.00, 0.01, -0.00, 1.03
196, 0.00, 87183.38, 0.00, 0.00, 0.00, 0.00, 0.00, 0.00, 0.01, -0.00, 1.03
197, 0.00, 87208.28, 0.00, 0.00, 0.00, 0.00, 0.00, 0.00, 0.01, -0.00, 1.03
198, 0.00, 87225.76, 0.00, 0.00, 0.00, 0.00, 0.00, 0.00, 0.02, 0.00, 1.03
199, 0.00, 87226.74, 0.00, 0.00, 0.00, 0.00, 0.00, 0.00, 0.02, 0.00, 1.03
200, 0.00, 87229.38, 0.00, 0.00, 0.00, 0.00, 0.00, 0.00, 0.02, 0.00, 1.03
201, 0.00, 87210.23, 0.00, 0.00, 0.00, 0.00, 0.00, 0.00, 0.02, 0.00, 1.03
202, 0.00, 87236.22, 0.00, 0.00, 0.00, 0.00, 0.00, 0.00, 0.02, 0.00, 1.03
203, 0.00, 87231.77, 0.00, 0.00, 0.00, 0.00, 0.00, 0.00, 0.01, -0.00, 1.03
204, 0.00, 87193.21, 0.00, 0.00, 0.00, 0.00, 0.00, 0.00, 0.01, -0.00, 1.03
205, 0.00, 87179.78, 0.00, 0.00, 0.00, 0.00, 0.00, 0.00, 0.01, -0.00, 1.03
206, 0.00, 87204.01, 0.00, 0.00, 0.00, 0.00, 0.00, 0.00, 0.01, -0.00, 1.03
207, 0.00, 87197.86, 0.00, 0.00, 0.00, 0.00, 0.00, 0.00, 0.01, -0.00, 1.03
208, 0.00, 87215.38, 0.00, 0.00, 0.00, 0.00, 0.00, 0.00, 0.01, -0.00, 1.03
209, 0.00, 87220.77, 0.00, 0.00, 0.00, 0.00, 0.00, 0.00, 0.01, -0.00, 1.03
210, 0.00, 87213.45, 0.00, 0.00, 0.00, 0.00, 0.00, 0.00, 0.01, -0.00, 1.03
211, 0.00, 87195.96, 0.00, 0.00, 0.00, 0.00, 0.00, 0.00, 0.01, -0.00, 1.03
212, 0.00, 87194.15, 0.00, 0.00, 0.00, 0.00, 0.00, 0.00, 0.01, -0.00, 1.03
213, 0.00, 87212.81, 0.00, 0.00, 0.00, 0.00, 0.00, 0.00, 0.01, -0.01, 1.03
214, 0.00, 87224.35, 0.00, 0.00, 0.00, 0.00, 0.00, 0.00, 0.01, -0.01, 1.03
215, 0.00, 87214.98, 0.00, 0.00, 0.00, 0.00, 0.00, 0.00, 0.01, -0.01, 1.03
216, 0.00, 87208.21, 0.00, 0.00, 0.00, 0.00, 0.00, 0.00, 0.01, -0.01, 1.03
217, 0.00, 87235.75, 0.00, 0.00, 0.00, 0.00, 0.00, 0.00, 0.01, -0.01, 1.03
218, 0.00, 87219.70, 0.00, 0.00, 0.00, 0.00, 0.00, 0.00, 0.01, -0.01, 1.03
219, 0.00, 87198.38, 0.00, 0.00, 0.00, 0.00, 0.00, 0.00, 0.01, -0.01, 1.03
220, 0.00, 87203.45, 0.00, 0.00, 0.00, 0.00, 0.00, 0.00, 0.01, -0.01, 1.03
221, 0.00, 87218.34, 0.00, 0.00, 0.00, 0.00, 0.00, 0.00, 0.01, -0.01, 1.03
222, 0.00, 87239.44, 0.00, 0.00, 0.00, 0.00, 0.00, 0.00, 0.01, -0.01, 1.03
223, 0.00, 87220.10, 0.00, 0.00, 0.00, 0.00, 0.00, 0.00, 0.01, -0.01, 1.02
224, 0.00, 87193.02, 0.00, 0.00, 0.00, 0.00, 0.00, 0.00, 0.01, -0.01, 1.02
225, 0.00, 87209.09, 0.00, 0.00, 0.00, 0.00, 0.00, 0.00, 0.01, -0.01, 1.02
226, 0.00, 87214.18, 0.00, 0.00, 0.00, 0.00, 0.00, 0.00, 0.01, -0.01, 1.02
227, 0.00, 87192.59, 0.00, 0.00, 0.00, 0.00, 0.00, 0.00, 0.01, -0.01, 1.02
228, 0.00, 87194.51, 0.00, 0.00, 0.00, 0.00, 0.00, 0.00, 0.01, -0.01, 1.04
229, 0.00, 87218.65, 0.00, 0.00, 0.00, 0.00, 0.00, 0.00, 0.01, -0.01, 1.04
230, 0.00, 87239.02, 0.00, 0.00, 0.00, 0.00, 0.00, 0.00, 0.01, -0.01, 1.04
231, 0.00, 87222.85, 0.00, 0.00, 0.00, 0.00, 0.00, 0.00, 0.01, -0.01, 1.04
232, 0.00, 87188.88, 0.00, 0.00, 0.00, 0.00, 0.00, 0.00, 0.01, -0.01, 1.04
233, 0.00, 87209.80, 0.00, 0.00, 0.00, 0.00, 0.00, 0.00, 0.02, -0.01, 1.03
234, 0.00, 87222.56, 0.00, 0.00, 0.00, 0.00, 0.00, 0.00, 0.02, -0.01, 1.03
235, 0.00, 87203.09, 0.00, 0.00, 0.00, 0.00, 0.00, 0.00, 0.02, -0.01, 1.03
236, 0.00, 87221.71, 0.00, 0.00, 0.00, 0.00, 0.00, 0.00, 0.02, -0.01, 1.03
237, 0.00, 87221.94, 0.00, 0.00, 0.00, 0.00, 0.00, 0.00, 0.02, -0.01, 1.03
238, 0.00, 87218.00, 0.00, 0.00, 0.00, 0.00, 0.00, 0.00, 0.02, -0.00, 1.02
239, 0.00, 87209.73, 0.00, 0.00, 0.00, 0.00, 0.00, 0.00, 0.02, -0.00, 1.02
240, 0.00, 87233.00, 0.00, 0.00, 0.00, 0.00, 0.00, 0.00, 0.02, -0.00, 1.02
241, 0.00, 87220.33, 0.00, 0.00, 0.00, 0.00, 0.00, 0.00, 0.02, -0.00, 1.02
242, 0.00, 87205.82, 0.00, 0.00, 0.00, 0.00, 0.00, 0.00, 0.02, -0.00, 1.02
243, 0.00, 87193.95, 0.00, 0.00, 0.00, 0.00, 0.00, 0.00, 0.01, -0.00, 1.02
244, 0.00, 87202.84, 0.00, 0.00, 0.00, 0.00, 0.00, 0.00, 0.01, -0.00, 1.02
245, 0.00, 87208.21, 0.00, 0.00, 0.00, 0.00, 0.00, 0.00, 0.01, -0.00, 1.02
246, 0.00, 87199.92, 0.00, 0.00, 0.00, 0.00, 0.00, 0.00, 0.01, -0.00, 1.02
247, 0.00, 87216.37, 0.00, 0.00, 0.00, 0.00, 0.00, 0.00, 0.01, -0.00, 1.02
248, 0.00, 87209.30, 0.00, 0.00, 0.00, 0.00, 0.00, 0.00, 0.01, -0.01, 1.02
249, 0.00, 87227.97, 0.00, 0.00, 0.00, 0.00, 0.00, 0.00, 0.01, -0.01, 1.02
250, 0.00, 87239.19, 0.00, 0.00, 0.00, 0.00, 0.00, 0.00, 0.01, -0.01, 1.02
251, 0.00, 87246.92, 0.00, 0.00, 0.00, 0.00, 0.00, 0.00, 0.01, -0.01, 1.02
252, 0.00, 87244.31, 0.00, 0.00, 0.00, 0.00, 0.00, 0.00, 0.01, -0.01, 1.02
253, 0.00, 87213.89, 0.00, 0.00, 0.00, 0.00, 0.00, 0.00, 0.01, -0.01, 1.03
254, 0.00, 87195.11, 0.00, 0.00, 0.00, 0.00, 0.00, 0.00, 0.01, -0.01, 1.03
255, 0.00, 87217.53, 0.00, 0.00, 0.00, 0.00, 0.00, 0.00, 0.01, -0.01, 1.03
0, 0.00, 87231.57, 0.00, 0.00, 0.00, 0.00, 0.00, 0.00, 0.01, -0.01, 1.03
1, 0.00, 87247.88, 0.00, 0.00, 0.00, 0.00, 0.00, 0.00, 0.01, -0.01, 1.03
2, 0.00, 87226.23, 0.00, 0.00, 0.00, 0.00, 0.00, 0.00, 0.01, -0.01, 1.03
3, 0.00, 87225.53, 0.00, 0.00, 0.00, 0.00, 0.00, 0.00, 0.01, -0.01, 1.03
4, 0.00, 87232.51, 0.00, 0.00, 0.00, 0.00, 0.00, 0.00, 0.01, -0.01, 1.03
5, 0.00, 87217.13, 0.00, 0.00, 0.00, 0.00, 0.00, 0.00, 0.01, -0.01, 1.03
6, 0.00, 87216.52, 0.00, 0.00, 0.00, 0.00, 0.00, 0.00, 0.01, -0.01, 1.03
7, 0.00, 87234.23, 0.00, 0.00, 0.00, 0.00, 0.00, 0.00, 0.01, -0.01, 1.03
8, 0.00, 87219.32, 0.00, 0.00, 0.00, 0.00, 0.00, 0.00, 0.01, -0.01, 1.03
9, 0.00, 87237.42, 0.00, 0.00, 0.00, 0.00, 0.00, 0.00, 0.01, -0.01, 1.03
10, 0.00, 87208.21, 0.00, 0.00, 0.00, 0.00, 0.00, 0.00, 0.01, -0.01, 1.03
11, 0.00, 87200.45, 0.00, 0.00, 0.00, 0.00, 0.00, 0.00, 0.01, -0.01, 1.03
12, 0.00, 87229.09, 0.00, 0.00, 0.00, 0.00, 0.00, 0.00, 0.01, -0.01, 1.03
13, 0.00, 87233.45, 0.00, 0.00, 0.00, 0.00, 0.00, 0.00, 0.01, -0.01, 1.02
14, 0.00, 87222.07, 0.00, 0.00, 0.00, 0.00, 0.00, 0.00, 0.01, -0.01, 1.02
15, 0.00, 87219.61, 0.00, 0.00, 0.00, 0.00, 0.00, 0.00, 0.01, -0.01, 1.02
16, 0.00, 87233.96, 0.00, 0.00, 0.00, 0.00, 0.00, 0.00, 0.01, -0.01, 1.02
17, 0.00, 87237.49, 0.00, 0.00, 0.00, 0.00, 0.00, 0.00, 0.01, -0.01, 1.02
18, 0.00, 87253.07, 0.00, 0.00, 0.00, 0.00, 0.00, 0.00, 0.01, -0.01, 1.02
19, 0.00, 87235.03, 0.00, 0.00, 0.00, 0.00, 0.00, 0.00, 0.01, -0.01, 1.02
20, 0.00, 87237.94, 0.00, 0.00, 0.00, 0.00, 0.00, 0.00, 0.01, -0.01, 1.02
21, 0.00, 87237.47, 0.00, 0.00, 0.00, 0.00, 0.00, 0.00, 0.01, -0.01, 1.02
22, 0.00, 87247.15, 0.00, 0.00, 0.00, 0.00, 0.00, 0.00, 0.01, -0.01, 1.02
23, 0.00, 87242.19, 0.00, 0.00, 0.00, 0.00, 0.00, 0.00, 0.02, -0.01, 1.02
24, 0.00, 87238.77, 0.00, 0.00, 0.00, 0.00, 0.00, 0.00, 0.02, -0.01, 1.02
25, 0.00, 87248.91, 0.00, 0.00, 0.00, 0.00, 0.00, 0.00, 0.02, -0.01, 1.02
26, 0.00, 87255.95, 0.00, 0.00, 0.00, 0.00, 0.00, 0.00, 0.02, -0.01, 1.02
27, 0.00, 87211.41, 0.00, 0.00, 0.00, 0.00, 0.00, 0.00, 0.02, -0.01, 1.02
28, 0.00, 87228.26, 0.00, 0.00, 0.00, 0.00, 0.00, 0.00, 0.01, -0.01, 1.03
29, 0.00, 87252.38, 0.00, 0.00, 0.00, 0.00, 0.00, 0.00, 0.01, -0.01, 1.03
30, 0.00, 87240.04, 0.00, 0.00, 0.00, 0.00, 0.00, 0.00, 0.01, -0.01, 1.03
31, 0.00, 87237.36, 0.00, 0.00, 0.00, 0.00, 0.00, 0.00, 0.01, -0.01, 1.03
32, 0.00, 87225.55, 0.00, 0.00, 0.00, 0.00, 0.00, 0.00, 0.01, -0.01, 1.03
33, 0.00, 87229.89, 0.00, 0.00, 0.00, 0.00, 0.00, 0.00, 0.01, -0.01, 1.03
34, 0.00, 87222.74, 0.00, 0.00, 0.00, 0.00, 0.00, 0.00, 0.01, -0.01, 1.03
35, 0.00, 87235.26, 0.00, 0.00, 0.00, 0.00, 0.00, 0.00, 0.01, -0.01, 1.03
36, 0.00, 87236.38, 0.00, 0.00, 0.00, 0.00, 0.00, 0.00, 0.01, -0.01, 1.03
37, 0.00, 87251.95, 0.00, 0.00, 0.00, 0.00, 0.00, 0.00, 0.01, -0.01, 1.03
38, 0.00, 87259.77, 0.00, 0.00, 0.00, 0.00, 0.00, 0.00, 0.01, -0.01, 1.03
39, 0.00, 87223.63, 0.00, 0.00, 0.00, 0.00, 0.00, 0.00, 0.01, -0.01, 1.03
40, 0.00, 87230.95, 0.00, 0.00, 0.00, 0.00, 0.00, 0.00, 0.01, -0.01, 1.03
41, 0.00, 87262.57, 0.00, 0.00, 0.00, 0.00, 0.00, 0.00, 0.01, -0.01, 1.03
42, 0.00, 87226.34, 0.00, 0.00, 0.00, 0.00, 0.00, 0.00, 0.01, -0.01, 1.03
43, 0.00, 87178.55, 0.00, 0.00, 0.00, 0.00, 0.00, 0.00, 0.01, -0.01, 1.03
44, 0.00, 87210.94, 0.00, 0.00, 0.00, 0.00, 0.00, 0.00, 0.01, -0.01, 1.03
45, 0.00, 87235.03, 0.00, 0.00, 0.00, 0.00, 0.00, 0.00, 0.01, -0.01, 1.03
46, 0.00, 87223.23, 0.00, 0.00, 0.00, 0.00, 0.00, 0.00, 0.01, -0.01, 1.03
47, 0.00, 87210.27, 0.00, 0.00, 0.00, 0.00, 0.00, 0.00, 0.01, -0.01, 1.03
48, 0.00, 87217.94, 0.00, 0.00, 0.00, 0.00, 0.00, 0.00, 0.01, -0.01, 1.03
49, 0.00, 87246.27, 0.00, 0.00, 0.00, 0.00, 0.00, 0.00, 0.01, -0.01, 1.03
50, 0.00, 87253.02, 0.00, 0.00, 0.00, 0.00, 0.00, 0.00, 0.01, -0.01, 1.03
51, 0.00, 87219.95, 0.00, 0.00, 0.00, 0.00, 0.00, 0.00, 0.01, -0.01, 1.03
52, 0.00, 87251.35, 0.00, 0.00, 0.00, 0.00, 0.00, 0.00, 0.01, -0.01, 1.03
53, 0.00, 87252.16, 0.00, 0.00, 0.00, 0.00, 0.00, 0.00, 0.01, -0.01, 1.03
54, 0.00, 87236.87, 0.00, 0.00, 0.00, 0.00, 0.00, 0.00, 0.01, -0.01, 1.03
55, 0.00, 87246.48, 0.00, 0.00, 0.00, 0.00, 0.00, 0.00, 0.01, -0.01, 1.03
56, 0.00, 87238.77, 0.00, 0.00, 0.00, 0.00, 0.00, 0.00, 0.01, -0.01, 1.03
57, 0.00, 87238.37, 0.00, 0.00, 0.00, 0.00, 0.00, 0.00, 0.01, -0.01, 1.03
58, 0.00, 87231.13, 0.00, 0.00, 0.00, 0.00, 0.00, 0.00, 0.02, -0.01, 1.03
59, 0.00, 87223.81, 0.00, 0.00, 0.00, 0.00, 0.00, 0.00, 0.02, -0.01, 1.03
60, 0.00, 87233.96, 0.00, 0.00, 0.00, 0.00, 0.00, 0.00, 0.02, -0.01, 1.03
61, 0.00, 87224.02, 0.00, 0.00, 0.00, 0.00, 0.00, 0.00, 0.02, -0.01, 1.03
62, 0.00, 87232.46, 0.00, 0.00, 0.00, 0.00, 0.00, 0.00, 0.02, -0.01, 1.03
63, 0.00, 87236.04, 0.00, 0.00, 0.00, 0.00, 0.00, 0.00, 0.02, -0.01, 1.03
64, 0.00, 87228.02, 0.00, 0.00, 0.00, 0.00, 0.00, 0.00, 0.02, -0.01, 1.03
65, 0.00, 87250.77, 0.00, 0.00, 0.00, 0.00, 0.00, 0.00, 0.02, -0.01, 1.03
66, 0.00, 87256.83, 0.00, 0.00, 0.00, 0.00, 0.00, 0.00, 0.02, -0.01, 1.03
67, 0.00, 87240.48, 0.00, 0.00, 0.00, 0.00, 0.00, 0.00, 0.02, -0.01, 1.03
68, 0.00, 87231.97, 0.00, 0.00, 0.00, 0.00, 0.00, 0.00, 0.02, -0.01, 1.03
69, 0.00, 87230.20, 0.00, 0.00, 0.00, 0.00, 0.00, 0.00, 0.02, -0.01, 1.03
70, 0.00, 87246.09, 0.00, 0.00, 0.00, 0.00, 0.00, 0.00, 0.02, -0.01, 1.03
71, 0.00, 87257.70, 0.00, 0.00, 0.00, 0.00, 0.00, 0.00, 0.02, -0.01, 1.03
72, 0.00, 87251.84, 0.00, 0.00, 0.00, 0.00, 0.00, 0.00, 0.02, -0.01, 1.03
73, 0.00, 87228.84, 0.00, 0.00, 0.00, 0.00, 0.00, 0.00, 0.01, -0.01, 1.03
74, 0.00, 87246.37, 0.00, 0.00, 0.00, 0.00, 0.00, 0.00, 0.01, -0.01, 1.03
75, 0.00, 87266.44, 0.00, 0.00, 0.00, 0.00, 0.00, 0.00, 0.01, -0.01, 1.03
76, 0.00, 87247.69, 0.00, 0.00, 0.00, 0.00, 0.00, 0.00, 0.01, -0.01, 1.03
77, 0.00, 87230.01, 0.00, 0.00, 0.00, 0.00, 0.00, 0.00, 0.01, -0.01, 1.03
78, 0.00, 87229.18, 0.00, 0.00, 0.00, 0.00, 0.00, 0.00, 0.01, -0.01, 1.03
79, 0.00, 87248.94, 0.00, 0.00, 0.00, 0.00, 0.00, 0.00, 0.01, -0.01, 1.03
80, 0.00, 87268.98, 0.00, 0.00, 0.00, 0.00, 0.00, 0.00, 0.01, -0.01, 1.03
81, 0.00, 87308.68, 0.00, 0.00, 0.00, 0.00, 0.00, 0.00, 0.01, -0.01, 1.03
82, 0.00, 87275.83, 0.00, 0.00, 0.00, 0.00, 0.00, 0.00, 0.01, -0.01, 1.03
83, 0.00, 87245.12, 0.00, 0.00, 0.00, 0.00, 0.00, 0.00, 0.01, -0.01, 1.04
84, 0.00, 87232.87, 0.00, 0.00, 0.00, 0.00, 0.00, 0.00, 0.01, -0.01, 1.04
85, 0.00, 87256.27, 0.00, 0.00, 0.00, 0.00, 0.00, 0.00, 0.01, -0.01, 1.04
86, 0.00, 87268.94, 0.00, 0.00, 0.00, 0.00, 0.00, 0.00, 0.01, -0.01, 1.04
87, 0.00, 87256.16, 0.00, 0.00, 0.00, 0.00, 0.00, 0.00, 0.01, -0.01, 1.04
88, 0.00, 87255.24, 0.00, 0.00, 0.00, 0.00, 0.00, 0.00, 0.01, -0.01, 1.03
89, 0.00, 87263.11, 0.00, 0.00, 0.00, 0.00, 0.00, 0.00, 0.01, -0.01, 1.03
90, 0.00, 87242.39, 0.00, 0.00, 0.00, 0.00, 0.00, 0.00, 0.01, -0.01, 1.03
91, 0.00, 87240.22, 0.00, 0.00, 0.00, 0.00, 0.00, 0.00, 0.01, -0.01, 1.03
92, 0.00, 87235.03, 0.00, 0.00, 0.00, 0.00, 0.00, 0.00, 0.01, -0.01, 1.03
93, 0.00, 87236.46, 0.00, 0.00, 0.00, 0.00, 0.00, 0.00, 0.02, -0.01, 1.03
94, 0.00, 87264.49, 0.00, 0.00, 0.00, 0.00, 0.00, 0.00, 0.02, -0.01, 1.03
95, 0.00, 87277.66, 0.00, 0.00, 0.00, 0.00, 0.00, 0.00, 0.02, -0.01, 1.03
96, 0.00, 87267.94, 0.00, 0.00, 0.00, 0.00, 0.00, 0.00, 0.02, -0.01, 1.03
97, 0.00, 87243.13, 0.00, 0.00, 0.00, 0.00, 0.00, 0.00, 0.02, -0.01, 1.03
98, 0.00, 87228.66, 0.00, 0.00, 0.00, 0.00, 0.00, 0.00, 0.02, -0.01, 1.03
99, 0.00, 87260.29, 0.00, 0.00, 0.00, 0.00, 0.00, 0.00, 0.02, -0.01, 1.03
100, 0.00, 87265.55, 0.00, 0.00, 0.00, 0.00, 0.00, 0.00, 0.02, -0.01, 1.03
101, 0.00, 87232.89, 0.00, 0.00, 0.00, 0.00, 0.00, 0.00, 0.02, -0.01, 1.03
102, 0.00, 87235.37, 0.00, 0.00, 0.00, 0.00, 0.00, 0.00, 0.02, -0.01, 1.03
103, 0.00, 87241.49, 0.00, 0.00, 0.00, 0.00, 0.00, 0.00, 0.02, -0.01, 1.02
104, 0.00, 87236.24, 0.00, 0.00, 0.00, 0.00, 0.00, 0.00, 0.02, -0.01, 1.02
105, 0.00, 87255.04, 0.00, 0.00, 0.00, 0.00, 0.00, 0.00, 0.02, -0.01, 1.02
106, 0.00, 87251.26, 0.00, 0.00, 0.00, 0.00, 0.00, 0.00, 0.02, -0.01, 1.02
107, 0.00, 87251.08, 0.00, 0.00, 0.00, 0.00, 0.00, 0.00, 0.02, -0.01, 1.02
108, 0.00, 87240.63, 0.00, 0.00, 0.00, 0.00, 0.00, 0.00, 0.02, -0.01, 1.02
109, 0.00, 87266.30, 0.00, 0.00, 0.00, 0.00, 0.00, 0.00, 0.02, -0.01, 1.02
110, 0.00, 87259.89, 0.00, 0.00, 0.00, 0.00, 0.00, 0.00, 0.02, -0.01, 1.02
111, 0.00, 87248.45, 0.00, 0.00, 0.00, 0.00, 0.00, 0.00, 0.02, -0.01, 1.02
112, 0.00, 87253.02, 0.00, 0.00, 0.00, 0.00, 0.00, 0.00, 0.02, -0.01, 1.02
113, 0.00, 87240.46, 0.00, 0.00, 0.00, 0.00, 0.00, 0.00, 0.02, -0.01, 1.02
114, 0.00, 87231.79, 0.00, 0.00, 0.00, 0.00, 0.00, 0.00, 0.02, -0.01, 1.02
115, 0.00, 87268.13, 0.00, 0.00, 0.00, 0.00, 0.00, 0.00, 0.02, -0.01, 1.02
116, 0.00, 87285.41, 0.00, 0.00, 0.00, 0.00, 0.00, 0.00, 0.02, -0.01, 1.02
117, 0.00, 87271.89, 0.00, 0.00, 0.00, 0.00, 0.00, 0.00, 0.02, -0.01, 1.02
118, 0.00, 87265.43, 0.00, 0.00, 0.00, 0.00, 0.00, 0.00, 0.02, -0.01, 1.03
119, 0.00, 87246.34, 0.00, 0.00, 0.00, 0.00, 0.00, 0.00, 0.02, -0.01, 1.03
120, 0.00, 87236.46, 0.00, 0.00, 0.00, 0.00, 0.00, 0.00, 0.02, -0.01, 1.03
121, 0.00, 87261.50, 0.00, 0.00, 0.00, 0.00, 0.00, 0.00, 0.02, -0.01, 1.03
122, 0.00, 87272.52, 0.00, 0.00, 0.00, 0.00, 0.00, 0.00, 0.02, -0.01, 1.03
123, 0.00, 87260.52, 0.00, 0.00, 0.00, 0.00, 0.00, 0.00, 0.02, -0.01, 1.03
124, 0.00, 87248.53, 0.00, 0.00, 0.00, 0.00, 0.00, 0.00, 0.02, -0.01, 1.03
125, 0.00, 87241.90, 0.00, 0.00, 0.00, 0.00, 0.00, 0.00, 0.02, -0.01, 1.03
126, 0.00, 87244.42, 0.00, 0.00, 0.00, 0.00, 0.00, 0.00, 0.02, -0.01, 1.03
127, 0.00, 87254.14, 0.00, 0.00, 0.00, 0.00, 0.00, 0.00, 0.02, -0.01, 1.03
128, 0.00, 87250.34, 0.00, 0.00, 0.00, 0.00, 0.00, 0.00, 0.03, -0.01, 1.02
129, 0.00, 87262.84, 0.00, 0.00, 0.00, 0.00, 0.00, 0.00, 0.03, -0.01, 1.02
130, 0.00, 87262.19, 0.00, 0.00, 0.00, 0.00, 0.00, 0.00, 0.03, -0.01, 1.02
131, 0.00, 87265.07, 0.00, 0.00, 0.00, 0.00, 0.00, 0.00, 0.03, -0.01, 1.02
132, 0.00, 87284.70, 0.00, 0.00, 0.00, 0.00, 0.00, 0.00, 0.03, -0.01, 1.02
133, 0.00, 87281.66, 0.00, 0.00, 0.00, 0.00, 0.00, 0.00, 0.03, -0.01, 1.02
134, 0.00, 87260.38, 0.00, 0.00, 0.00, 0.00, 0.00, 0.00, 0.03, -0.01, 1.02
135, 0.00, 87282.04, 0.00, 0.00, 0.00, 0.00, 0.00, 0.00, 0.03, -0.01, 1.02
136, 0.00, 87281.05, 0.00, 0.00, 0.00, 0.00, 0.00, 0.00, 0.03, -0.01, 1.02
137, 0.00, 87271.58, 0.00, 0.00, 0.00, 0.00, 0.00, 0.00, 0.03, -0.01, 1.02
138, 0.00, 87263.84, 0.00, 0.00, 0.00, 0.00, 0.00, 0.00, 0.02, -0.01, 1.03
139, 0.00, 87250.03, 0.00, 0.00, 0.00, 0.00, 0.00, 0.00, 0.02, -0.01, 1.03
140, 0.00, 87235.84, 0.00, 0.00, 0.00, 0.00, 0.00, 0.00, 0.02, -0.01, 1.03
141, 0.00, 87261.50, 0.00, 0.00, 0.00, 0.00, 0.00, 0.00, 0.02, -0.01, 1.03
142, 0.00, 87266.15, 0.00, 0.00, 0.00, 0.00, 0.00, 0.00, 0.02, -0.01, 1.03
143, 0.00, 87258.88, 0.00, 0.00, 0.00, 0.00, 0.00, 0.00, 0.01, -0.01, 1.03
144, 0.00, 87245.74, 0.00, 0.00, 0.00, 0.00, 0.00, 0.00, 0.01, -0.01, 1.03
145, 0.00, 87259.17, 0.00, 0.00, 0.00, 0.00, 0.00, 0.00, 0.01, -0.01, 1.03
146, 0.00, 87250.50, 0.00, 0.00, 0.00, 0.00, 0.00, 0.00, 0.01, -0.01, 1.03
147, 0.00, 87248.04, 0.00, 0.00, 0.00, 0.00, 0.00, 0.00, 0.01, -0.01, 1.03
148, 0.00, 87278.22, 0.00, 0.00, 0.00, 0.00, 0.00, 0.00, 0.01, -0.02, 1.03
149, 0.00, 87286.22, 0.00, 0.00, 0.00, 0.00, 0.00, 0.00, 0.01, -0.02, 1.03
150, 0.00, 87276.88, 0.00, 0.00, 0.00, 0.00, 0.00, 0.00, 0.01, -0.02, 1.03
151, 0.00, 87260.60, 0.00, 0.00, 0.00, 0.00, 0.00, 0.00, 0.01, -0.02, 1.03
152, 0.00, 87292.25, 0.00, 0.00, 0.00, 0.00, 0.00, 0.00, 0.01, -0.02, 1.03
153, 0.00, 87284.74, 0.00, 0.00, 0.00, 0.00, 0.00, 0.00, 0.01, -0.01, 1.03
154, 0.00, 87244.35, 0.00, 0.00, 0.00, 0.00, 0.00, 0.00, 0.01, -0.01, 1.03
155, 0.00, 87260.23, 0.00, 0.00, 0.00, 0.00, 0.00, 0.00, 0.01, -0.01, 1.03
156, 0.00, 87270.95, 0.00, 0.00, 0.00, 0.00, 0.00, 0.00, 0.01, -0.01, 1.03
157, 0.00, 87284.14, 0.00, 0.00, 0.00, 0.00, 0.00, 0.00, 0.01, -0.01, 1.03
158, 0.00, 87299.12, 0.00, 0.00, 0.00, 0.00, 0.00, 0.00, 0.02, -0.01, 1.03
159, 0.00, 87270.59, 0.00, 0.00, 0.00, 0.00, 0.00, 0.00, 0.02, -0.01, 1.03
160, 0.00, 87251.44, 0.00, 0.00, 0.00, 0.00, 0.00, 0.00, 0.02, -0.01, 1.03
161, 0.00, 87252.63, 0.00, 0.00, 0.00, 0.00, 0.00, 0.00, 0.02, -0.01, 1.03
162, 0.00, 87288.32, 0.00, 0.00, 0.00, 0.00, 0.00, 0.00, 0.02, -0.01, 1.03
163, 0.00, 87286.55, 0.00, 0.00, 0.00, 0.00, 0.00, 0.00, 0.02, -0.00, 1.03
164, 0.00, 87271.29, 0.00, 0.00, 0.00, 0.00, 0.00, 0.00, 0.02, -0.00, 1.03
165, 0.00, 87269.16, 0.00, 0.00, 0.00, 0.00, 0.00, 0.00, 0.02, -0.00, 1.03
166, 0.00, 87277.28, 0.00, 0.00, 0.00, 0.00, 0.00, 0.00, 0.02, -0.00, 1.03
167, 0.00, 87249.98, 0.00, 0.00, 0.00, 0.00, 0.00, 0.00, 0.02, -0.00, 1.03
168, 0.00, 87253.52, 0.00, 0.00, 0.00, 0.00, 0.00, 0.00, 0.02, -0.00, 1.02
169, 0.00, 87246.09, 0.00, 0.00, 0.00, 0.00, 0.00, 0.00, 0.02, -0.00, 1.02
170, 0.00, 87264.36, 0.00, 0.00, 0.00, 0.00, 0.00, 0.00, 0.02, -0.00, 1.02
171, 0.00, 87284.41, 0.00, 0.00, 0.00, 0.00, 0.00, 0.00, 0.02, -0.00, 1.02
172, 0.00, 87285.37, 0.00, 0.00, 0.00, 0.00, 0.00, 0.00, 0.02, -0.00, 1.02
173, 0.00, 87278.20, 0.00, 0.00, 0.00, 0.00, 0.00, 0.00, 0.02, 0.00, 1.03
174, 0.00, 87278.26, 0.00, 0.00, 0.00, 0.00, 0.00, 0.00, 0.02, 0.00, 1.03
175, 0.00, 87279.83, 0.00, 0.00, 0.00, 0.00, 0.00, 0.00, 0.02, 0.00, 1.03
176, 0.00, 87289.51, 0.00, 0.00, 0.00, 0.00, 0.00, 0.00, 0.02, 0.00, 1.03
177, 0.00, 87283.73, 0.00, 0.00, 0.00, 0.00, 0.00, 0.00, 0.02, 0.00, 1.03
178, 0.00, 87279.11, 0.00, 0.00, 0.00, 0.00, 0.00, 0.00, 0.02, -0.00, 1.03
179, 0.00, 87310.34, 0.00, 0.00, 0.00, 0.00, 0.00, 0.00, 0.02, -0.00, 1.03
180, 0.00, 87286.84, 0.00, 0.00, 0.00, 0.00, 0.00, 0.00, 0.02, -0.00, 1.03
181, 0.00, 87261.45, 0.00, 0.00, 0.00, 0.00, 0.00, 0.00, 0.02, -0.00, 1.03
182, 0.00, 87291.34, 0.00, 0.00, 0.00, 0.00, 0.00, 0.00, 0.02, -0.00, 1.03
183, 0.00, 87294.13, 0.00, 0.00, 0.00, 0.00, 0.00, 0.00, 0.02, -0.00, 1.03
184, 0.00, 87305.69, 0.00, 0.00, 0.00, 0.00, 0.00, 0.00, 0.02, -0.00, 1.03
185, 0.00, 87286.82, 0.00, 0.00, 0.00, 0.00, 0.00, 0.00, 0.02, -0.00, 1.03
186, 0.00, 87244.51, 0.00, 0.00, 0.00, 0.00, 0.00, 0.00, 0.02, -0.00, 1.03
187, 0.00, 87245.70, 0.00, 0.00, 0.00, 0.00, 0.00, 0.00, 0.02, -0.00, 1.03
188, 0.00, 87252.00, 0.00, 0.00, 0.00, 0.00, 0.00, 0.00, 0.02, -0.00, 1.02
189, 0.00, 87273.48, 0.00, 0.00, 0.00, 0.00, 0.00, 0.00, 0.02, -0.00, 1.02
190, 0.00, 87251.69, 0.00, 0.00, 0.00, 0.00, 0.00, 0.00, 0.02, -0.00, 1.02
191, 0.00, 87276.90, 0.00, 0.00, 0.00, 0.00, 0.00, 0.00, 0.02, -0.00, 1.02
192, 0.00, 87287.49, 0.00, 0.00, 0.00, 0.00, 0.00, 0.00, 0.02, -0.00, 1.02
193, 0.00, 87286.76, 0.00, 0.00, 0.00, 0.00, 0.00, 0.00, 0.02, -0.00, 1.02
194, 0.00, 87286.09, 0.00, 0.00, 0.00, 0.00, 0.00, 0.00, 0.01, -0.00, 1.03
195, 0.00, 87296.37, 0.00, 0.00, 0.00, 0.00, 0.00, 0.00, 0.01, -0.00, 1.03
196, 0.00, 87271.51, 0.00, 0.00, 0.00, 0.00, 0.00, 0.00, 0.01, -0.00, 1.03
197, 0.00, 87255.26, 0.00, 0.00, 0.00, 0.00, 0.00, 0.00, 0.01, -0.00, 1.03
198, 0.00, 87253.95, 0.00, 0.00, 0.00, 0.00, 0.00, 0.00, 0.01, -0.00, 1.03
199, 0.00, 87290.35, 0.00, 0.00, 0.00, 0.00, 0.00, 0.00, 0.02, 0.00, 1.03
200, 0.00, 87292.88, 0.00, 0.00, 0.00, 0.00, 0.00, 0.00, 0.02, 0.00, 1.03
201, 0.00, 87282.09, 0.00, 0.00, 0.00, 0.00, 0.00, 0.00, 0.02, 0.00, 1.03
202, 0.00, 87281.39, 0.00, 0.00, 0.00, 0.00, 0.00, 0.00, 0.02, 0.00, 1.03
203, 0.00, 87290.87, 0.00, 0.00, 0.00, 0.00, 0.00, 0.00, 0.02, 0.00, 1.03
204, 0.00, 87319.91, 0.00, 0.00, 0.00, 0.00, 0.00, 0.00, 0.01, -0.00, 1.03
205, 0.00, 87340.00, 0.00, 0.00, 0.00, 0.00, 0.00, 0.00, 0.01, -0.00, 1.03
206, 0.00, 87262.19, 0.00, 0.00, 0.00, 0.00, 0.00, 0.00, 0.01, -0.00, 1.03
207, 0.00, 87234.38, 0.00, 0.00, 0.00, 0.00, 0.00, 0.00, 0.01, -0.00, 1.03
208, 0.00, 87263.51, 0.00, 0.00, 0.00, 0.00, 0.00, 0.00, 0.01, -0.00, 1.03
209, 0.00, 87308.17, 0.00, 0.00, 0.00, 0.00, 0.00, 0.00, 0.01, 0.00, 1.03
210, 0.00, 87291.02, 0.00, 0.00, 0.00, 0.00, 0.00, 0.00, 0.01, 0.00, 1.03
211, 0.00, 87241.83, 0.00, 0.00, 0.00, 0.00, 0.00, 0.00, 0.01, 0.00, 1.03
212, 0.00, 87263.04, 0.00, 0.00, 0.00, 0.00, 0.00, 0.00, 0.01, 0.00, 1.03
213, 0.00, 87278.53, 0.00, 0.00, 0.00, 0.00, 0.00, 0.00, 0.01, 0.00, 1.03
214, 0.00, 87301.59, 0.00, 0.00, 0.00, 0.00, 0.00, 0.00, 0.02, -0.00, 1.03
215, 0.00, 87295.95, 0.00, 0.00, 0.00, 0.00, 0.00, 0.00, 0.02, -0.00, 1.03
216, 0.00, 87278.28, 0.00, 0.00, 0.00, 0.00, 0.00, 0.00, 0.02, -0.00, 1.03
217, 0.00, 87277.21, 0.00, 0.00, 0.00, 0.00, 0.00, 0.00, 0.02, -0.00, 1.03
218, 0.00, 87256.02, 0.00, 0.00, 0.00, 0.00, 0.00, 0.00, 0.02, -0.00, 1.03
219, 0.00, 87255.09, 0.00, 0.00, 0.00, 0.00, 0.00, 0.00, 0.02, -0.00, 1.02
220, 0.00, 87257.01, 0.00, 0.00, 0.00, 0.00, 0.00, 0.00, 0.02, -0.00, 1.02
221, 0.00, 87256.54, 0.00, 0.00, 0.00, 0.00, 0.00, 0.00, 0.02, -0.00, 1.02
222, 0.00, 87261.37, 0.00, 0.00, 0.00, 0.00, 0.00, 0.00, 0.02, -0.00, 1.02
223, 0.00, 87263.51, 0.00, 0.00, 0.00, 0.00, 0.00, 0.00, 0.02, -0.00, 1.02
224, 0.00, 87269.92, 0.00, 0.00, 0.00, 0.00, 0.00, 0.00, 0.01, -0.01, 1.02
225, 0.00, 87277.75, 0.00, 0.00, 0.00, 0.00, 0.00, 0.00, 0.01, -0.01, 1.02
226, 0.00, 87262.91, 0.00, 0.00, 0.00, 0.00, 0.00, 0.00, 0.01, -0.01, 1.02
227, 0.00, 87274.30, 0.00, 0.00, 0.00, 0.00, 0.00, 0.00, 0.01, -0.01, 1.02
228, 0.00, 87280.66, 0.00, 0.00, 0.00, 0.00, 0.00, 0.00, 0.01, -0.01, 1.02
229, 0.00, 87286.27, 0.00, 0.00, 0.00, 0.00, 0.00, 0.00, 0.02, 0.00, 1.02
230, 0.00, 87282.40, 0.00, 0.00, 0.00, 0.00, 0.00, 0.00, 0.02, 0.00, 1.02
231, 0.00, 87293.30, 0.00, 0.00, 0.00, 0.00, 0.00, 0.00, 0.02, 0.00, 1.02
232, 0.00, 87285.02, 0.00, 0.00, 0.00, 0.00, 0.00, 0.00, 0.02, 0.00, 1.02
233, 0.00, 87300.57, 0.00, 0.00, 0.00, 0.00, 0.00, 0.00, 0.02, 0.00, 1.02
234, 0.00, 87273.57, 0.00, 0.00, 0.00, 0.00, 0.00, 0.00, 0.01, -0.01, 1.03
235, 0.00, 87256.49, 0.00, 0.00, 0.00, 0.00, 0.00, 0.00, 0.01, -0.01, 1.03
236, 0.00, 87277.70, 0.00, 0.00, 0.00, 0.00, 0.00, 0.00, 0.01, -0.01, 1.03
237, 0.00, 87294.96, 0.00, 0.00, 0.00, 0.00, 0.00, 0.00, 0.01, -0.01, 1.03
238, 0.00, 87272.12, 0.00, 0.00, 0.00, 0.00, 0.00, 0.00, 0.01, -0.01, 1.03
239, 0.00, 87248.58, 0.00, 0.00, 0.00, 0.00, 0.00, 0.00, 0.02, -0.00, 1.02
240, 0.00, 87258.62, 0.00, 0.00, 0.00, 0.00, 0.00, 0.00, 0.02, -0.00, 1.02
241, 0.00, 87274.73, 0.00, 0.00, 0.00, 0.00, 0.00, 0.00, 0.02, -0.00, 1.02
242, 0.00, 87269.34, 0.00, 0.00, 0.00, 0.00, 0.00, 0.00, 0.02, -0.00, 1.02
243, 0.00, 87269.43, 0.00, 0.00, 0.00, 0.00, 0.00, 0.00, 0.02, -0.00, 1.02
244, 0.00, 87285.48, 0.00, 0.00, 0.00, 0.00, 0.00, 0.00, 0.01, 0.00, 1.03
245, 0.00, 87270.23, 0.00, 0.00, 0.00, 0.00, 0.00, 0.00, 0.01, 0.00, 1.03
246, 0.00, 87254.19, 0.00, 0.00, 0.00, 0.00, 0.00, 0.00, 0.01, 0.00, 1.03
247, 0.00, 87250.73, 0.00, 0.00, 0.00, 0.00, 0.00, 0.00, 0.01, 0.00, 1.03
248, 0.00, 87292.92, 0.00, 0.00, 0.00, 0.00, 0.00, 0.00, 0.01, 0.00, 1.03
249, 0.00, 87302.58, 0.00, 0.00, 0.00, 0.00, 0.00, 0.00, 0.01, -0.00, 1.02
250, 0.00, 87286.63, 0.00, 0.00, 0.00, 0.00, 0.00, 0.00, 0.01, -0.00, 1.02
251, 0.00, 87257.61, 0.00, 0.00, 0.00, 0.00, 0.00, 0.00, 0.01, -0.00, 1.02
252, 0.00, 87264.27, 0.00, 0.00, 0.00, 0.00, 0.00, 0.00, 0.01, -0.00, 1.02
253, 0.00, 87288.39, 0.00, 0.00, 0.00, 0.00, 0.00, 0.00, 0.01, -0.00, 1.02
254, 0.00, 87277.45, 0.00, 0.00, 0.00, 0.00, 0.00, 0.00, 0.01, 0.00, 1.03
255, 0.00, 87263.80, 0.00, 0.00, 0.00, 0.00, 0.00, 0.00, 0.01, 0.00, 1.03
0, 0.00, 87262.66, 0.00, 0.00, 0.00, 0.00, 0.00, 0.00, 0.01, 0.00, 1.03
1, 0.00, 87281.08, 0.00, 0.00, 0.00, 0.00, 0.00, 0.00, 0.01, 0.00, 1.03
2, 0.00, 87267.89, 0.00, 0.00, 0.00, 0.00, 0.00, 0.00, 0.01, 0.00, 1.03
3, 0.00, 87263.35, 0.00, 0.00, 0.00, 0.00, 0.00, 0.00, 0.02, 0.00, 1.03
4, 0.00, 87281.44, 0.00, 0.00, 0.00, 0.00, 0.00, 0.00, 0.02, 0.00, 1.03
5, 0.00, 87291.23, 0.00, 0.00, 0.00, 0.00, 0.00, 0.00, 0.02, 0.00, 1.03
6, 0.00, 87280.30, 0.00, 0.00, 0.00, 0.00, 0.00, 0.00, 0.02, 0.00, 1.03
7, 0.00, 87281.73, 0.00, 0.00, 0.00, 0.00, 0.00, 0.00, 0.02, 0.00, 1.03
8, 0.00, 87268.65, 0.00, 0.00, 0.00, 0.00, 0.00, 0.00, 0.02, -0.00, 1.03
9, 0.00, 87263.15, 0.00, 0.00, 0.00, 0.00, 0.00, 0.00, 0.02, -0.00, 1.03
10, 0.00, 87279.67, 0.00, 0.00, 0.00, 0.00, 0.00, 0.00, 0.02, -0.00, 1.03
11, 0.00, 87273.97, 0.00, 0.00, 0.00, 0.00, 0.00, 0.00, 0.02, -0.00, 1.03
12, 0.00, 87270.46, 0.00, 0.00, 0.00, 0.00, 0.00, 0.00, 0.02, -0.00, 1.03
13, 0.00, 87287.23, 0.00, 0.00, 0.00, 0.00, 0.00, 0.00, 0.02, -0.01, 1.03
14, 0.00, 87269.66, 0.00, 0.00, 0.00, 0.00, 0.00, 0.00, 0.02, -0.01, 1.03
15, 0.00, 87266.64, 0.00, 0.00, 0.00, 0.00, 0.00, 0.00, 0.02, -0.01, 1.03
16, 0.00, 87272.43, 0.00, 0.00, 0.00, 0.00, 0.00, 0.00, 0.02, -0.01, 1.03
17, 0.00, 87254.03, 0.00, 0.00, 0.00, 0.00, 0.00, 0.00, 0.02, -0.01, 1.03
18, 0.00, 87265.59, 0.00, 0.00, 0.00, 0.00, 0.00, 0.00, 0.02, -0.01, 1.02
19, 0.00, 87289.17, 0.00, 0.00, 0.00, 0.00, 0.00, 0.00, 0.02, -0.01, 1.02
20, 0.00, 87277.99, 0.00, 0.00, 0.00, 0.00, 0.00, 0.00, 0.02, -0.01, 1.02
21, 0.00, 87289.80, 0.00, 0.00, 0.00, 0.00, 0.00, 0.00, 0.02, -0.01, 1.02
22, 0.00, 87290.76, 0.00, 0.00, 0.00, 0.00, 0.00, 0.00, 0.02, -0.01, 1.02
23, 0.00, 87306.49, 0.00, 0.00, 0.00, 0.00, 0.00, 0.00, 0.01, -0.01, 1.02
24, 0.00, 87293.22, 0.00, 0.00, 0.00, 0.00, 0.00, 0.00, 0.01, -0.01, 1.02
25, 0.00, 87276.98, 0.00, 0.00, 0.00, 0.00, 0.00, 0.00, 0.01, -0.01, 1.02
26, 0.00, 87285.70, 0.00, 0.00, 0.00, 0.00, 0.00, 0.00, 0.01, -0.01, 1.02
27, 0.00, 87276.83, 0.00, 0.00, 0.00, 0.00, 0.00, 0.00, 0.01, -0.01, 1.02
28, 0.00, 87271.98, 0.00, 0.00, 0.00, 0.00, 0.00, 0.00, 0.02, -0.01, 1.02
29, 0.00, 87263.48, 0.00, 0.00, 0.00, 0.00, 0.00, 0.00, 0.02, -0.01, 1.02
30, 0.00, 87268.54, 0.00, 0.00, 0.00, 0.00, 0.00, 0.00, 0.02, -0.01, 1.02
31, 0.00, 87292.86, 0.00, 0.00, 0.00, 0.00, 0.00, 0.00, 0.02, -0.01, 1.02
32, 0.00, 87270.41, 0.00, 0.00, 0.00, 0.00, 0.00, 0.00, 0.02, -0.01, 1.02
33, 0.00, 87254.70, 0.00, 0.00, 0.00, 0.00, 0.00, 0.00, 0.01, -0.00, 1.03
34, 0.00, 87276.20, 0.00, 0.00, 0.00, 0.00, 0.00, 0.00, 0.01, -0.00, 1.03
35, 0.00, 87274.75, 0.00, 0.00, 0.00, 0.00, 0.00, 0.00, 0.01, -0.00, 1.03
36, 0.00, 87255.48, 0.00, 0.00, 0.00, 0.00, 0.00, 0.00, 0.01, -0.00, 1.03
37, 0.00, 87271.51, 0.00, 0.00, 0.00, 0.00, 0.00, 0.00, 0.01, -0.00, 1.03
38, 0.00, 87274.08, 0.00, 0.00, 0.00, 0.00, 0.00, 0.00, 0.01, -0.01, 1.03
39, 0.00, 87271.47, 0.00, 0.00, 0.00, 0.00, 0.00, 0.00, 0.01, -0.01, 1.03
40, 0.00, 87278.48, 0.00, 0.00, 0.00, 0.00, 0.00, 0.00, 0.01, -0.01, 1.03
41, 0.00, 87287.91, 0.00, 0.00, 0.00, 0.00, 0.00, 0.00, 0.01, -0.01, 1.03
42, 0.00, 87280.38, 0.00, 0.00, 0.00, 0.00, 0.00, 0.00, 0.01, -0.01, 1.03
43, 0.00, 87266.77, 0.00, 0.00, 0.00, 0.00, 0.00, 0.00, 0.01, -0.01, 1.02
44, 0.00, 87249.98, 0.00, 0.00, 0.00, 0.00, 0.00, 0.00, 0.01, -0.01, 1.02
45, 0.00, 87253.67, 0.00, 0.00, 0.00, 0.00, 0.00, 0.00, 0.01, -0.01, 1.02
46, 0.00, 87271.40, 0.00, 0.00, 0.00, 0.00, 0.00, 0.00, 0.01, -0.01, 1.02
47, 0.00, 87295.92, 0.00, 0.00, 0.00, 0.00, 0.00, 0.00, 0.01, -0.01, 1.02
48, 0.00, 87314.27, 0.00, 0.00, 0.00, 0.00, 0.00, 0.00, 0.01, -0.00, 1.03
49, 0.00, 87294.80, 0.00, 0.00, 0.00, 0.00, 0.00, 0.00, 0.01, -0.00, 1.03
50, 0.00, 87276.07, 0.00, 0.00, 0.00, 0.00, 0.00, 0.00, 0.01, -0.00, 1.03
51, 0.00, 87284.07, 0.00, 0.00, 0.00, 0.00, 0.00, 0.00, 0.01, -0.00, 1.03
52, 0.00, 87266.59, 0.00, 0.00, 0.00, 0.00, 0.00, 0.00, 0.01, -0.00, 1.03
53, 0.00, 87276.23, 0.00, 0.00, 0.00, 0.00, 0.00, 0.00, 0.01, -0.01, 1.02
54, 0.00, 87299.98, 0.00, 0.00, 0.00, 0.00, 0.00, 0.00, 0.01, -0.01, 1.02
55, 0.00, 87287.67, 0.00, 0.00, 0.00, 0.00, 0.00, 0.00, 0.01, -0.01, 1.02
56, 0.00, 87264.00, 0.00, 0.00, 0.00, 0.00, 0.00, 0.00, 0.01, -0.01, 1.02
57, 0.00, 87278.30, 0.00, 0.00, 0.00, 0.00, 0.00, 0.00, 0.01, -0.01, 1.02
58, 0.00, 87282.71, 0.00, 0.00, 0.00, 0.00, 0.00, 0.00, 0.02, -0.01, 1.03
59, 0.00, 87290.20, 0.00, 0.00, 0.00, 0.00, 0.00, 0.00, 0.02, -0.01, 1.03
60, 0.00, 87289.62, 0.00, 0.00, 0.00, 0.00, 0.00, 0.00, 0.02, -0.01, 1.03
61, 0.00, 87277.93, 0.00, 0.00, 0.00, 0.00, 0.00, 0.00, 0.02, -0.01, 1.03
62, 0.00, 87278.33, 0.00, 0.00, 0.00, 0.00, 0.00, 0.00, 0.02, -0.01, 1.03
63, 0.00, 87281.39, 0.00, 0.00, 0.00, 0.00, 0.00, 0.00, 0.01, -0.00, 1.02
64, 0.00, 87264.49, 0.00, 0.00, 0.00, 0.00, 0.00, 0.00, 0.01, -0.00, 1.02
65, 0.00, 87274.66, 0.00, 0.00, 0.00, 0.00, 0.00, 0.00, 0.01, -0.00, 1.02
66, 0.00, 87302.58, 0.00, 0.00, 0.00, 0.00, 0.00, 0.00, 0.01, -0.00, 1.02
67, 0.00, 87278.17, 0.00, 0.00, 0.00, 0.00, 0.00, 0.00, 0.01, -0.00, 1.02
68, 0.00, 87298.42, 0.00, 0.00, 0.00, 0.00, 0.00, 0.00, 0.01, -0.01, 1.03
69, 0.00, 87307.19, 0.00, 0.00, 0.00, 0.00, 0.00, 0.00, 0.01, -0.01, 1.03
70, 0.00, 87302.76, 0.00, 0.00, 0.00, 0.00, 0.00, 0.00, 0.01, -0.01, 1.03
71, 0.00, 87297.20, 0.00, 0.00, 0.00, 0.00, 0.00, 0.00, 0.01, -0.01, 1.03
72, 0.00, 87292.30, 0.00, 0.00, 0.00, 0.00, 0.00, 0.00, 0.01, -0.01, 1.03
73, 0.00, 87291.41, 0.00, 0.00, 0.00, 0.00, 0.00, 0.00, 0.01, -0.00, 1.03
74, 0.00, 87253.41, 0.00, 0.00, 0.00, 0.00, 0.00, 0.00, 0.01, -0.00, 1.03
75, 0.00, 87254.86, 0.00, 0.00, 0.00, 0.00, 0.00, 0.00, 0.01, -0.00, 1.03
76, 0.00, 87301.51, 0.00, 0.00, 0.00, 0.00, 0.00, 0.00, 0.01, -0.00, 1.03
77, 0.00, 87305.98, 0.00, 0.00, 0.00, 0.00, 0.00, 0.00, 0.01, -0.00, 1.03
78, 0.00, 87277.93, 0.00, 0.00, 0.00, 0.00, 0.00, 0.00, 0.02, -0.00, 1.03
79, 0.00, 87280.52, 0.00, 0.00, 0.00, 0.00, 0.00, 0.00, 0.02, -0.00, 1.03
80, 0.00, 87294.71, 0.00, 0.00, 0.00, 0.00, 0.00, 0.00, 0.02, -0.00, 1.03
81, 0.00, 87309.13, 0.00, 0.00, 0.00, 0.00, 0.00, 0.00, 0.02, -0.00, 1.03
82, 0.00, 87290.20, 0.00, 0.00, 0.00, 0.00, 0.00, 0.00, 0.02, -0.00, 1.03
83, 0.00, 87274.46, 0.00, 0.00, 0.00, 0.00, 0.00, 0.00, 0.01, -0.00, 1.03
84, 0.00, 87279.31, 0.00, 0.00, 0.00, 0.00, 0.00, 0.00, 0.01, -0.00, 1.03
85, 0.00, 87280.12, 0.00, 0.00, 0.00, 0.00, 0.00, 0.00, 0.01, -0.00, 1.03
86, 0.00, 87309.69, 0.00, 0.00, 0.00, 0.00, 0.00, 0.00, 0.01, -0.00, 1.03
87, 0.00, 87283.89, 0.00, 0.00, 0.00, 0.00, 0.00, 0.00, 0.01, -0.00, 1.03
88, 0.00, 87286.60, 0.00, 0.00, 0.00, 0.00, 0.00, 0.00, 0.01, -0.01, 1.03
89, 0.00, 87284.61, 0.00, 0.00, 0.00, 0.00, 0.00, 0.00, 0.01, -0.01, 1.03
90, 0.00, 87275.42, 0.00, 0.00, 0.00, 0.00, 0.00, 0.00, 0.01, -0.01, 1.03
91, 0.00, 87273.77, 0.00, 0.00, 0.00, 0.00, 0.00, 0.00, 0.01, -0.01, 1.03
92, 0.00, 87274.30, 0.00, 0.00, 0.00, 0.00, 0.00, 0.00, 0.01, -0.01, 1.03
93, 0.00, 87287.65, 0.00, 0.00, 0.00, 0.00, 0.00, 0.00, 0.01, -0.00, 1.03
94, 0.00, 87296.05, 0.00, 0.00, 0.00, 0.00, 0.00, 0.00, 0.01, -0.00, 1.03
95, 0.00, 87319.73, 0.00, 0.00, 0.00, 0.00, 0.00, 0.00, 0.01, -0.00, 1.03
96, 0.00, 87288.74, 0.00, 0.00, 0.00, 0.00, 0.00, 0.00, 0.01, -0.00, 1.03
97, 0.00, 87285.99, 0.00, 0.00, 0.00, 0.00, 0.00, 0.00, 0.01, -0.00, 1.03
98, 0.00, 87336.17, 0.00, 0.00, 0.00, 0.00, 0.00, 0.00, 0.02, -0.00, 1.03
99, 0.00, 87320.41, 0.00, 0.00, 0.00, 0.00, 0.00, 0.00, 0.02, -0.00, 1.03
100, 0.00, 87292.03, 0.00, 0.00, 0.00, 0.00, 0.00, 0.00, 0.02, -0.00, 1.03
101, 0.00, 87294.24, 0.00, 0.00, 0.00, 0.00, 0.00, 0.00, 0.02, -0.00, 1.03
102, 0.00, 87316.30, 0.00, 0.00, 0.00, 0.00, 0.00, 0.00, 0.02, -0.00, 1.03
103, 0.00, 87325.29, 0.00, 0.00, 0.00, 0.00, 0.00, 0.00, 0.01, 0.00, 1.03
104, 0.00, 87308.02, 0.00, 0.00, 0.00, 0.00, 0.00, 0.00, 0.01, 0.00, 1.03
105, 0.00, 87313.31, 0.00, 0.00, 0.00, 0.00, 0.00, 0.00, 0.01, 0.00, 1.03
106, 0.00, 87331.17, 0.00, 0.00, 0.00, 0.00, 0.00, 0.00, 0.01, 0.00, 1.03
107, 0.00, 87333.16, 0.00, 0.00, 0.00, 0.00, 0.00, 0.00, 0.01, 0.00, 1.03
108, 0.00, 87314.43, 0.00, 0.00, 0.00, 0.00, 0.00, 0.00, 0.01, -0.01, 1.03
109, 0.00, 87313.09, 0.00, 0.00, 0.00, 0.00, 0.00, 0.00, 0.01, -0.01, 1.03
110, 0.00, 87317.38, 0.00, 0.00, 0.00, 0.00, 0.00, 0.00, 0.01, -0.01, 1.03
111, 0.00, 87325.60, 0.00, 0.00, 0.00, 0.00, 0.00, 0.00, 0.01, -0.01, 1.03
112, 0.00, 87339.28, 0.00, 0.00, 0.00, 0.00, 0.00, 0.00, 0.01, -0.01, 1.03
113, 0.00, 87354.88, 0.00, 0.00, 0.00, 0.00, 0.00, 0.00, 0.01, -0.00, 1.03
114, 0.00, 87380.25, 0.00, 0.00, 0.00, 0.00, 0.00, 0.00, 0.01, -0.00, 1.03
115, 0.00, 87382.22, 0.00, 0.00, 0.00, 0.00, 0.00, 0.00, 0.01, -0.00, 1.03
116, 0.00, 87371.05, 0.00, 0.00, 0.00, 0.00, 0.00, 0.00, 0.01, -0.00, 1.03
117, 0.00, 87392.44, 0.00, 0.00, 0.00, 0.00, 0.00, 0.00, 0.01, -0.00, 1.03
118, 0.00, 87406.90, 0.00, 0.00, 0.00, 0.00, 0.00, 0.00, 0.01, -0.01, 1.02
119, 0.00, 87421.09, 0.00, 0.00, 0.00, 0.00, 0.00, 0.00, 0.01, -0.01, 1.02
120, 0.00, 87425.05, 0.00, 0.00, 0.00, 0.00, 0.00, 0.00, 0.01, -0.01, 1.02
121, 0.00, 87434.01, 0.00, 0.00, 0.00, 0.00, 0.00, 0.00, 0.01, -0.01, 1.02
122, 0.00, 87453.56, 0.00, 0.00, 0.00, 0.00, 0.00, 0.00, 0.01, -0.01, 1.02
123, 0.00, 87431.39, 0.00, 0.00, 0.00, 0.00, 0.00, 0.00, 0.01, -0.01, 1.03
124, 0.00, 87421.07, 0.00, 0.00, 0.00, 0.00, 0.00, 0.00, 0.01, -0.01, 1.03
125, 0.00, 87430.61, 0.00, 0.00, 0.00, 0.00, 0.00, 0.00, 0.01, -0.01, 1.03
126, 0.00, 87445.30, 0.00, 0.00, 0.00, 0.00, 0.00, 0.00, 0.01, -0.01, 1.03
127, 0.00, 87428.71, 0.00, 0.00, 0.00, 0.00, 0.00, 0.00, 0.01, -0.01, 1.03
128, 0.00, 87449.77, 0.00, 0.00, 0.00, 0.00, 0.00, 0.00, 0.01, -0.01, 1.03
129, 0.00, 87452.29, 0.00, 0.00, 0.00, 0.00, 0.00, 0.00, 0.01, -0.01, 1.03
130, 0.00, 87440.06, 0.00, 0.00, 0.00, 0.00, 0.00, 0.00, 0.01, -0.01, 1.03
131, 0.00, 87426.25, 0.00, 0.00, 0.00, 0.00, 0.00, 0.00, 0.01, -0.01, 1.03
132, 0.00, 87444.96, 0.00, 0.00, 0.00, 0.00, 0.00, 0.00, 0.01, -0.01, 1.03
133, 0.00, 87446.39, 0.00, 0.00, 0.00, 0.00, 0.00, 0.00, 0.01, -0.01, 1.03
134, 0.00, 87441.98, 0.00, 0.00, 0.00, 0.00, 0.00, 0.00, 0.01, -0.01, 1.03
135, 0.00, 87443.48, 0.00, 0.00, 0.00, 0.00, 0.00, 0.00, 0.01, -0.01, 1.03
136, 0.00, 87436.98, 0.00, 0.00, 0.00, 0.00, 0.00, 0.00, 0.01, -0.01, 1.03
137, 0.00, 87446.57, 0.00, 0.00, 0.00, 0.00, 0.00, 0.00, 0.01, -0.01, 1.03
138, 0.00, 87427.41, 0.00, 0.00, 0.00, 0.00, 0.00, 0.00, 0.01, -0.01, 1.03
139, 0.00, 87436.38, 0.00, 0.00, 0.00, 0.00, 0.00, 0.00, 0.01, -0.01, 1.03
140, 0.00, 87468.19, 0.00, 0.00, 0.00, 0.00, 0.00, 0.00, 0.01, -0.01, 1.03
141, 0.00, 87445.68, 0.00, 0.00, 0.00, 0.00, 0.00, 0.00, 0.01, -0.01, 1.03
142, 0.00, 87429.83, 0.00, 0.00, 0.00, 0.00, 0.00, 0.00, 0.01, -0.01, 1.03
143, 0.00, 87436.55, 0.00, 0.00, 0.00, 0.00, 0.00, 0.00, 0.01, -0.01, 1.03
144, 0.00, 87457.81, 0.00, 0.00, 0.00, 0.00, 0.00, 0.00, 0.01, 0.00, 1.03
145, 0.00, 87452.56, 0.00, 0.00, 0.00, 0.00, 0.00, 0.00, 0.01, 0.00, 1.03
146, 0.00, 87433.96, 0.00, 0.00, 0.00, 0.00, 0.00, 0.00, 0.01, 0.00, 1.03
147, 0.00, 87437.18, 0.00, 0.00, 0.00, 0.00, 0.00, 0.00, 0.01, 0.00, 1.03
148, 0.00, 87441.81, 0.00, 0.00, 0.00, 0.00, 0.00, 0.00, 0.01, 0.00, 1.03
149, 0.00, 87461.05, 0.00, 0.00, 0.00, 0.00, 0.00, 0.00, 0.01, 0.00, 1.03
150, 0.00, 87451.11, 0.00, 0.00, 0.00, 0.00, 0.00, 0.00, 0.01, 0.00, 1.03
151, 0.00, 87446.44, 0.00, 0.00, 0.00, 0.00, 0.00, 0.00, 0.01, 0.00, 1.03
152, 0.00, 87472.90, 0.00, 0.00, 0.00, 0.00, 0.00, 0.00, 0.01, 0.00, 1.03
153, 0.00, 87474.55, 0.00, 0.00, 0.00, 0.00, 0.00, 0.00, 0.01, 0.00, 1.03
154, 0.00, 87439.33, 0.00, 0.00, 0.00, 0.00, 0.00, 0.00, 0.01, -0.01, 1.03
155, 0.00, 87428.51, 0.00, 0.00, 0.00, 0.00, 0.00, 0.00, 0.01, -0.01, 1.03
156, 0.00, 87434.19, 0.00, 0.00, 0.00, 0.00, 0.00, 0.00, 0.01, -0.01, 1.03
157, 0.00, 87453.45, 0.00, 0.00, 0.00, 0.00, 0.00, 0.00, 0.01, -0.01, 1.03
158, 0.00, 87476.27, 0.00, 0.00, 0.00, 0.00, 0.00, 0.00, 0.01, -0.01, 1.03
159, 0.00, 87497.71, 0.00, 0.00, 0.00, 0.00, 0.00, 0.00, 0.01, -0.00, 1.03
160, 0.00, 87469.77, 0.00, 0.00, 0.00, 0.00, 0.00, 0.00, 0.01, -0.00, 1.03
161, 0.00, 87458.87, 0.00, 0.00, 0.00, 0.00, 0.00, 0.00, 0.01, -0.00, 1.03
162, 0.00, 87445.52, 0.00, 0.00, 0.00, 0.00, 0.00, 0.00, 0.01, -0.00, 1.03
163, 0.00, 87477.30, 0.00, 0.00, 0.00, 0.00, 0.00, 0.00, 0.01, -0.00, 1.03
164, 0.00, 87466.48, 0.00, 0.00, 0.00, 0.00, 0.00, 0.00, 0.01, 0.00, 1.03
165, 0.00, 87453.03, 0.00, 0.00, 0.00, 0.00, 0.00, 0.00, 0.01, 0.00, 1.03
166, 0.00, 87467.88, 0.00, 0.00, 0.00, 0.00, 0.00, 0.00, 0.01, 0.00, 1.03
167, 0.00, 87453.08, 0.00, 0.00, 0.00, 0.00, 0.00, 0.00, 0.01, 0.00, 1.03
168, 0.00, 87464.48, 0.00, 0.00, 0.00, 0.00, 0.00, 0.00, 0.01, 0.00, 1.03
169, 0.00, 87471.05, 0.00, 0.00, 0.00, 0.00, 0.00, 0.00, 0.01, -0.00, 1.02
170, 0.00, 87474.31, 0.00, 0.00, 0.00, 0.00, 0.00, 0.00, 0.01, -0.00, 1.02
171, 0.00, 87462.10, 0.00, 0.00, 0.00, 0.00, 0.00, 0.00, 0.01, -0.00, 1.02
172, 0.00, 87486.94, 0.00, 0.00, 0.00, 0.00, 0.00, 0.00, 0.01, -0.00, 1.02
173, 0.00, 87490.11, 0.00, 0.00, 0.00, 0.00, 0.00, 0.00, 0.01, -0.00, 1.02
174, 0.00, 87468.84, 0.00, 0.00, 0.00, 0.00, 0.00, 0.00, 0.01, -0.01, 1.02
175, 0.00, 87450.03, 0.00, 0.00, 0.00, 0.00, 0.00, 0.00, 0.01, -0.01, 1.02
176, 0.00, 87458.10, 0.00, 0.00, 0.00, 0.00, 0.00, 0.00, 0.01, -0.01, 1.02
177, 0.00, 87464.97, 0.00, 0.00, 0.00, 0.00, 0.00, 0.00, 0.01, -0.01, 1.02
178, 0.00, 87456.02, 0.00, 0.00, 0.00, 0.00, 0.00, 0.00, 0.01, -0.01, 1.02
179, 0.00, 87457.52, 0.00, 0.00, 0.00, 0.00, 0.00, 0.00, 0.02, -0.01, 1.02
180, 0.00, 87454.23, 0.00, 0.00, 0.00, 0.00, 0.00, 0.00, 0.02, -0.01, 1.02
181, 0.00, 87467.24, 0.00, 0.00, 0.00, 0.00, 0.00, 0.00, 0.02, -0.01, 1.02
182, 0.00, 87463.13, 0.00, 0.00, 0.00, 0.00, 0.00, 0.00, 0.02, -0.01, 1.02
183, 0.00, 87456.14, 0.00, 0.00, 0.00, 0.00, 0.00, 0.00, 0.02, -0.01, 1.02
184, 0.00, 87441.63, 0.00, 0.00, 0.00, 0.00, 0.00, 0.00, 0.01, -0.01, 1.02
185, 0.00, 87450.21, 0.00, 0.00, 0.00, 0.00, 0.00, 0.00, 0.01, -0.01, 1.02
186, 0.00, 87475.38, 0.00, 0.00, 0.00, 0.00, 0.00, 0.00, 0.01, -0.01, 1.02
187, 0.00, 87482.29, 0.00, 0.00, 0.00, 0.00, 0.00, 0.00, 0.01, -0.01, 1.02
188, 0.00, 87465.19, 0.00, 0.00, 0.00, 0.00, 0.00, 0.00, 0.01, -0.01, 1.02
189, 0.00, 87471.11, 0.00, 0.00, 0.00, 0.00, 0.00, 0.00, 0.01, -0.01, 1.02
190, 0.00, 87454.88, 0.00, 0.00, 0.00, 0.00, 0.00, 0.00, 0.01, -0.01, 1.02
191, 0.00, 87437.79, 0.00, 0.00, 0.00, 0.00, 0.00, 0.00, 0.01, -0.01, 1.02
192, 0.00, 87454.86, 0.00, 0.00, 0.00, 0.00, 0.00, 0.00, 0.01, -0.01, 1.02
193, 0.00, 87464.05, 0.00, 0.00, 0.00, 0.00, 0.00, 0.00, 0.01, -0.01, 1.02
194, 0.00, 87468.92, 0.00, 0.00, 0.00, 0.00, 0.00, 0.00, 0.01, -0.01, 1.03
195, 0.00, 87493.77, 0.00, 0.00, 0.00, 0.00, 0.00, 0.00, 0.01, -0.01, 1.03
196, 0.00, 87471.18, 0.00, 0.00, 0.00, 0.00, 0.00, 0.00, 0.01, -0.01, 1.03
197, 0.00, 87479.98, 0.00, 0.00, 0.00, 0.00, 0.00, 0.00, 0.01, -0.01, 1.03
198, 0.00, 87480.57, 0.00, 0.00, 0.00, 0.00, 0.00, 0.00, 0.01, -0.01, 1.03
199, 0.00, 87475.47, 0.00, 0.00, 0.00, 0.00, 0.00, 0.00, 0.01, -0.01, 1.02
200, 0.00, 87496.21, 0.00, 0.00, 0.00, 0.00, 0.00, 0.00, 0.01, -0.01, 1.02
201, 0.00, 87502.25, 0.00, 0.00, 0.00, 0.00, 0.00, 0.00, 0.01, -0.01, 1.02
202, 0.00, 87467.18, 0.00, 0.00, 0.00, 0.00, 0.00, 0.00, 0.01, -0.01, 1.02
203, 0.00, 87455.87, 0.00, 0.00, 0.00, 0.00, 0.00, 0.00, 0.01, -0.01, 1.02
204, 0.00, 87450.15, 0.00, 0.00, 0.00, 0.00, 0.00, 0.00, 0.01, -0.01, 1.02
205, 0.00, 87392.61, 0.00, 0.00, 0.00, 0.00, 0.00, 0.00, 0.01, -0.01, 1.02
206, 0.00, 87331.46, 0.00, 0.00, 0.00, 0.00, 0.00, 0.00, 0.01, -0.01, 1.02
207, 0.00, 87305.11, 0.00, 0.00, 0.00, 0.00, 0.00, 0.00, 0.01, -0.01, 1.02
208, 0.00, 87272.70, 0.00, 0.00, 0.00, 0.00, 0.00, 0.00, 0.01, -0.01, 1.02
209, 0.00, 87223.39, 0.00, 0.00, 0.00, 0.00, 0.00, 0.00, 0.01, -0.01, 1.02
210, 0.00, 87217.20, 0.00, 0.00, 0.00, 0.00, 0.00, 0.00, 0.01, -0.01, 1.02
211, 0.00, 87217.53, 0.00, 0.00, 0.00, 0.00, 0.00, 0.00, 0.01, -0.01, 1.02
212, 0.00, 87189.44, 0.00, 0.00, 0.00, 0.00, 0.00, 0.00, 0.01, -0.01, 1.02
213, 0.00, 87199.47, 0.00, 0.00, 0.00, 0.00, 0.00, 0.00, 0.01, -0.01, 1.02
214, 0.00, 87198.16, 0.00, 0.00, 0.00, 0.00, 0.00, 0.00, 0.01, -0.01, 1.03
215, 0.00, 87211.74, 0.00, 0.00, 0.00, 0.00, 0.00, 0.00, 0.01, -0.01, 1.03
216, 0.00, 87214.52, 0.00, 0.00, 0.00, 0.00, 0.00, 0.00, 0.01, -0.01, 1.03
217, 0.00, 87210.76, 0.00, 0.00, 0.00, 0.00, 0.00, 0.00, 0.01, -0.01, 1.03
218, 0.00, 87251.62, 0.00, 0.00, 0.00, 0.00, 0.00, 0.00, 0.01, -0.01, 1.03
219, 0.00, 87268.74, 0.00, 0.00, 0.00, 0.00, 0.00, 0.00, 0.02, -0.00, 1.03
220, 0.00, 87257.63, 0.00, 0.00, 0.00, 0.00, 0.00, 0.00, 0.02, -0.00, 1.03
221, 0.00, 87225.02, 0.00, 0.00, 0.00, 0.00, 0.00, 0.00, 0.02, -0.00, 1.03
222, 0.00, 87232.13, 0.00, 0.00, 0.00, 0.00, 0.00, 0.00, 0.02, -0.00, 1.03
223, 0.00, 87260.42, 0.00, 0.00, 0.00, 0.00, 0.00, 0.00, 0.02, -0.00, 1.03
224, 0.00, 87266.70, 0.00, 0.00, 0.00, 0.00, 0.00, 0.00, 0.02, -0.01, 1.03
225, 0.00, 87273.97, 0.00, 0.00, 0.00, 0.00, 0.00, 0.00, 0.02, -0.01, 1.03
226, 0.00, 87313.13, 0.00, 0.00, 0.00, 0.00, 0.00, 0.00, 0.02, -0.01, 1.03
227, 0.00, 87270.20, 0.00, 0.00, 0.00, 0.00, 0.00, 0.00, 0.02, -0.01, 1.03
228, 0.00, 87260.16, 0.00, 0.00, 0.00, 0.00, 0.00, 0.00, 0.02, -0.01, 1.03
229, 0.00, 87276.97, 0.00, 0.00, 0.00, 0.00, 0.00, 0.00, 0.01, -0.01, 1.04
230, 0.00, 87281.26, 0.00, 0.00, 0.00, 0.00, 0.00, 0.00, 0.01, -0.01, 1.04
231, 0.00, 87273.68, 0.00, 0.00, 0.00, 0.00, 0.00, 0.00, 0.01, -0.01, 1.04
232, 0.00, 87298.49, 0.00, 0.00, 0.00, 0.00, 0.00, 0.00, 0.01, -0.01, 1.04
233, 0.00, 87291.45, 0.00, 0.00, 0.00, 0.00, 0.00, 0.00, 0.01, -0.01, 1.04
234, 0.00, 87279.06, 0.00, 0.00, 0.00, 0.00, 0.00, 0.00, 0.01, -0.01, 1.03
235, 0.00, 87318.85, 0.00, 0.00, 0.00, 0.00, 0.00, 0.00, 0.01, -0.01, 1.03
236, 0.00, 87342.43, 0.00, 0.00, 0.00, 0.00, 0.00, 0.00, 0.01, -0.01, 1.03
237, 0.00, 87321.87, 0.00, 0.00, 0.00, 0.00, 0.00, 0.00, 0.01, -0.01, 1.03
238, 0.00, 87289.80, 0.00, 0.00, 0.00, 0.00, 0.00, 0.00, 0.01, -0.01, 1.03
239, 0.00, 87282.17, 0.00, 0.00, 0.00, 0.00, 0.00, 0.00, 0.02, -0.01, 1.03
240, 0.00, 87315.48, 0.00, 0.00, 0.00, 0.00, 0.00, 0.00, 0.02, -0.01, 1.03
241, 0.00, 87323.77, 0.00, 0.00, 0.00, 0.00, 0.00, 0.00, 0.02, -0.01, 1.03
242, 0.00, 87310.18, 0.00, 0.00, 0.00, 0.00, 0.00, 0.00, 0.02, -0.01, 1.03
243, 0.00, 87326.41, 0.00, 0.00, 0.00, 0.00, 0.00, 0.00, 0.02, -0.01, 1.03
244, 0.00, 87341.61, 0.00, 0.00, 0.00, 0.00, 0.00, 0.00, 0.01, -0.01, 1.03
245, 0.00, 87315.55, 0.00, 0.00, 0.00, 0.00, 0.00, 0.00, 0.01, -0.01, 1.03
246, 0.00, 87307.45, 0.00, 0.00, 0.00, 0.00, 0.00, 0.00, 0.01, -0.01, 1.03
247, 0.00, 87342.26, 0.00, 0.00, 0.00, 0.00, 0.00, 0.00, 0.01, -0.01, 1.03
248, 0.00, 87339.73, 0.00, 0.00, 0.00, 0.00, 0.00, 0.00, 0.01, -0.01, 1.03
249, 0.00, 87333.42, 0.00, 0.00, 0.00, 0.00, 0.00, 0.00, 0.01, -0.01, 1.03
250, 0.00, 87324.55, 0.00, 0.00, 0.00, 0.00, 0.00, 0.00, 0.01, -0.01, 1.03
251, 0.00, 87321.18, 0.00, 0.00, 0.00, 0.00, 0.00, 0.00, 0.01, -0.01, 1.03
252, 0.00, 87336.02, 0.00, 0.00, 0.00, 0.00, 0.00, 0.00, 0.01, -0.01, 1.03
253, 0.00, 87332.42, 0.00, 0.00, 0.00, 0.00, 0.00, 0.00, 0.01, -0.01, 1.03
254, 0.00, 87327.57, 0.00, 0.00, 0.00, 0.00, 0.00, 0.00, 0.01, -0.01, 1.03
255, 0.00, 87335.10, 0.00, 0.00, 0.00, 0.00, 0.00, 0.00, 0.01, -0.01, 1.03
0, 0.00, 87327.80, 0.00, 0.00, 0.00, 0.00, 0.00, 0.00, 0.01, -0.01, 1.03
1, 0.00, 87336.16, 0.00, 0.00, 0.00, 0.00, 0.00, 0.00, 0.01, -0.01, 1.03
2, 0.00, 87324.20, 0.00, 0.00, 0.00, 0.00, 0.00, 0.00, 0.01, -0.01, 1.03
3, 0.00, 87340.34, 0.00, 0.00, 0.00, 0.00, 0.00, 0.00, 0.01, -0.01, 1.03
4, 0.00, 87339.04, 0.00, 0.00, 0.00, 0.00, 0.00, 0.00, 0.01, -0.01, 1.03
5, 0.00, 87333.65, 0.00, 0.00, 0.00, 0.00, 0.00, 0.00, 0.01, -0.01, 1.03
6, 0.00, 87325.71, 0.00, 0.00, 0.00, 0.00, 0.00, 0.00, 0.01, -0.01, 1.03
7, 0.00, 87345.61, 0.00, 0.00, 0.00, 0.00, 0.00, 0.00, 0.01, -0.01, 1.03
8, 0.00, 87363.84, 0.00, 0.00, 0.00, 0.00, 0.00, 0.00, 0.02, -0.01, 1.03
9, 0.00, 87331.01, 0.00, 0.00, 0.00, 0.00, 0.00, 0.00, 0.02, -0.01, 1.03
10, 0.00, 87315.88, 0.00, 0.00, 0.00, 0.00, 0.00, 0.00, 0.02, -0.01, 1.03
11, 0.00, 87327.46, 0.00, 0.00, 0.00, 0.00, 0.00, 0.00, 0.02, -0.01, 1.03
12, 0.00, 87291.78, 0.00, 0.00, 0.00, 0.00, 0.00, 0.00, 0.02, -0.01, 1.03
13, 0.00, 87320.95, 0.00, 0.00, 0.00, 0.00, 0.00, 0.00, 0.02, -0.01, 1.03
14, 0.00, 87310.45, 0.00, 0.00, 0.00, 0.00, 0.00, 0.00, 0.02, -0.01, 1.03
15, 0.00, 87274.04, 0.00, 0.00, 0.00, 0.00, 0.00, 0.00, 0.02, -0.01, 1.03
16, 0.00, 87287.05, 0.00, 0.00, 0.00, 0.00, 0.00, 0.00, 0.02, -0.01, 1.03
17, 0.00, 87302.00, 0.00, 0.00, 0.00, 0.00, 0.00, 0.00, 0.02, -0.01, 1.03
18, 0.00, 87313.48, 0.00, 0.00, 0.00, 0.00, 0.00, 0.00, 0.02, -0.01, 1.03
19, 0.00, 87314.25, 0.00, 0.00, 0.00, 0.00, 0.00, 0.00, 0.02, -0.01, 1.03
20, 0.00, 87280.67, 0.00, 0.00, 0.00, 0.00, 0.00, 0.00, 0.02, -0.01, 1.03
21, 0.00, 87290.35, 0.00, 0.00, 0.00, 0.00, 0.00, 0.00, 0.02, -0.01, 1.03
22, 0.00, 87305.30, 0.00, 0.00, 0.00, 0.00, 0.00, 0.00, 0.02, -0.01, 1.03
23, 0.00, 87315.61, 0.00, 0.00, 0.00, 0.00, 0.00, 0.00, 0.02, -0.01, 1.03
24, 0.00, 87325.11, 0.00, 0.00, 0.00, 0.00, 0.00, 0.00, 0.02, -0.01, 1.03
25, 0.00, 87307.77, 0.00, 0.00, 0.00, 0.00, 0.00, 0.00, 0.02, -0.01, 1.03
26, 0.00, 87283.76, 0.00, 0.00, 0.00, 0.00, 0.00, 0.00, 0.02, -0.01, 1.03
27, 0.00, 87306.83, 0.00, 0.00, 0.00, 0.00, 0.00, 0.00, 0.02, -0.01, 1.03
28, 0.00, 87324.41, 0.00, 0.00, 0.00, 0.00, 0.00, 0.00, 0.02, -0.01, 1.03
29, 0.00, 87336.63, 0.00, 0.00, 0.00, 0.00, 0.00, 0.00, 0.02, -0.01, 1.03
30, 0.00, 87312.51, 0.00, 0.00, 0.00, 0.00, 0.00, 0.00, 0.02, -0.01, 1.03
31, 0.00, 87316.84, 0.00, 0.00, 0.00, 0.00, 0.00, 0.00, 0.02, -0.01, 1.03
32, 0.00, 87293.75, 0.00, 0.00, 0.00, 0.00, 0.00, 0.00, 0.02, -0.01, 1.03
33, 0.00, 87305.91, 0.00, 0.00, 0.00, 0.00, 0.00, 0.00, 0.02, -0.01, 1.03
34, 0.00, 87315.92, 0.00, 0.00, 0.00, 0.00, 0.00, 0.00, 0.02, -0.01, 1.03
35, 0.00, 87313.20, 0.00, 0.00, 0.00, 0.00, 0.00, 0.00, 0.02, -0.01, 1.03
36, 0.00, 87320.06, 0.00, 0.00, 0.00, 0.00, 0.00, 0.00, 0.02, -0.01, 1.03
37, 0.00, 87326.27, 0.00, 0.00, 0.00, 0.00, 0.00, 0.00, 0.02, -0.01, 1.03
38, 0.00, 87331.57, 0.00, 0.00, 0.00, 0.00, 0.00, 0.00, 0.02, -0.01, 1.03
39, 0.00, 87322.92, 0.00, 0.00, 0.00, 0.00, 0.00, 0.00, 0.02, -0.01, 1.03
40, 0.00, 87320.48, 0.00, 0.00, 0.00, 0.00, 0.00, 0.00, 0.02, -0.01, 1.03
41, 0.00, 87311.88, 0.00, 0.00, 0.00, 0.00, 0.00, 0.00, 0.02, -0.01, 1.03
42, 0.00, 87305.93, 0.00, 0.00, 0.00, 0.00, 0.00, 0.00, 0.02, -0.01, 1.03
43, 0.00, 87310.02, 0.00, 0.00, 0.00, 0.00, 0.00, 0.00, 0.01, -0.01, 1.03
44, 0.00, 87292.99, 0.00, 0.00, 0.00, 0.00, 0.00, 0.00, 0.01, -0.01, 1.03
45, 0.00, 87284.21, 0.00, 0.00, 0.00, 0.00, 0.00, 0.00, 0.01, -0.01, 1.03
46, 0.00, 87301.80, 0.00, 0.00, 0.00, 0.00, 0.00, 0.00, 0.01, -0.01, 1.03
47, 0.00, 87326.07, 0.00, 0.00, 0.00, 0.00, 0.00, 0.00, 0.01, -0.01, 1.03
48, 0.00, 87323.03, 0.00, 0.00, 0.00, 0.00, 0.00, 0.00, 0.02, -0.01, 1.02
49, 0.00, 87324.80, 0.00, 0.00, 0.00, 0.00, 0.00, 0.00, 0.02, -0.01, 1.02
50, 0.00, 87306.60, 0.00, 0.00, 0.00, 0.00, 0.00, 0.00, 0.02, -0.01, 1.02
51, 0.00, 87297.87, 0.00, 0.00, 0.00, 0.00, 0.00, 0.00, 0.02, -0.01, 1.02
52, 0.00, 87284.92, 0.00, 0.00, 0.00, 0.00, 0.00, 0.00, 0.02, -0.01, 1.02
53, 0.00, 87319.08, 0.00, 0.00, 0.00, 0.00, 0.00, 0.00, 0.02, -0.01, 1.02
54, 0.00, 87342.86, 0.00, 0.00, 0.00, 0.00, 0.00, 0.00, 0.02, -0.01, 1.02
55, 0.00, 87342.66, 0.00, 0.00, 0.00, 0.00, 0.00, 0.00, 0.02, -0.01, 1.02
56, 0.00, 87332.80, 0.00, 0.00, 0.00, 0.00, 0.00, 0.00, 0.02, -0.01, 1.02
57, 0.00, 87333.74, 0.00, 0.00, 0.00, 0.00, 0.00, 0.00, 0.02, -0.01, 1.02
58, 0.00, 87310.36, 0.00, 0.00, 0.00, 0.00, 0.00, 0.00, 0.02, -0.00, 1.02
59, 0.00, 87305.44, 0.00, 0.00, 0.00, 0.00, 0.00, 0.00, 0.02, -0.00, 1.02
60, 0.00, 87296.43, 0.00, 0.00, 0.00, 0.00, 0.00, 0.00, 0.02, -0.00, 1.02
61, 0.00, 87290.24, 0.00, 0.00, 0.00, 0.00, 0.00, 0.00, 0.02, -0.00, 1.02
62, 0.00, 87292.52, 0.00, 0.00, 0.00, 0.00, 0.00, 0.00, 0.02, -0.00, 1.02
63, 0.00, 87314.72, 0.00, 0.00, 0.00, 0.00, 0.00, 0.00, 0.01, -0.01, 1.03
64, 0.00, 87264.83, 0.00, 0.00, 0.00, 0.00, 0.00, 0.00, 0.01, -0.01, 1.03
65, 0.00, 87223.19, 0.00, 0.00, 0.00, 0.00, 0.00, 0.00, 0.01, -0.01, 1.03
66, 0.00, 87241.07, 0.00, 0.00, 0.00, 0.00, 0.00, 0.00, 0.01, -0.01, 1.03
67, 0.00, 87259.46, 0.00, 0.00, 0.00, 0.00, 0.00, 0.00, 0.01, -0.01, 1.03
68, 0.00, 87296.03, 0.00, 0.00, 0.00, 0.00, 0.00, 0.00, 0.01, -0.01, 1.03
69, 0.00, 87297.26, 0.00, 0.00, 0.00, 0.00, 0.00, 0.00, 0.01, -0.01, 1.03
70, 0.00, 87263.15, 0.00, 0.00, 0.00, 0.00, 0.00, 0.00, 0.01, -0.01, 1.03
71, 0.00, 87269.45, 0.00, 0.00, 0.00, 0.00, 0.00, 0.00, 0.01, -0.01, 1.03
72, 0.00, 87282.28, 0.00, 0.00, 0.00, 0.00, 0.00, 0.00, 0.01, -0.01, 1.03
73, 0.00, 87259.06, 0.00, 0.00, 0.00, 0.00, 0.00, 0.00, 0.01, -0.01, 1.03
74, 0.00, 87271.24, 0.00, 0.00, 0.00, 0.00, 0.00, 0.00, 0.01, -0.01, 1.03
75, 0.00, 87304.91, 0.00, 0.00, 0.00, 0.00, 0.00, 0.00, 0.01, -0.01, 1.03
76, 0.00, 87336.94, 0.00, 0.00, 0.00, 0.00, 0.00, 0.00, 0.01, -0.01, 1.03
77, 0.00, 87367.36, 0.00, 0.00, 0.00, 0.00, 0.00, 0.00, 0.01, -0.01, 1.03
78, 0.00, 87289.03, 0.00, 0.00, 0.00, 0.00, 0.00, 0.00, 0.01, -0.01, 1.03
79, 0.00, 87209.84, 0.00, 0.00, 0.00, 0.00, 0.00, 0.00, 0.02, -0.01, 1.03
80, 0.00, 87258.81, 0.00, 0.00, 0.00, 0.00, 0.00, 0.00, 0.02, -0.01, 1.03
81, 0.00, 87271.11, 0.00, 0.00, 0.00, 0.00, 0.00, 0.00, 0.02, -0.01, 1.03
82, 0.00, 87251.44, 0.00, 0.00, 0.00, 0.00, 0.00, 0.00, 0.02, -0.01, 1.03
83, 0.00, 87233.87, 0.00, 0.00, 0.00, 0.00, 0.00, 0.00, 0.02, -0.01, 1.03
84, 0.00, 87204.01, 0.00, 0.00, 0.00, 0.00, 0.00, 0.00, 0.02, -0.01, 1.03
85, 0.00, 87183.67, 0.00, 0.00, 0.00, 0.00, 0.00, 0.00, 0.02, -0.01, 1.03
86, 0.00, 87154.27, 0.00, 0.00, 0.00, 0.00, 0.00, 0.00, 0.02, -0.01, 1.03
87, 0.00, 87157.59, 0.00, 0.00, 0.00, 0.00, 0.00, 0.00, 0.02, -0.01, 1.03
88, 0.00, 87182.53, 0.00, 0.00, 0.00, 0.00, 0.00, 0.00, 0.02, -0.01, 1.03
89, 0.00, 87133.09, 0.00, 0.00, 0.00, 0.00, 0.00, 0.00, 0.01, -0.01, 1.03
90, 0.00, 87062.14, 0.00, 0.00, 0.00, 0.00, 0.00, 0.00, 0.01, -0.01, 1.03
91, 0.00, 87067.80, 0.00, 0.00, 0.00, 0.00, 0.00, 0.00, 0.01, -0.01, 1.03
92, 0.00, 87072.42, 0.00, 0.00, 0.00, 0.00, 0.00, 0.00, 0.01, -0.01, 1.03
93, 0.00, 87086.38, 0.00, 0.00, 0.00, 0.00, 0.00, 0.00, 0.01, -0.01, 1.03
94, 0.00, 87059.35, 0.00, 0.00, 0.00, 0.00, 0.00, 0.00, 0.01, -0.01, 1.03
95, 0.00, 87014.16, 0.00, 0.00, 0.00, 0.00, 0.00, 0.00, 0.01, -0.01, 1.03
96, 0.00, 87002.44, 0.00, 0.00, 0.00, 0.00, 0.00, 0.00, 0.01, -0.01, 1.03
97, 0.00, 87008.32, 0.00, 0.00, 0.00, 0.00, 0.00, 0.00, 0.01, -0.01, 1.03
98, 0.00, 86991.80, 0.00, 0.00, 0.00, 0.00, 0.00, 0.00, 0.01, -0.01, 1.03
99, 0.00, 86976.42, 0.00, 0.00, 0.00, 0.00, 0.00, 0.00, 0.01, -0.00, 1.03
100, 0.00, 86961.47, 0.00, 0.00, 0.00, 0.00, 0.00, 0.00, 0.01, -0.00, 1.03
101, 0.00, 86999.00, 0.00, 0.00, 0.00, 0.00, 0.00, 0.00, 0.01, -0.00, 1.03
102, 0.00, 87011.67, 0.00, 0.00, 0.00, 0.00, 0.00, 0.00, 0.01, -0.00, 1.03
103, 0.00, 87014.78, 0.00, 0.00, 0.00, 0.00, 0.00, 0.00, 0.01, -0.00, 1.03
104, 0.00, 87064.42, 0.00, 0.00, 0.00, 0.00, 0.00, 0.00, 0.01, -0.00, 1.03
105, 0.00, 87055.66, 0.00, 0.00, 0.00, 0.00, 0.00, 0.00, 0.01, -0.00, 1.03
106, 0.00, 87040.23, 0.00, 0.00, 0.00, 0.00, 0.00, 0.00, 0.01, -0.00, 1.03
107, 0.00, 87119.81, 0.00, 0.00, 0.00, 0.00, 0.00, 0.00, 0.01, -0.00, 1.03
108, 0.00, 87181.73, 0.00, 0.00, 0.00, 0.00, 0.00, 0.00, 0.01, -0.00, 1.03
109, 0.00, 87176.07, 0.00, 0.00, 0.00, 0.00, 0.00, 0.00, 0.01, -0.00, 1.03
110, 0.00, 87141.89, 0.00, 0.00, 0.00, 0.00, 0.00, 0.00, 0.01, -0.00, 1.03
111, 0.00, 87195.34, 0.00, 0.00, 0.00, 0.00, 0.00, 0.00, 0.01, -0.00, 1.03
112, 0.00, 87121.53, 0.00, 0.00, 0.00, 0.00, 0.00, 0.00, 0.01, -0.00, 1.03
113, 0.00, 87098.71, 0.00, 0.00, 0.00, 0.00, 0.00, 0.00, 0.01, -0.00, 1.03
114, 0.00, 87150.59, 0.00, 0.00, 0.00, 0.00, 0.00, 0.00, 0.01, 0.00, 1.03
115, 0.00, 87217.17, 0.00, 0.00, 0.00, 0.00, 0.00, 0.00, 0.01, 0.00, 1.03
116, 0.00, 87237.94, 0.00, 0.00, 0.00, 0.00, 0.00, 0.00, 0.01, 0.00, 1.03
117, 0.00, 87210.42, 0.00, 0.00, 0.00, 0.00, 0.00, 0.00, 0.01, 0.00, 1.03
118, 0.00, 87207.05, 0.00, 0.00, 0.00, 0.00, 0.00, 0.00, 0.01, 0.00, 1.03
119, 0.00, 87214.38, 0.00, 0.00, 0.00, 0.00, 0.00, 0.00, 0.01, -0.00, 1.03
120, 0.00, 87273.75, 0.00, 0.00, 0.00, 0.00, 0.00, 0.00, 0.01, -0.00, 1.03
121, 0.00, 87314.61, 0.00, 0.00, 0.00, 0.00, 0.00, 0.00, 0.01, -0.00, 1.03
122, 0.00, 87297.73, 0.00, 0.00, 0.00, 0.00, 0.00, 0.00, 0.01, -0.00, 1.03
123, 0.00, 87278.26, 0.00, 0.00, 0.00, 0.00, 0.00, 0.00, 0.01, -0.00, 1.03
124, 0.00, 87280.19, 0.00, 0.00, 0.00, 0.00, 0.00, 0.00, 0.02, -0.00, 1.03
125, 0.00, 87298.42, 0.00, 0.00, 0.00, 0.00, 0.00, 0.00, 0.02, -0.00, 1.03
126, 0.00, 87284.54, 0.00, 0.00, 0.00, 0.00, 0.00, 0.00, 0.02, -0.00, 1.03
127, 0.00, 87275.42, 0.00, 0.00, 0.00, 0.00, 0.00, 0.00, 0.02, -0.00, 1.03
128, 0.00, 87262.73, 0.00, 0.00, 0.00, 0.00, 0.00, 0.00, 0.02, -0.00, 1.03
129, 0.00, 87282.20, 0.00, 0.00, 0.00, 0.00, 0.00, 0.00, 0.01, 0.00, 1.02
130, 0.00, 87311.01, 0.00, 0.00, 0.00, 0.00, 0.00, 0.00, 0.01, 0.00, 1.02
131, 0.00, 87334.55, 0.00, 0.00, 0.00, 0.00, 0.00, 0.00, 0.01, 0.00, 1.02
132, 0.00, 87333.88, 0.00, 0.00, 0.00, 0.00, 0.00, 0.00, 0.01, 0.00, 1.02
133, 0.00, 87348.31, 0.00, 0.00, 0.00, 0.00, 0.00, 0.00, 0.01, 0.00, 1.02
134, 0.00, 87327.73, 0.00, 0.00, 0.00, 0.00, 0.00, 0.00, 0.02, -0.00, 1.03
135, 0.00, 87289.35, 0.00, 0.00, 0.00, 0.00, 0.00, 0.00, 0.02, -0.00, 1.03
136, 0.00, 87326.54, 0.00, 0.00, 0.00, 0.00, 0.00, 0.00, 0.02, -0.00, 1.03
137, 0.00, 87328.51, 0.00, 0.00, 0.00, 0.00, 0.00, 0.00, 0.02, -0.00, 1.03
138, 0.00, 87331.28, 0.00, 0.00, 0.00, 0.00, 0.00, 0.00, 0.02, -0.00, 1.03
139, 0.00, 87310.56, 0.00, 0.00, 0.00, 0.00, 0.00, 0.00, 0.01, -0.01, 1.03
140, 0.00, 87281.16, 0.00, 0.00, 0.00, 0.00, 0.00, 0.00, 0.01, -0.01, 1.03
141, 0.00, 87284.63, 0.00, 0.00, 0.00, 0.00, 0.00, 0.00, 0.01, -0.01, 1.03
142, 0.00, 87339.23, 0.00, 0.00, 0.00, 0.00, 0.00, 0.00, 0.01, -0.01, 1.03
143, 0.00, 87375.83, 0.00, 0.00, 0.00, 0.00, 0.00, 0.00, 0.01, -0.01, 1.03
144, 0.00, 87350.21, 0.00, 0.00, 0.00, 0.00, 0.00, 0.00, 0.01, -0.01, 1.03
145, 0.00, 87321.71, 0.00, 0.00, 0.00, 0.00, 0.00, 0.00, 0.01, -0.01, 1.03
146, 0.00, 87306.20, 0.00, 0.00, 0.00, 0.00, 0.00, 0.00, 0.01, -0.01, 1.03
147, 0.00, 87330.34, 0.00, 0.00, 0.00, 0.00, 0.00, 0.00, 0.01, -0.01, 1.03
148, 0.00, 87344.04, 0.00, 0.00, 0.00, 0.00, 0.00, 0.00, 0.01, -0.01, 1.03
149, 0.00, 87332.84, 0.00, 0.00, 0.00, 0.00, 0.00, 0.00, 0.02, -0.00, 1.03
150, 0.00, 87318.31, 0.00, 0.00, 0.00, 0.00, 0.00, 0.00, 0.02, -0.00, 1.03
151, 0.00, 87333.23, 0.00, 0.00, 0.00, 0.00, 0.00, 0.00, 0.02, -0.00, 1.03
152, 0.00, 87339.80, 0.00, 0.00, 0.00, 0.00, 0.00, 0.00, 0.02, -0.00, 1.03
153, 0.00, 87323.63, 0.00, 0.00, 0.00, 0.00, 0.00, 0.00, 0.02, -0.00, 1.03
154, 0.00, 87310.56, 0.00, 0.00, 0.00, 0.00, 0.00, 0.00, 0.01, -0.01, 1.04
155, 0.00, 87338.37, 0.00, 0.00, 0.00, 0.00, 0.00, 0.00, 0.01, -0.01, 1.04
156, 0.00, 87369.97, 0.00, 0.00, 0.00, 0.00, 0.00, 0.00, 0.01, -0.01, 1.04
157, 0.00, 87353.09, 0.00, 0.00, 0.00, 0.00, 0.00, 0.00, 0.01, -0.01, 1.04
158, 0.00, 87371.60, 0.00, 0.00, 0.00, 0.00, 0.00, 0.00, 0.01, -0.01, 1.04
159, 0.00, 87397.44, 0.00, 0.00, 0.00, 0.00, 0.00, 0.00, 0.02, -0.01, 1.03
160, 0.00, 87320.57, 0.00, 0.00, 0.00, 0.00, 0.00, 0.00, 0.02, -0.01, 1.03
161, 0.00, 87287.70, 0.00, 0.00, 0.00, 0.00, 0.00, 0.00, 0.02, -0.01, 1.03
162, 0.00, 87306.45, 0.00, 0.00, 0.00, 0.00, 0.00, 0.00, 0.02, -0.01, 1.03
163, 0.00, 87312.82, 0.00, 0.00, 0.00, 0.00, 0.00, 0.00, 0.02, -0.01, 1.03
164, 0.00, 87306.13, 0.00, 0.00, 0.00, 0.00, 0.00, 0.00, 0.02, -0.01, 1.03
165, 0.00, 87334.19, 0.00, 0.00, 0.00, 0.00, 0.00, 0.00, 0.02, -0.01, 1.03
166, 0.00, 87317.04, 0.00, 0.00, 0.00, 0.00, 0.00, 0.00, 0.02, -0.01, 1.03
167, 0.00, 87345.23, 0.00, 0.00, 0.00, 0.00, 0.00, 0.00, 0.02, -0.01, 1.03
168, 0.00, 87336.82, 0.00, 0.00, 0.00, 0.00, 0.00, 0.00, 0.02, -0.01, 1.03
169, 0.00, 87338.77, 0.00, 0.00, 0.00, 0.00, 0.00, 0.00, 0.01, -0.01, 1.03
170, 0.00, 87309.51, 0.00, 0.00, 0.00, 0.00, 0.00, 0.00, 0.01, -0.01, 1.03
171, 0.00, 87276.92, 0.00, 0.00, 0.00, 0.00, 0.00, 0.00, 0.01, -0.01, 1.03
172, 0.00, 87299.16, 0.00, 0.00, 0.00, 0.00, 0.00, 0.00, 0.01, -0.01, 1.03
173, 0.00, 87289.13, 0.00, 0.00, 0.00, 0.00, 0.00, 0.00, 0.01, -0.01, 1.03
174, 0.00, 87290.80, 0.00, 0.00, 0.00, 0.00, 0.00, 0.00, 0.01, -0.01, 1.03
175, 0.00, 87304.63, 0.00, 0.00, 0.00, 0.00, 0.00, 0.00, 0.01, -0.01, 1.03
176, 0.00, 87289.73, 0.00, 0.00, 0.00, 0.00, 0.00, 0.00, 0.01, -0.01, 1.03
177, 0.00, 87264.74, 0.00, 0.00, 0.00, 0.00, 0.00, 0.00, 0.01, -0.01, 1.03
178, 0.00, 87286.71, 0.00, 0.00, 0.00, 0.00, 0.00, 0.00, 0.01, -0.01, 1.03
179, 0.00, 87344.55, 0.00, 0.00, 0.00, 0.00, 0.00, 0.00, 0.01, -0.01, 1.02
180, 0.00, 87327.05, 0.00, 0.00, 0.00, 0.00, 0.00, 0.00, 0.01, -0.01, 1.02
181, 0.00, 87219.63, 0.00, 0.00, 0.00, 0.00, 0.00, 0.00, 0.01, -0.01, 1.02
182, 0.00, 87215.92, 0.00, 0.00, 0.00, 0.00, 0.00, 0.00, 0.01, -0.01, 1.02
183, 0.00, 87289.68, 0.00, 0.00, 0.00, 0.00, 0.00, 0.00, 0.01, -0.01, 1.02
184, 0.00, 87303.41, 0.00, 0.00, 0.00, 0.00, 0.00, 0.00, 0.02, -0.01, 1.03
185, 0.00, 87295.90, 0.00, 0.00, 0.00, 0.00, 0.00, 0.00, 0.02, -0.01, 1.03
186, 0.00, 87293.75, 0.00, 0.00, 0.00, 0.00, 0.00, 0.00, 0.02, -0.01, 1.03
187, 0.00, 87306.11, 0.00, 0.00, 0.00, 0.00, 0.00, 0.00, 0.02, -0.01, 1.03
188, 0.00, 87277.34, 0.00, 0.00, 0.00, 0.00, 0.00, 0.00, 0.02, -0.01, 1.03
189, 0.00, 87271.40, 0.00, 0.00, 0.00, 0.00, 0.00, 0.00, 0.01, -0.01, 1.02
190, 0.00, 87304.10, 0.00, 0.00, 0.00, 0.00, 0.00, 0.00, 0.01, -0.01, 1.02
191, 0.00, 87305.53, 0.00, 0.00, 0.00, 0.00, 0.00, 0.00, 0.01, -0.01, 1.02
192, 0.00, 87317.11, 0.00, 0.00, 0.00, 0.00, 0.00, 0.00, 0.01, -0.01, 1.02
193, 0.00, 87338.12, 0.00, 0.00, 0.00, 0.00, 0.00, 0.00, 0.01, -0.01, 1.02
194, 0.00, 87350.95, 0.00, 0.00, 0.00, 0.00, 0.00, 0.00, 0.01, -0.01, 1.02
195, 0.00, 87313.29, 0.00, 0.00, 0.00, 0.00, 0.00, 0.00, 0.01, -0.01, 1.02
196, 0.00, 87300.59, 0.00, 0.00, 0.00, 0.00, 0.00, 0.00, 0.01, -0.01, 1.02
197, 0.00, 87318.12, 0.00, 0.00, 0.00, 0.00, 0.00, 0.00, 0.01, -0.01, 1.02
198, 0.00, 87312.55, 0.00, 0.00, 0.00, 0.00, 0.00, 0.00, 0.01, -0.01, 1.02
199, 0.00, 87287.91, 0.00, 0.00, 0.00, 0.00, 0.00, 0.00, 0.02, -0.01, 1.02
200, 0.00, 87252.47, 0.00, 0.00, 0.00, 0.00, 0.00, 0.00, 0.02, -0.01, 1.02
201, 0.00, 87228.41, 0.00, 0.00, 0.00, 0.00, 0.00, 0.00, 0.02, -0.01, 1.02
202, 0.00, 87275.80, 0.00, 0.00, 0.00, 0.00, 0.00, 0.00, 0.02, -0.01, 1.02
203, 0.00, 87278.82, 0.00, 0.00, 0.00, 0.00, 0.00, 0.00, 0.02, -0.01, 1.02
204, 0.00, 87243.68, 0.00, 0.00, 0.00, 0.00, 0.00, 0.00, 0.01, -0.00, 1.03
205, 0.00, 87276.77, 0.00, 0.00, 0.00, 0.00, 0.00, 0.00, 0.01, -0.00, 1.03
206, 0.00, 87320.46, 0.00, 0.00, 0.00, 0.00, 0.00, 0.00, 0.01, -0.00, 1.03
207, 0.00, 87283.07, 0.00, 0.00, 0.00, 0.00, 0.00, 0.00, 0.01, -0.00, 1.03
208, 0.00, 87307.54, 0.00, 0.00, 0.00, 0.00, 0.00, 0.00, 0.01, -0.00, 1.03
209, 0.00, 87351.60, 0.00, 0.00, 0.00, 0.00, 0.00, 0.00, 0.01, -0.00, 1.02
210, 0.00, 87358.57, 0.00, 0.00, 0.00, 0.00, 0.00, 0.00, 0.01, -0.00, 1.02
211, 0.00, 87389.39, 0.00, 0.00, 0.00, 0.00, 0.00, 0.00, 0.01, -0.00, 1.02
212, 0.00, 87313.48, 0.00, 0.00, 0.00, 0.00, 0.00, 0.00, 0.01, -0.00, 1.02
213, 0.00, 87350.73, 0.00, 0.00, 0.00, 0.00, 0.00, 0.00, 0.01, -0.00, 1.02
214, 0.00, 87355.71, 0.00, 0.00, 0.00, 0.00, 0.00, 0.00, 0.01, -0.01, 1.03
215, 0.00, 87279.06, 0.00, 0.00, 0.00, 0.00, 0.00, 0.00, 0.01, -0.01, 1.03
216, 0.00, 87262.46, 0.00, 0.00, 0.00, 0.00, 0.00, 0.00, 0.01, -0.01, 1.03
217, 0.00, 87293.02, 0.00, 0.00, 0.00, 0.00, 0.00, 0.00, 0.01, -0.01, 1.03
218, 0.00, 87304.97, 0.00, 0.00, 0.00, 0.00, 0.00, 0.00, 0.01, -0.01, 1.03
219, 0.00, 87295.56, 0.00, 0.00, 0.00, 0.00, 0.00, 0.00, 0.01, -0.01, 1.03
220, 0.00, 87298.67, 0.00, 0.00, 0.00, 0.00, 0.00, 0.00, 0.01, -0.01, 1.03
221, 0.00, 87325.71, 0.00, 0.00, 0.00, 0.00, 0.00, 0.00, 0.01, -0.01, 1.03
222, 0.00, 87310.52, 0.00, 0.00, 0.00, 0.00, 0.00, 0.00, 0.01, -0.01, 1.03
223, 0.00, 87296.39, 0.00, 0.00, 0.00, 0.00, 0.00, 0.00, 0.01, -0.01, 1.03
224, 0.00, 87304.77, 0.00, 0.00, 0.00, 0.00, 0.00, 0.00, 0.01, -0.01, 1.02
225, 0.00, 87322.85, 0.00, 0.00, 0.00, 0.00, 0.00, 0.00, 0.01, -0.01, 1.02
226, 0.00, 87387.38, 0.00, 0.00, 0.00, 0.00, 0.00, 0.00, 0.01, -0.01, 1.02
227, 0.00, 87340.98, 0.00, 0.00, 0.00, 0.00, 0.00, 0.00, 0.01, -0.01, 1.02
228, 0.00, 87266.33, 0.00, 0.00, 0.00, 0.00, 0.00, 0.00, 0.01, -0.01, 1.02
229, 0.00, 87322.48, 0.00, 0.00, 0.00, 0.00, 0.00, 0.00, 0.01, -0.01, 1.03
230, 0.00, 87335.84, 0.00, 0.00, 0.00, 0.00, 0.00, 0.00, 0.01, -0.01, 1.03
231, 0.00, 87309.69, 0.00, 0.00, 0.00, 0.00, 0.00, 0.00, 0.01, -0.01, 1.03
232, 0.00, 87321.69, 0.00, 0.00, 0.00, 0.00, 0.00, 0.00, 0.01, -0.01, 1.03
233, 0.00, 87336.45, 0.00, 0.00, 0.00, 0.00, 0.00, 0.00, 0.01, -0.01, 1.03
234, 0.00, 87317.66, 0.00, 0.00, 0.00, 0.00, 0.00, 0.00, 0.01, -0.01, 1.03
235, 0.00, 87318.09, 0.00, 0.00, 0.00, 0.00, 0.00, 0.00, 0.01, -0.01, 1.03
236, 0.00, 87336.24, 0.00, 0.00, 0.00, 0.00, 0.00, 0.00, 0.01, -0.01, 1.03
237, 0.00, 87385.95, 0.00, 0.00, 0.00, 0.00, 0.00, 0.00, 0.01, -0.01, 1.03
238, 0.00, 87293.59, 0.00, 0.00, 0.00, 0.00, 0.00, 0.00, 0.01, -0.01, 1.03
239, 0.00, 87253.92, 0.00, 0.00, 0.00, 0.00, 0.00, 0.00, 0.01, -0.01, 1.02
240, 0.00, 87321.34, 0.00, 0.00, 0.00, 0.00, 0.00, 0.00, 0.01, -0.01, 1.02
241, 0.00, 87335.95, 0.00, 0.00, 0.00, 0.00, 0.00, 0.00, 0.01, -0.01, 1.02
242, 0.00, 87319.59, 0.00, 0.00, 0.00, 0.00, 0.00, 0.00, 0.01, -0.01, 1.02
243, 0.00, 87301.73, 0.00, 0.00, 0.00, 0.00, 0.00, 0.00, 0.01, -0.01, 1.02
244, 0.00, 87315.61, 0.00, 0.00, 0.00, 0.00, 0.00, 0.00, 0.02, -0.00, 1.03
245, 0.00, 87351.27, 0.00, 0.00, 0.00, 0.00, 0.00, 0.00, 0.02, -0.00, 1.03
246, 0.00, 87316.62, 0.00, 0.00, 0.00, 0.00, 0.00, 0.00, 0.02, -0.00, 1.03
247, 0.00, 87307.01, 0.00, 0.00, 0.00, 0.00, 0.00, 0.00, 0.02, -0.00, 1.03
248, 0.00, 87329.36, 0.00, 0.00, 0.00, 0.00, 0.00, 0.00, 0.02, -0.00, 1.03
249, 0.00, 87351.84, 0.00, 0.00, 0.00, 0.00, 0.00, 0.00, 0.02, 0.00, 1.03
250, 0.00, 87344.00, 0.00, 0.00, 0.00, 0.00, 0.00, 0.00, 0.02, 0.00, 1.03
251, 0.00, 87319.52, 0.00, 0.00, 0.00, 0.00, 0.00, 0.00, 0.02, 0.00, 1.03
252, 0.00, 87320.35, 0.00, 0.00, 0.00, 0.00, 0.00, 0.00, 0.02, 0.00, 1.03
253, 0.00, 87346.66, 0.00, 0.00, 0.00, 0.00, 0.00, 0.00, 0.02, 0.00, 1.03
254, 0.00, 87391.61, 0.00, 0.00, 0.00, 0.00, 0.00, 0.00, 0.02, -0.00, 1.03
255, 0.00, 87347.55, 0.00, 0.00, 0.00, 0.00, 0.00, 0.00, 0.02, -0.00, 1.03
0, 0.00, 87305.33, 0.00, 0.00, 0.00, 0.00, 0.00, 0.00, 0.02, -0.00, 1.03
1, 0.00, 87317.96, 0.00, 0.00, 0.00, 0.00, 0.00, 0.00, 0.02, -0.00, 1.03
2, 0.00, 87318.25, 0.00, 0.00, 0.00, 0.00, 0.00, 0.00, 0.02, -0.00, 1.03
3, 0.00, 87355.27, 0.00, 0.00, 0.00, 0.00, 0.00, 0.00, 0.02, -0.01, 1.03
4, 0.00, 87403.97, 0.00, 0.00, 0.00, 0.00, 0.00, 0.00, 0.02, -0.01, 1.03
5, 0.00, 87327.57, 0.00, 0.00, 0.00, 0.00, 0.00, 0.00, 0.02, -0.01, 1.03
6, 0.00, 87259.40, 0.00, 0.00, 0.00, 0.00, 0.00, 0.00, 0.02, -0.01, 1.03
7, 0.00, 87302.67, 0.00, 0.00, 0.00, 0.00, 0.00, 0.00, 0.02, -0.01, 1.03
8, 0.00, 87357.63, 0.00, 0.00, 0.00, 0.00, 0.00, 0.00, 0.02, -0.01, 1.03
9, 0.00, 87318.49, 0.00, 0.00, 0.00, 0.00, 0.00, 0.00, 0.01, -0.01, 1.03
10, 0.00, 87290.98, 0.00, 0.00, 0.00, 0.00, 0.00, 0.00, 0.01, -0.01, 1.03
11, 0.00, 87299.63, 0.00, 0.00, 0.00, 0.00, 0.00, 0.00, 0.01, -0.01, 1.03
12, 0.00, 87305.64, 0.00, 0.00, 0.00, 0.00, 0.00, 0.00, 0.01, -0.01, 1.03
13, 0.00, 87316.23, 0.00, 0.00, 0.00, 0.00, 0.00, 0.00, 0.01, -0.01, 1.03
14, 0.00, 87331.23, 0.00, 0.00, 0.00, 0.00, 0.00, 0.00, 0.01, 0.00, 1.01
15, 0.00, 87319.73, 0.00, 0.00, 0.00, 0.00, 0.00, 0.00, 0.01, 0.00, 1.01
16, 0.00, 87362.98, 0.00, 0.00, 0.00, 0.00, 0.00, 0.00, 0.01, 0.00, 1.01
17, 0.00, 87378.51, 0.00, 0.00, 0.00, 0.00, 0.00, 0.00, 0.01, 0.00, 1.01
18, 0.00, 87371.87, 0.00, 0.00, 0.00, 0.00, 0.00, 0.00, 0.01, 0.00, 1.01
19, 0.00, 87336.27, 0.00, 0.00, 0.00, 0.00, 0.00, 0.00, 0.01, -0.00, 1.02
20, 0.00, 87345.02, 0.00, 0.00, 0.00, 0.00, 0.00, 0.00, 0.01, -0.00, 1.02
21, 0.00, 87347.55, 0.00, 0.00, 0.00, 0.00, 0.00, 0.00, 0.01, -0.00, 1.02
22, 0.00, 87344.22, 0.00, 0.00, 0.00, 0.00, 0.00, 0.00, 0.01, -0.00, 1.02
23, 0.00, 87333.34, 0.00, 0.00, 0.00, 0.00, 0.00, 0.00, 0.01, -0.00, 1.02
24, 0.00, 87358.91, 0.00, 0.00, 0.00, 0.00, 0.00, 0.00, 0.01, -0.00, 1.03
25, 0.00, 87339.41, 0.00, 0.00, 0.00, 0.00, 0.00, 0.00, 0.01, -0.00, 1.03
26, 0.00, 87332.82, 0.00, 0.00, 0.00, 0.00, 0.00, 0.00, 0.01, -0.00, 1.03
27, 0.00, 87371.98, 0.00, 0.00, 0.00, 0.00, 0.00, 0.00, 0.01, -0.00, 1.03
28, 0.00, 87372.16, 0.00, 0.00, 0.00, 0.00, 0.00, 0.00, 0.01, -0.00, 1.03
29, 0.00, 87303.20, 0.00, 0.00, 0.00, 0.00, 0.00, 0.00, 0.01, -0.01, 1.03
30, 0.00, 87285.88, 0.00, 0.00, 0.00, 0.00, 0.00, 0.00, 0.01, -0.01, 1.03
31, 0.00, 87318.92, 0.00, 0.00, 0.00, 0.00, 0.00, 0.00, 0.01, -0.01, 1.03
32, 0.00, 87361.79, 0.00, 0.00, 0.00, 0.00, 0.00, 0.00, 0.01, -0.01, 1.03
33, 0.00, 87383.38, 0.00, 0.00, 0.00, 0.00, 0.00, 0.00, 0.01, -0.01, 1.03
34, 0.00, 87383.09, 0.00, 0.00, 0.00, 0.00, 0.00, 0.00, 0.01, -0.01, 1.02
35, 0.00, 87379.41, 0.00, 0.00, 0.00, 0.00, 0.00, 0.00, 0.01, -0.01, 1.02
36, 0.00, 87347.22, 0.00, 0.00, 0.00, 0.00, 0.00, 0.00, 0.01, -0.01, 1.02
37, 0.00, 87368.56, 0.00, 0.00, 0.00, 0.00, 0.00, 0.00, 0.01, -0.01, 1.02
38, 0.00, 87379.13, 0.00, 0.00, 0.00, 0.00, 0.00, 0.00, 0.01, -0.01, 1.02
39, 0.00, 87352.94, 0.00, 0.00, 0.00, 0.00, 0.00, 0.00, 0.02, -0.00, 1.02
40, 0.00, 87353.30, 0.00, 0.00, 0.00, 0.00, 0.00, 0.00, 0.02, -0.00, 1.02
41, 0.00, 87323.99, 0.00, 0.00, 0.00, 0.00, 0.00, 0.00, 0.02, -0.00, 1.02
42, 0.00, 87364.90, 0.00, 0.00, 0.00, 0.00, 0.00, 0.00, 0.02, -0.00, 1.02
43, 0.00, 87354.80, 0.00, 0.00, 0.00, 0.00, 0.00, 0.00, 0.02, -0.00, 1.02
44, 0.00, 87337.34, 0.00, 0.00, 0.00, 0.00, 0.00, 0.00, 0.02, -0.00, 1.03
45, 0.00, 87361.79, 0.00, 0.00, 0.00, 0.00, 0.00, 0.00, 0.02, -0.00, 1.03
46, 0.00, 87355.38, 0.00, 0.00, 0.00, 0.00, 0.00, 0.00, 0.02, -0.00, 1.03
47, 0.00, 87330.56, 0.00, 0.00, 0.00, 0.00, 0.00, 0.00, 0.02, -0.00, 1.03
48, 0.00, 87326.05, 0.00, 0.00, 0.00, 0.00, 0.00, 0.00, 0.02, -0.00, 1.03
49, 0.00, 87330.09, 0.00, 0.00, 0.00, 0.00, 0.00, 0.00, 0.02, -0.00, 1.02
50, 0.00, 87375.29, 0.00, 0.00, 0.00, 0.00, 0.00, 0.00, 0.02, -0.00, 1.02
51, 0.00, 87391.90, 0.00, 0.00, 0.00, 0.00, 0.00, 0.00, 0.02, -0.00, 1.02
52, 0.00, 87376.30, 0.00, 0.00, 0.00, 0.00, 0.00, 0.00, 0.02, -0.00, 1.02
53, 0.00, 87351.13, 0.00, 0.00, 0.00, 0.00, 0.00, 0.00, 0.02, -0.00, 1.02
54, 0.00, 87362.02, 0.00, 0.00, 0.00, 0.00, 0.00, 0.00, 0.02, -0.00, 1.03
55, 0.00, 87377.08, 0.00, 0.00, 0.00, 0.00, 0.00, 0.00, 0.02, -0.00, 1.03
56, 0.00, 87361.41, 0.00, 0.00, 0.00, 0.00, 0.00, 0.00, 0.02, -0.00, 1.03
57, 0.00, 87347.33, 0.00, 0.00, 0.00, 0.00, 0.00, 0.00, 0.02, -0.00, 1.03
58, 0.00, 87341.83, 0.00, 0.00, 0.00, 0.00, 0.00, 0.00, 0.02, -0.00, 1.03
59, 0.00, 87368.48, 0.00, 0.00, 0.00, 0.00, 0.00, 0.00, 0.01, 0.00, 1.03
60, 0.00, 87353.16, 0.00, 0.00, 0.00, 0.00, 0.00, 0.00, 0.01, 0.00, 1.03
61, 0.00, 87358.35, 0.00, 0.00, 0.00, 0.00, 0.00, 0.00, 0.01, 0.00, 1.03
62, 0.00, 87365.16, 0.00, 0.00, 0.00, 0.00, 0.00, 0.00, 0.01, 0.00, 1.03
63, 0.00, 87378.45, 0.00, 0.00, 0.00, 0.00, 0.00, 0.00, 0.01, 0.00, 1.03
64, 0.00, 87380.14, 0.00, 0.00, 0.00, 0.00, 0.00, 0.00, 0.01, -0.01, 1.03
65, 0.00, 87374.04, 0.00, 0.00, 0.00, 0.00, 0.00, 0.00, 0.01, -0.01, 1.03
66, 0.00, 87396.97, 0.00, 0.00, 0.00, 0.00, 0.00, 0.00, 0.01, -0.01, 1.03
67, 0.00, 87381.82, 0.00, 0.00, 0.00, 0.00, 0.00, 0.00, 0.01, -0.01, 1.03
68, 0.00, 87354.33, 0.00, 0.00, 0.00, 0.00, 0.00, 0.00, 0.01, -0.01, 1.03
69, 0.00, 87356.23, 0.00, 0.00, 0.00, 0.00, 0.00, 0.00, 0.01, -0.00, 1.03
70, 0.00, 87388.37, 0.00, 0.00, 0.00, 0.00, 0.00, 0.00, 0.01, -0.00, 1.03
71, 0.00, 87413.76, 0.00, 0.00, 0.00, 0.00, 0.00, 0.00, 0.01, -0.00, 1.03
72, 0.00, 87388.79, 0.00, 0.00, 0.00, 0.00, 0.00, 0.00, 0.01, -0.00, 1.03
73, 0.00, 87336.22, 0.00, 0.00, 0.00, 0.00, 0.00, 0.00, 0.01, -0.00, 1.03
74, 0.00, 87354.62, 0.00, 0.00, 0.00, 0.00, 0.00, 0.00, 0.02, -0.00, 1.03
75, 0.00, 87359.76, 0.00, 0.00, 0.00, 0.00, 0.00, 0.00, 0.02, -0.00, 1.03
76, 0.00, 87359.76, 0.00, 0.00, 0.00, 0.00, 0.00, 0.00, 0.02, -0.00, 1.03
77, 0.00, 87377.19, 0.00, 0.00, 0.00, 0.00, 0.00, 0.00, 0.02, -0.00, 1.03
78, 0.00, 87368.14, 0.00, 0.00, 0.00, 0.00, 0.00, 0.00, 0.02, -0.00, 1.03
79, 0.00, 87374.53, 0.00, 0.00, 0.00, 0.00, 0.00, 0.00, 0.01, -0.01, 1.03
80, 0.00, 87381.84, 0.00, 0.00, 0.00, 0.00, 0.00, 0.00, 0.01, -0.01, 1.03
81, 0.00, 87387.20, 0.00, 0.00, 0.00, 0.00, 0.00, 0.00, 0.01, -0.01, 1.03
82, 0.00, 87369.68, 0.00, 0.00, 0.00, 0.00, 0.00, 0.00, 0.01, -0.01, 1.03
83, 0.00, 87398.96, 0.00, 0.00, 0.00, 0.00, 0.00, 0.00, 0.01, -0.01, 1.03
84, 0.00, 87419.75, 0.00, 0.00, 0.00, 0.00, 0.00, 0.00, 0.02, -0.00, 1.03
85, 0.00, 87409.42, 0.00, 0.00, 0.00, 0.00, 0.00, 0.00, 0.02, -0.00, 1.03
86, 0.00, 87359.42, 0.00, 0.00, 0.00, 0.00, 0.00, 0.00, 0.02, -0.00, 1.03
87, 0.00, 87352.20, 0.00, 0.00, 0.00, 0.00, 0.00, 0.00, 0.02, -0.00, 1.03
88, 0.00, 87353.09, 0.00, 0.00, 0.00, 0.00, 0.00, 0.00, 0.02, -0.00, 1.03
89, 0.00, 87347.06, 0.00, 0.00, 0.00, 0.00, 0.00, 0.00, 0.02, -0.01, 1.03
90, 0.00, 87357.90, 0.00, 0.00, 0.00, 0.00, 0.00, 0.00, 0.02, -0.01, 1.03
91, 0.00, 87360.41, 0.00, 0.00, 0.00, 0.00, 0.00, 0.00, 0.02, -0.01, 1.03
92, 0.00, 87329.02, 0.00, 0.00, 0.00, 0.00, 0.00, 0.00, 0.02, -0.01, 1.03
93, 0.00, 87342.81, 0.00, 0.00, 0.00, 0.00, 0.00, 0.00, 0.02, -0.01, 1.03
94, 0.00, 87363.22, 0.00, 0.00, 0.00, 0.00, 0.00, 0.00, 0.01, -0.00, 1.03
95, 0.00, 87378.73, 0.00, 0.00, 0.00, 0.00, 0.00, 0.00, 0.01, -0.00, 1.03
96, 0.00, 87402.13, 0.00, 0.00, 0.00, 0.00, 0.00, 0.00, 0.01, -0.00, 1.03
97, 0.00, 87363.27, 0.00, 0.00, 0.00, 0.00, 0.00, 0.00, 0.01, -0.00, 1.03
98, 0.00, 87347.20, 0.00, 0.00, 0.00, 0.00, 0.00, 0.00, 0.01, -0.00, 1.03
99, 0.00, 87403.23, 0.00, 0.00, 0.00, 0.00, 0.00, 0.00, 0.01, 0.00, 1.04
100, 0.00, 87394.96, 0.00, 0.00, 0.00, 0.00, 0.00, 0.00, 0.01, 0.00, 1.04
101, 0.00, 87347.69, 0.00, 0.00, 0.00, 0.00, 0.00, 0.00, 0.01, 0.00, 1.04
102, 0.00, 87360.63, 0.00, 0.00, 0.00, 0.00, 0.00, 0.00, 0.01, 0.00, 1.04
103, 0.00, 87364.95, 0.00, 0.00, 0.00, 0.00, 0.00, 0.00, 0.01, 0.00, 1.04
104, 0.00, 87390.20, 0.00, 0.00, 0.00, 0.00, 0.00, 0.00, 0.01, 0.00, 1.03
105, 0.00, 87390.27, 0.00, 0.00, 0.00, 0.00, 0.00, 0.00, 0.01, 0.00, 1.03
106, 0.00, 87398.96, 0.00, 0.00, 0.00, 0.00, 0.00, 0.00, 0.01, 0.00, 1.03
107, 0.00, 87401.42, 0.00, 0.00, 0.00, 0.00, 0.00, 0.00, 0.01, 0.00, 1.03
108, 0.00, 87375.96, 0.00, 0.00, 0.00, 0.00, 0.00, 0.00, 0.01, 0.00, 1.03
109, 0.00, 87354.13, 0.00, 0.00, 0.00, 0.00, 0.00, 0.00, 0.01, 0.00, 1.04
110, 0.00, 87318.41, 0.00, 0.00, 0.00, 0.00, 0.00, 0.00, 0.01, 0.00, 1.04
111, 0.00, 87354.68, 0.00, 0.00, 0.00, 0.00, 0.00, 0.00, 0.01, 0.00, 1.04
112, 0.00, 87371.34, 0.00, 0.00, 0.00, 0.00, 0.00, 0.00, 0.01, 0.00, 1.04
113, 0.00, 87396.57, 0.00, 0.00, 0.00, 0.00, 0.00, 0.00, 0.01, 0.00, 1.04
114, 0.00, 87359.58, 0.00, 0.00, 0.00, 0.00, 0.00, 0.00, 0.02, -0.00, 1.04
115, 0.00, 87348.34, 0.00, 0.00, 0.00, 0.00, 0.00, 0.00, 0.02, -0.00, 1.04
116, 0.00, 87384.77, 0.00, 0.00, 0.00, 0.00, 0.00, 0.00, 0.02, -0.00, 1.04
117, 0.00, 87376.50, 0.00, 0.00, 0.00, 0.00, 0.00, 0.00, 0.02, -0.00, 1.04
118, 0.00, 87362.55, 0.00, 0.00, 0.00, 0.00, 0.00, 0.00, 0.02, -0.00, 1.04
119, 0.00, 87380.81, 0.00, 0.00, 0.00, 0.00, 0.00, 0.00, 0.01, -0.00, 1.04
120, 0.00, 87408.82, 0.00, 0.00, 0.00, 0.00, 0.00, 0.00, 0.01, -0.00, 1.04
121, 0.00, 87329.98, 0.00, 0.00, 0.00, 0.00, 0.00, 0.00, 0.01, -0.00, 1.04
122, 0.00, 87335.28, 0.00, 0.00, 0.00, 0.00, 0.00, 0.00, 0.01, -0.00, 1.04
123, 0.00, 87373.84, 0.00, 0.00, 0.00, 0.00, 0.00, 0.00, 0.01, -0.00, 1.04
124, 0.00, 87370.53, 0.00, 0.00, 0.00, 0.00, 0.00, 0.00, 0.01, 0.00, 1.04
125, 0.00, 87371.83, 0.00, 0.00, 0.00, 0.00, 0.00, 0.00, 0.01, 0.00, 1.04
126, 0.00, 87379.41, 0.00, 0.00, 0.00, 0.00, 0.00, 0.00, 0.01, 0.00, 1.04
127, 0.00, 87367.24, 0.00, 0.00, 0.00, 0.00, 0.00, 0.00, 0.01, 0.00, 1.04
128, 0.00, 87368.49, 0.00, 0.00, 0.00, 0.00, 0.00, 0.00, 0.01, 0.00, 1.04
129, 0.00, 87381.91, 0.00, 0.00, 0.00, 0.00, 0.00, 0.00, 0.02, -0.00, 1.03
130, 0.00, 87397.58, 0.00, 0.00, 0.00, 0.00, 0.00, 0.00, 0.02, -0.00, 1.03
131, 0.00, 87347.87, 0.00, 0.00, 0.00, 0.00, 0.00, 0.00, 0.02, -0.00, 1.03
132, 0.00, 87344.58, 0.00, 0.00, 0.00, 0.00, 0.00, 0.00, 0.02, -0.00, 1.03
133, 0.00, 87375.94, 0.00, 0.00, 0.00, 0.00, 0.00, 0.00, 0.02, -0.00, 1.03
134, 0.00, 87396.63, 0.00, 0.00, 0.00, 0.00, 0.00, 0.00, 0.02, -0.01, 1.03
135, 0.00, 87409.00, 0.00, 0.00, 0.00, 0.00, 0.00, 0.00, 0.02, -0.01, 1.03
136, 0.00, 87364.70, 0.00, 0.00, 0.00, 0.00, 0.00, 0.00, 0.02, -0.01, 1.03
137, 0.00, 87324.58, 0.00, 0.00, 0.00, 0.00, 0.00, 0.00, 0.02, -0.01, 1.03
138, 0.00, 87314.00, 0.00, 0.00, 0.00, 0.00, 0.00, 0.00, 0.02, -0.01, 1.03
139, 0.00, 87358.98, 0.00, 0.00, 0.00, 0.00, 0.00, 0.00, 0.01, -0.00, 1.02
140, 0.00, 87394.98, 0.00, 0.00, 0.00, 0.00, 0.00, 0.00, 0.01, -0.00, 1.02
141, 0.00, 87437.02, 0.00, 0.00, 0.00, 0.00, 0.00, 0.00, 0.01, -0.00, 1.02
142, 0.00, 87372.25, 0.00, 0.00, 0.00, 0.00, 0.00, 0.00, 0.01, -0.00, 1.02
143, 0.00, 87324.77, 0.00, 0.00, 0.00, 0.00, 0.00, 0.00, 0.01, -0.00, 1.02
144, 0.00, 87363.40, 0.00, 0.00, 0.00, 0.00, 0.00, 0.00, 0.02, -0.01, 1.02
145, 0.00, 87410.74, 0.00, 0.00, 0.00, 0.00, 0.00, 0.00, 0.02, -0.01, 1.02
146, 0.00, 87402.41, 0.00, 0.00, 0.00, 0.00, 0.00, 0.00, 0.02, -0.01, 1.02
147, 0.00, 87419.44, 0.00, 0.00, 0.00, 0.00, 0.00, 0.00, 0.02, -0.01, 1.02
148, 0.00, 87456.95, 0.00, 0.00, 0.00, 0.00, 0.00, 0.00, 0.02, -0.01, 1.02
149, 0.00, 87436.31, 0.00, 0.00, 0.00, 0.00, 0.00, 0.00, 0.02, -0.01, 1.01
150, 0.00, 87402.29, 0.00, 0.00, 0.00, 0.00, 0.00, 0.00, 0.02, -0.01, 1.01
151, 0.00, 87386.53, 0.00, 0.00, 0.00, 0.00, 0.00, 0.00, 0.02, -0.01, 1.01
152, 0.00, 87389.04, 0.00, 0.00, 0.00, 0.00, 0.00, 0.00, 0.02, -0.01, 1.01
153, 0.00, 87406.43, 0.00, 0.00, 0.00, 0.00, 0.00, 0.00, 0.02, -0.01, 1.01
154, 0.00, 87446.68, 0.00, 0.00, 0.00, 0.00, 0.00, 0.00, 0.01, -0.01, 1.03
155, 0.00, 87450.95, 0.00, 0.00, 0.00, 0.00, 0.00, 0.00, 0.01, -0.01, 1.03
156, 0.00, 87424.35, 0.00, 0.00, 0.00, 0.00, 0.00, 0.00, 0.01, -0.01, 1.03
157, 0.00, 87419.13, 0.00, 0.00, 0.00, 0.00, 0.00, 0.00, 0.01, -0.01, 1.03
158, 0.00, 87397.13, 0.00, 0.00, 0.00, 0.00, 0.00, 0.00, 0.01, -0.01, 1.03
159, 0.00, 87385.88, 0.00, 0.00, 0.00, 0.00, 0.00, 0.00, 0.01, -0.00, 1.03
160, 0.00, 87416.28, 0.00, 0.00, 0.00, 0.00, 0.00, 0.00, 0.01, -0.00, 1.03
161, 0.00, 87413.60, 0.00, 0.00, 0.00, 0.00, 0.00, 0.00, 0.01, -0.00, 1.03
162, 0.00, 87440.55, 0.00, 0.00, 0.00, 0.00, 0.00, 0.00, 0.01, -0.00, 1.03
163, 0.00, 87422.63, 0.00, 0.00, 0.00, 0.00, 0.00, 0.00, 0.01, -0.00, 1.03
164, 0.00, 87384.25, 0.00, 0.00, 0.00, 0.00, 0.00, 0.00, 0.02, -0.01, 1.03
165, 0.00, 87400.81, 0.00, 0.00, 0.00, 0.00, 0.00, 0.00, 0.02, -0.01, 1.03
166, 0.00, 87414.36, 0.00, 0.00, 0.00, 0.00, 0.00, 0.00, 0.02, -0.01, 1.03
167, 0.00, 87394.73, 0.00, 0.00, 0.00, 0.00, 0.00, 0.00, 0.02, -0.01, 1.03
168, 0.00, 87403.48, 0.00, 0.00, 0.00, 0.00, 0.00, 0.00, 0.02, -0.01, 1.03
169, 0.00, 87410.05, 0.00, 0.00, 0.00, 0.00, 0.00, 0.00, 0.02, -0.01, 1.04
170, 0.00, 87412.91, 0.00, 0.00, 0.00, 0.00, 0.00, 0.00, 0.02, -0.01, 1.04
171, 0.00, 87430.05, 0.00, 0.00, 0.00, 0.00, 0.00, 0.00, 0.02, -0.01, 1.04
172, 0.00, 87435.51, 0.00, 0.00, 0.00, 0.00, 0.00, 0.00, 0.02, -0.01, 1.04
173, 0.00, 87421.78, 0.00, 0.00, 0.00, 0.00, 0.00, 0.00, 0.02, -0.01, 1.04
174, 0.00, 87409.38, 0.00, 0.00, 0.00, 0.00, 0.00, 0.00, 0.01, -0.01, 1.03
175, 0.00, 87407.14, 0.00, 0.00, 0.00, 0.00, 0.00, 0.00, 0.01, -0.01, 1.03
176, 0.00, 87395.63, 0.00, 0.00, 0.00, 0.00, 0.00, 0.00, 0.01, -0.01, 1.03
177, 0.00, 87396.75, 0.00, 0.00, 0.00, 0.00, 0.00, 0.00, 0.01, -0.01, 1.03
178, 0.00, 87411.05, 0.00, 0.00, 0.00, 0.00, 0.00, 0.00, 0.01, -0.01, 1.03
179, 0.00, 87399.88, 0.00, 0.00, 0.00, 0.00, 0.00, 0.00, 0.02, -0.01, 1.02
180, 0.00, 87386.78, 0.00, 0.00, 0.00, 0.00, 0.00, 0.00, 0.02, -0.01, 1.02
181, 0.00, 87387.31, 0.00, 0.00, 0.00, 0.00, 0.00, 0.00, 0.02, -0.01, 1.02
182, 0.00, 87423.68, 0.00, 0.00, 0.00, 0.00, 0.00, 0.00, 0.02, -0.01, 1.02
183, 0.00, 87431.17, 0.00, 0.00, 0.00, 0.00, 0.00, 0.00, 0.02, -0.01, 1.02
184, 0.00, 87401.76, 0.00, 0.00, 0.00, 0.00, 0.00, 0.00, 0.01, -0.01, 1.03
185, 0.00, 87399.20, 0.00, 0.00, 0.00, 0.00, 0.00, 0.00, 0.01, -0.01, 1.03
186, 0.00, 87411.41, 0.00, 0.00, 0.00, 0.00, 0.00, 0.00, 0.01, -0.01, 1.03
187, 0.00, 87406.78, 0.00, 0.00, 0.00, 0.00, 0.00, 0.00, 0.01, -0.01, 1.03
188, 0.00, 87384.01, 0.00, 0.00, 0.00, 0.00, 0.00, 0.00, 0.01, -0.01, 1.03
189, 0.00, 87409.91, 0.00, 0.00, 0.00, 0.00, 0.00, 0.00, 0.02, -0.01, 1.03
190, 0.00, 87392.26, 0.00, 0.00, 0.00, 0.00, 0.00, 0.00, 0.02, -0.01, 1.03
191, 0.00, 87390.60, 0.00, 0.00, 0.00, 0.00, 0.00, 0.00, 0.02, -0.01, 1.03
192, 0.00, 87380.12, 0.00, 0.00, 0.00, 0.00, 0.00, 0.00, 0.02, -0.01, 1.03
193, 0.00, 87375.34, 0.00, 0.00, 0.00, 0.00, 0.00, 0.00, 0.02, -0.01, 1.03
194, 0.00, 87375.02, 0.00, 0.00, 0.00, 0.00, 0.00, 0.00, 0.01, -0.00, 1.02
195, 0.00, 87360.02, 0.00, 0.00, 0.00, 0.00, 0.00, 0.00, 0.01, -0.00, 1.02
196, 0.00, 87329.52, 0.00, 0.00, 0.00, 0.00, 0.00, 0.00, 0.01, -0.00, 1.02
197, 0.00, 87279.38, 0.00, 0.00, 0.00, 0.00, 0.00, 0.00, 0.01, -0.00, 1.02
198, 0.00, 87235.28, 0.00, 0.00, 0.00, 0.00, 0.00, 0.00, 0.01, -0.00, 1.02
199, 0.00, 87223.59, 0.00, 0.00, 0.00, 0.00, 0.00, 0.00, 0.01, 0.00, 1.02
200, 0.00, 87190.38, 0.00, 0.00, 0.00, 0.00, 0.00, 0.00, 0.01, 0.00, 1.02
201, 0.00, 87181.91, 0.00, 0.00, 0.00, 0.00, 0.00, 0.00, 0.01, 0.00, 1.02
202, 0.00, 87210.89, 0.00, 0.00, 0.00, 0.00, 0.00, 0.00, 0.01, 0.00, 1.02
203, 0.00, 87239.98, 0.00, 0.00, 0.00, 0.00, 0.00, 0.00, 0.01, 0.00, 1.02
204, 0.00, 87126.16, 0.00, 0.00, 0.00, 0.00, 0.00, 0.00, 0.01, 0.00, 1.02
205, 0.00, 87031.12, 0.00, 0.00, 0.00, 0.00, 0.00, 0.00, 0.01, -0.00, 1.03
206, 0.00, 87099.29, 0.00, 0.00, 0.00, 0.00, 0.00, 0.00, 0.01, -0.00, 1.03
207, 0.00, 87089.34, 0.00, 0.00, 0.00, 0.00, 0.00, 0.00, 0.01, -0.00, 1.03
208, 0.00, 87025.58, 0.00, 0.00, 0.00, 0.00, 0.00, 0.00, 0.01, -0.00, 1.03
209, 0.00, 87007.13, 0.00, 0.00, 0.00, 0.00, 0.00, 0.00, 0.01, -0.00, 1.03
210, 0.00, 86997.61, 0.00, 0.00, 0.00, 0.00, 0.00, 0.00, 0.02, -0.01, 1.04
211, 0.00, 86978.44, 0.00, 0.00, 0.00, 0.00, 0.00, 0.00, 0.02, -0.01, 1.04
212, 0.00, 86979.27, 0.00, 0.00, 0.00, 0.00, 0.00, 0.00, 0.02, -0.01, 1.04
213, 0.00, 86982.52, 0.00, 0.00, 0.00, 0.00, 0.00, 0.00, 0.02, -0.01, 1.04
214, 0.00, 86959.62, 0.00, 0.00, 0.00, 0.00, 0.00, 0.00, 0.02, -0.01, 1.04
215, 0.00, 86940.03, 0.00, 0.00, 0.00, 0.00, 0.00, 0.00, 0.02, -0.01, 1.04
216, 0.00, 86935.79, 0.00, 0.00, 0.00, 0.00, 0.00, 0.00, 0.02, -0.01, 1.04
217, 0.00, 86943.23, 0.00, 0.00, 0.00, 0.00, 0.00, 0.00, 0.02, -0.01, 1.04
218, 0.00, 86956.40, 0.00, 0.00, 0.00, 0.00, 0.00, 0.00, 0.02, -0.01, 1.04
219, 0.00, 86946.79, 0.00, 0.00, 0.00, 0.00, 0.00, 0.00, 0.02, -0.01, 1.04
220, 0.00, 86913.37, 0.00, 0.00, 0.00, 0.00, 0.00, 0.00, 0.01, -0.01, 1.03
221, 0.00, 86959.10, 0.00, 0.00, 0.00, 0.00, 0.00, 0.00, 0.01, -0.01, 1.03
222, 0.00, 86915.09, 0.00, 0.00, 0.00, 0.00, 0.00, 0.00, 0.01, -0.01, 1.03
223, 0.00, 86929.71, 0.00, 0.00, 0.00, 0.00, 0.00, 0.00, 0.01, -0.01, 1.03
224, 0.00, 86971.04, 0.00, 0.00, 0.00, 0.00, 0.00, 0.00, 0.01, -0.01, 1.03
225, 0.00, 86929.26, 0.00, 0.00, 0.00, 0.00, 0.00, 0.00, 0.01, -0.01, 1.03
226, 0.00, 86844.26, 0.00, 0.00, 0.00, 0.00, 0.00, 0.00, 0.01, -0.01, 1.03
227, 0.00, 86832.97, 0.00, 0.00, 0.00, 0.00, 0.00, 0.00, 0.01, -0.01, 1.03
228, 0.00, 86887.24, 0.00, 0.00, 0.00, 0.00, 0.00, 0.00, 0.01, -0.01, 1.03
229, 0.00, 86931.02, 0.00, 0.00, 0.00, 0.00, 0.00, 0.00, 0.01, -0.01, 1.03
230, 0.00, 86940.70, 0.00, 0.00, 0.00, 0.00, 0.00, 0.00, 0.01, -0.01, 1.02
231, 0.00, 86946.61, 0.00, 0.00, 0.00, 0.00, 0.00, 0.00, 0.01, -0.01, 1.02
232, 0.00, 86977.23, 0.00, 0.00, 0.00, 0.00, 0.00, 0.00, 0.01, -0.01, 1.02
233, 0.00, 87023.56, 0.00, 0.00, 0.00, 0.00, 0.00, 0.00, 0.01, -0.01, 1.02
234, 0.00, 87027.52, 0.00, 0.00, 0.00, 0.00, 0.00, 0.00, 0.01, -0.01, 1.02
235, 0.00, 87020.59, 0.00, 0.00, 0.00, 0.00, 0.00, 0.00, 0.01, -0.01, 1.02
236, 0.00, 87021.22, 0.00, 0.00, 0.00, 0.00, 0.00, 0.00, 0.01, -0.01, 1.02
237, 0.00, 87075.73, 0.00, 0.00, 0.00, 0.00, 0.00, 0.00, 0.01, -0.01, 1.02
238, 0.00, 87089.16, 0.00, 0.00, 0.00, 0.00, 0.00, 0.00, 0.01, -0.01, 1.02
239, 0.00, 87119.14, 0.00, 0.00, 0.00, 0.00, 0.00, 0.00, 0.01, -0.01, 1.02
240, 0.00, 87160.09, 0.00, 0.00, 0.00, 0.00, 0.00, 0.00, 0.02, -0.01, 1.03
241, 0.00, 87158.97, 0.00, 0.00, 0.00, 0.00, 0.00, 0.00, 0.02, -0.01, 1.03
242, 0.00, 87087.27, 0.00, 0.00, 0.00, 0.00, 0.00, 0.00, 0.02, -0.01, 1.03
243, 0.00, 87106.87, 0.00, 0.00, 0.00, 0.00, 0.00, 0.00, 0.02, -0.01, 1.03
244, 0.00, 87144.69, 0.00, 0.00, 0.00, 0.00, 0.00, 0.00, 0.02, -0.01, 1.03
245, 0.00, 87130.12, 0.00, 0.00, 0.00, 0.00, 0.00, 0.00, 0.01, -0.01, 1.03
246, 0.00, 87146.07, 0.00, 0.00, 0.00, 0.00, 0.00, 0.00, 0.01, -0.01, 1.03
247, 0.00, 87171.38, 0.00, 0.00, 0.00, 0.00, 0.00, 0.00, 0.01, -0.01, 1.03
248, 0.00, 87161.79, 0.00, 0.00, 0.00, 0.00, 0.00, 0.00, 0.01, -0.01, 1.03
249, 0.00, 87154.66, 0.00, 0.00, 0.00, 0.00, 0.00, 0.00, 0.01, -0.01, 1.03
250, 0.00, 87178.93, 0.00, 0.00, 0.00, 0.00, 0.00, 0.00, 0.01, -0.01, 1.03
251, 0.00, 87199.41, 0.00, 0.00, 0.00, 0.00, 0.00, 0.00, 0.01, -0.01, 1.03
252, 0.00, 87201.48, 0.00, 0.00, 0.00, 0.00, 0.00, 0.00, 0.01, -0.01, 1.03
253, 0.00, 87184.48, 0.00, 0.00, 0.00, 0.00, 0.00, 0.00, 0.01, -0.01, 1.03
254, 0.00, 87221.91, 0.00, 0.00, 0.00, 0.00, 0.00, 0.00, 0.01, -0.01, 1.03
255, 0.00, 87225.13, 0.00, 0.00, 0.00, 0.00, 0.00, 0.00, 0.02, 0.00, 1.03
0, 0.00, 87215.86, 0.00, 0.00, 0.00, 0.00, 0.00, 0.00, 0.02, 0.00, 1.03
1, 0.00, 87226.43, 0.00, 0.00, 0.00, 0.00, 0.00, 0.00, 0.02, 0.00, 1.03
2, 0.00, 87248.09, 0.00, 0.00, 0.00, 0.00, 0.00, 0.00, 0.02, 0.00, 1.03
3, 0.00, 87258.70, 0.00, 0.00, 0.00, 0.00, 0.00, 0.00, 0.02, 0.00, 1.03
4, 0.00, 87259.02, 0.00, 0.00, 0.00, 0.00, 0.00, 0.00, 0.01, -0.00, 1.03
5, 0.00, 87263.46, 0.00, 0.00, 0.00, 0.00, 0.00, 0.00, 0.01, -0.00, 1.03
6, 0.00, 87274.57, 0.00, 0.00, 0.00, 0.00, 0.00, 0.00, 0.01, -0.00, 1.03
7, 0.00, 87265.12, 0.00, 0.00, 0.00, 0.00, 0.00, 0.00, 0.01, -0.00, 1.03
8, 0.00, 87262.28, 0.00, 0.00, 0.00, 0.00, 0.00, 0.00, 0.01, -0.00, 1.03
9, 0.00, 87268.72, 0.00, 0.00, 0.00, 0.00, 0.00, 0.00, 0.01, -0.00, 1.03
10, 0.00, 87267.20, 0.00, 0.00, 0.00, 0.00, 0.00, 0.00, 0.01, -0.00, 1.03
11, 0.00, 87266.21, 0.00, 0.00, 0.00, 0.00, 0.00, 0.00, 0.01, -0.00, 1.03
12, 0.00, 87268.49, 0.00, 0.00, 0.00, 0.00, 0.00, 0.00, 0.01, -0.00, 1.03
13, 0.00, 87273.52, 0.00, 0.00, 0.00, 0.00, 0.00, 0.00, 0.01, -0.00, 1.03
14, 0.00, 87292.57, 0.00, 0.00, 0.00, 0.00, 0.00, 0.00, 0.01, 0.00, 1.03
15, 0.00, 87298.78, 0.00, 0.00, 0.00, 0.00, 0.00, 0.00, 0.01, 0.00, 1.03
16, 0.00, 87303.59, 0.00, 0.00, 0.00, 0.00, 0.00, 0.00, 0.01, 0.00, 1.03
17, 0.00, 87313.04, 0.00, 0.00, 0.00, 0.00, 0.00, 0.00, 0.01, 0.00, 1.03
18, 0.00, 87321.09, 0.00, 0.00, 0.00, 0.00, 0.00, 0.00, 0.01, 0.00, 1.03
19, 0.00, 87323.01, 0.00, 0.00, 0.00, 0.00, 0.00, 0.00, 0.01, -0.00, 1.02
20, 0.00, 87360.12, 0.00, 0.00, 0.00, 0.00, 0.00, 0.00, 0.01, -0.00, 1.02
21, 0.00, 87354.88, 0.00, 0.00, 0.00, 0.00, 0.00, 0.00, 0.01, -0.00, 1.02
22, 0.00, 87356.18, 0.00, 0.00, 0.00, 0.00, 0.00, 0.00, 0.01, -0.00, 1.02
23, 0.00, 87337.52, 0.00, 0.00, 0.00, 0.00, 0.00, 0.00, 0.01, -0.00, 1.02
24, 0.00, 87283.42, 0.00, 0.00, 0.00, 0.00, 0.00, 0.00, 0.01, -0.00, 1.03
25, 0.00, 87256.60, 0.00, 0.00, 0.00, 0.00, 0.00, 0.00, 0.01, -0.00, 1.03
26, 0.00, 87246.48, 0.00, 0.00, 0.00, 0.00, 0.00, 0.00, 0.01, -0.00, 1.03
27, 0.00, 87286.66, 0.00, 0.00, 0.00, 0.00, 0.00, 0.00, 0.01, -0.00, 1.03
28, 0.00, 87285.08, 0.00, 0.00, 0.00, 0.00, 0.00, 0.00, 0.01, -0.00, 1.03
29, 0.00, 87300.08, 0.00, 0.00, 0.00, 0.00, 0.00, 0.00, 0.02, -0.01, 1.02
30, 0.00, 87309.29, 0.00, 0.00, 0.00, 0.00, 0.00, 0.00, 0.02, -0.01, 1.02
31, 0.00, 87292.34, 0.00, 0.00, 0.00, 0.00, 0.00, 0.00, 0.02, -0.01, 1.02
32, 0.00, 87241.94, 0.00, 0.00, 0.00, 0.00, 0.00, 0.00, 0.02, -0.01, 1.02
33, 0.00, 87257.92, 0.00, 0.00, 0.00, 0.00, 0.00, 0.00, 0.02, -0.01, 1.02
34, 0.00, 87283.02, 0.00, 0.00, 0.00, 0.00, 0.00, 0.00, 0.02, -0.01, 1.02
35, 0.00, 87284.54, 0.00, 0.00, 0.00, 0.00, 0.00, 0.00, 0.02, -0.01, 1.02
36, 0.00, 87248.04, 0.00, 0.00, 0.00, 0.00, 0.00, 0.00, 0.02, -0.01, 1.02
37, 0.00, 87250.79, 0.00, 0.00, 0.00, 0.00, 0.00, 0.00, 0.02, -0.01, 1.02
38, 0.00, 87250.32, 0.00, 0.00, 0.00, 0.00, 0.00, 0.00, 0.02, -0.01, 1.02
39, 0.00, 87252.29, 0.00, 0.00, 0.00, 0.00, 0.00, 0.00, 0.01, 0.00, 1.03
40, 0.00, 87229.60, 0.00, 0.00, 0.00, 0.00, 0.00, 0.00, 0.01, 0.00, 1.03
41, 0.00, 87225.02, 0.00, 0.00, 0.00, 0.00, 0.00, 0.00, 0.01, 0.00, 1.03
42, 0.00, 87235.37, 0.00, 0.00, 0.00, 0.00, 0.00, 0.00, 0.01, 0.00, 1.03
43, 0.00, 87248.53, 0.00, 0.00, 0.00, 0.00, 0.00, 0.00, 0.01, 0.00, 1.03
44, 0.00, 87243.98, 0.00, 0.00, 0.00, 0.00, 0.00, 0.00, 0.02, -0.00, 1.02
45, 0.00, 87281.62, 0.00, 0.00, 0.00, 0.00, 0.00, 0.00, 0.02, -0.00, 1.02
46, 0.00, 87301.13, 0.00, 0.00, 0.00, 0.00, 0.00, 0.00, 0.02, -0.00, 1.02
47, 0.00, 87292.79, 0.00, 0.00, 0.00, 0.00, 0.00, 0.00, 0.02, -0.00, 1.02
48, 0.00, 87294.27, 0.00, 0.00, 0.00, 0.00, 0.00, 0.00, 0.02, -0.00, 1.02
49, 0.00, 87273.81, 0.00, 0.00, 0.00, 0.00, 0.00, 0.00, 0.03, -0.00, 1.03
50, 0.00, 87275.58, 0.00, 0.00, 0.00, 0.00, 0.00, 0.00, 0.03, -0.00, 1.03
51, 0.00, 87256.34, 0.00, 0.00, 0.00, 0.00, 0.00, 0.00, 0.03, -0.00, 1.03
52, 0.00, 87284.59, 0.00, 0.00, 0.00, 0.00, 0.00, 0.00, 0.03, -0.00, 1.03
53, 0.00, 87285.41, 0.00, 0.00, 0.00, 0.00, 0.00, 0.00, 0.03, -0.00, 1.03
54, 0.00, 87270.10, 0.00, 0.00, 0.00, 0.00, 0.00, 0.00, 0.02, -0.01, 1.03
55, 0.00, 87274.24, 0.00, 0.00, 0.00, 0.00, 0.00, 0.00, 0.02, -0.01, 1.03
56, 0.00, 87294.94, 0.00, 0.00, 0.00, 0.00, 0.00, 0.00, 0.02, -0.01, 1.03
57, 0.00, 87310.41, 0.00, 0.00, 0.00, 0.00, 0.00, 0.00, 0.02, -0.01, 1.03
58, 0.00, 87292.61, 0.00, 0.00, 0.00, 0.00, 0.00, 0.00, 0.02, -0.01, 1.03
59, 0.00, 87273.14, 0.00, 0.00, 0.00, 0.00, 0.00, 0.00, 0.02, -0.01, 1.03
60, 0.00, 87283.88, 0.00, 0.00, 0.00, 0.00, 0.00, 0.00, 0.02, -0.01, 1.03
61, 0.00, 87284.21, 0.00, 0.00, 0.00, 0.00, 0.00, 0.00, 0.02, -0.01, 1.03
62, 0.00, 87288.84, 0.00, 0.00, 0.00, 0.00, 0.00, 0.00, 0.02, -0.01, 1.03
63, 0.00, 87302.70, 0.00, 0.00, 0.00, 0.00, 0.00, 0.00, 0.02, -0.01, 1.03
64, 0.00, 87327.28, 0.00, 0.00, 0.00, 0.00, 0.00, 0.00, 0.02, -0.01, 1.03
65, 0.00, 87321.20, 0.00, 0.00, 0.00, 0.00, 0.00, 0.00, 0.02, -0.01, 1.03
66, 0.00, 87294.42, 0.00, 0.00, 0.00, 0.00, 0.00, 0.00, 0.02, -0.01, 1.03
67, 0.00, 87292.14, 0.00, 0.00, 0.00, 0.00, 0.00, 0.00, 0.02, -0.01, 1.03
68, 0.00, 87302.29, 0.00, 0.00, 0.00, 0.00, 0.00, 0.00, 0.02, -0.01, 1.03
69, 0.00, 87303.52, 0.00, 0.00, 0.00, 0.00, 0.00, 0.00, 0.02, -0.01, 1.03
70, 0.00, 87281.44, 0.00, 0.00, 0.00, 0.00, 0.00, 0.00, 0.02, -0.01, 1.03
71, 0.00, 87252.36, 0.00, 0.00, 0.00, 0.00, 0.00, 0.00, 0.02, -0.01, 1.03
72, 0.00, 87279.31, 0.00, 0.00, 0.00, 0.00, 0.00, 0.00, 0.02, -0.01, 1.03
