%OpenBCI Raw EEG Data
%
%Sample Rate = 250.0 Hz
%First Column = SampleIndex
%Other Columns = EEG data in microvolts followed by Accel Data (in G) interleaved with Aux Data
0, 0.00, -17219.47, 0.00, 0.00, 0.00, 0.00, 0.00, 0.00, 0.00, 0.05, -0.94
1, 0.00, -18657.04, 0.00, 0.00, 0.00, 0.00, 0.00, 0.00, 0.00, 0.05, -0.94
2, 0.00, -19460.23, 0.00, 0.00, 0.00, 0.00, 0.00, 0.00, -0.02, 0.08, -0.94
3, 0.00, -18603.36, 0.00, 0.00, 0.00, 0.00, 0.00, 0.00, -0.02, 0.08, -0.94
4, 0.00, -18211.40, 0.00, 0.00, 0.00, 0.00, 0.00, 0.00, -0.02, 0.08, -0.94
5, 0.00, -19632.86, 0.00, 0.00, 0.00, 0.00, 0.00, 0.00, -0.02, 0.08, -0.94
6, 0.00, -20913.95, 0.00, 0.00, 0.00, 0.00, 0.00, 0.00, -0.02, 0.08, -0.94
7, 0.00, -20618.52, 0.00, 0.00, 0.00, 0.00, 0.00, 0.00, -0.02, 0.08, -0.94
8, 0.00, -20402.04, 0.00, 0.00, 0.00, 0.00, 0.00, 0.00, -0.02, 0.08, -0.94
9, 0.00, -22044.43, 0.00, 0.00, 0.00, 0.00, 0.00, 0.00, -0.02, 0.08, -0.94
10, 0.00, -24049.27, 0.00, 0.00, 0.00, 0.00, 0.00, 0.00, -0.02, 0.08, -0.94
11, 0.00, -24389.80, 0.00, 0.00, 0.00, 0.00, 0.00, 0.00, -0.02, 0.08, -0.94
12, 0.00, -24159.17, 0.00, 0.00, 0.00, 0.00, 0.00, 0.00, -0.02, 0.09, -0.94
13, 0.00, -25420.97, 0.00, 0.00, 0.00, 0.00, 0.00, 0.00, -0.02, 0.09, -0.94
14, 0.00, -27218.17, 0.00, 0.00, 0.00, 0.00, 0.00, 0.00, -0.02, 0.09, -0.94
15, 0.00, -27751.90, 0.00, 0.00, 0.00, 0.00, 0.00, 0.00, -0.02, 0.09, -0.94
16, 0.00, -27581.18, 0.00, 0.00, 0.00, 0.00, 0.00, 0.00, -0.02, 0.09, -0.94
17, 0.00, -28737.90, 0.00, 0.00, 0.00, 0.00, 0.00, 0.00, -0.01, 0.09, -0.94
18, 0.00, -30654.77, 0.00, 0.00, 0.00, 0.00, 0.00, 0.00, -0.01, 0.09, -0.94
19, 0.00, -31392.55, 0.00, 0.00, 0.00, 0.00, 0.00, 0.00, -0.01, 0.09, -0.94
20, 0.00, -31075.27, 0.00, 0.00, 0.00, 0.00, 0.00, 0.00, -0.01, 0.09, -0.94
21, 0.00, -31725.73, 0.00, 0.00, 0.00, 0.00, 0.00, 0.00, -0.01, 0.09, -0.94
22, 0.00, -33669.13, 0.00, 0.00, 0.00, 0.00, 0.00, 0.00, -0.01, 0.09, -0.94
23, 0.00, -35137.05, 0.00, 0.00, 0.00, 0.00, 0.00, 0.00, -0.01, 0.09, -0.94
24, 0.00, -35398.37, 0.00, 0.00, 0.00, 0.00, 0.00, 0.00, -0.01, 0.09, -0.94
25, 0.00, -36206.67, 0.00, 0.00, 0.00, 0.00, 0.00, 0.00, -0.01, 0.09, -0.94
26, 0.00, -38338.67, 0.00, 0.00, 0.00, 0.00, 0.00, 0.00, -0.01, 0.09, -0.94
27, 0.00, -39886.33, 0.00, 0.00, 0.00, 0.00, 0.00, 0.00, -0.01, 0.08, -0.93
28, 0.00, -39918.89, 0.00, 0.00, 0.00, 0.00, 0.00, 0.00, -0.01, 0.08, -0.93
29, 0.00, -39990.60, 0.00, 0.00, 0.00, 0.00, 0.00, 0.00, -0.01, 0.08, -0.93
30, 0.00, -41435.26, 0.00, 0.00, 0.00, 0.00, 0.00, 0.00, -0.01, 0.08, -0.93
31, 0.00, -42825.81, 0.00, 0.00, 0.00, 0.00, 0.00, 0.00, -0.01, 0.08, -0.93
32, 0.00, -42850.06, 0.00, 0.00, 0.00, 0.00, 0.00, 0.00, -0.01, 0.08, -0.94
33, 0.00, -42657.88, 0.00, 0.00, 0.00, 0.00, 0.00, 0.00, -0.01, 0.08, -0.94
34, 0.00, -43877.75, 0.00, 0.00, 0.00, 0.00, 0.00, 0.00, -0.01, 0.08, -0.94
35, 0.00, -45347.42, 0.00, 0.00, 0.00, 0.00, 0.00, 0.00, -0.01, 0.08, -0.94
36, 0.00, -45459.85, 0.00, 0.00, 0.00, 0.00, 0.00, 0.00, -0.01, 0.08, -0.94
37, 0.00, -44937.93, 0.00, 0.00, 0.00, 0.00, 0.00, 0.00, -0.01, 0.08, -0.94
38, 0.00, -45640.45, 0.00, 0.00, 0.00, 0.00, 0.00, 0.00, -0.01, 0.08, -0.94
39, 0.00, -46775.25, 0.00, 0.00, 0.00, 0.00, 0.00, 0.00, -0.01, 0.08, -0.94
40, 0.00, -46637.07, 0.00, 0.00, 0.00, 0.00, 0.00, 0.00, -0.01, 0.08, -0.94
41, 0.00, -45540.07, 0.00, 0.00, 0.00, 0.00, 0.00, 0.00, -0.01, 0.08, -0.94
42, 0.00, -45569.15, 0.00, 0.00, 0.00, 0.00, 0.00, 0.00, -0.01, 0.09, -0.94
43, 0.00, -46516.06, 0.00, 0.00, 0.00, 0.00, 0.00, 0.00, -0.01, 0.09, -0.94
44, 0.00, -46426.52, 0.00, 0.00, 0.00, 0.00, 0.00, 0.00, -0.01, 0.09, -0.94
45, 0.00, -45211.68, 0.00, 0.00, 0.00, 0.00, 0.00, 0.00, -0.01, 0.09, -0.94
46, 0.00, -44855.81, 0.00, 0.00, 0.00, 0.00, 0.00, 0.00, -0.01, 0.09, -0.94
47, 0.00, -45726.77, 0.00, 0.00, 0.00, 0.00, 0.00, 0.00, -0.01, 0.09, -0.94
48, 0.00, -45864.91, 0.00, 0.00, 0.00, 0.00, 0.00, 0.00, -0.01, 0.09, -0.94
49, 0.00, -44697.50, 0.00, 0.00, 0.00, 0.00, 0.00, 0.00, -0.01, 0.09, -0.94
50, 0.00, -44056.18, 0.00, 0.00, 0.00, 0.00, 0.00, 0.00, -0.01, 0.09, -0.94
51, 0.00, -44851.70, 0.00, 0.00, 0.00, 0.00, 0.00, 0.00, -0.01, 0.09, -0.94
52, 0.00, -45203.07, 0.00, 0.00, 0.00, 0.00, 0.00, 0.00, -0.01, 0.08, -0.94
53, 0.00, -44074.35, 0.00, 0.00, 0.00, 0.00, 0.00, 0.00, -0.01, 0.08, -0.94
54, 0.00, -43117.70, 0.00, 0.00, 0.00, 0.00, 0.00, 0.00, -0.01, 0.08, -0.94
55, 0.00, -43801.28, 0.00, 0.00, 0.00, 0.00, 0.00, 0.00, -0.01, 0.08, -0.94
56, 0.00, -44573.33, 0.00, 0.00, 0.00, 0.00, 0.00, 0.00, -0.01, 0.08, -0.94
57, 0.00, -43844.29, 0.00, 0.00, 0.00, 0.00, 0.00, 0.00, -0.01, 0.08, -0.94
58, 0.00, -42811.50, 0.00, 0.00, 0.00, 0.00, 0.00, 0.00, -0.01, 0.08, -0.94
59, 0.00, -43506.84, 0.00, 0.00, 0.00, 0.00, 0.00, 0.00, -0.01, 0.08, -0.94
60, 0.00, -44670.12, 0.00, 0.00, 0.00, 0.00, 0.00, 0.00, -0.01, 0.08, -0.94
61, 0.00, -44310.97, 0.00, 0.00, 0.00, 0.00, 0.00, 0.00, -0.01, 0.08, -0.94
62, 0.00, -43289.09, 0.00, 0.00, 0.00, 0.00, 0.00, 0.00, -0.00, 0.08, -0.93
63, 0.00, -43886.69, 0.00, 0.00, 0.00, 0.00, 0.00, 0.00, -0.00, 0.08, -0.93
64, 0.00, -45370.08, 0.00, 0.00, 0.00, 0.00, 0.00, 0.00, -0.00, 0.08, -0.93
65, 0.00, -45498.23, 0.00, 0.00, 0.00, 0.00, 0.00, 0.00, -0.00, 0.08, -0.93
66, 0.00, -44490.83, 0.00, 0.00, 0.00, 0.00, 0.00, 0.00, -0.00, 0.08, -0.93
67, 0.00, -44662.76, 0.00, 0.00, 0.00, 0.00, 0.00, 0.00, -0.01, 0.08, -0.93
68, 0.00, -46018.44, 0.00, 0.00, 0.00, 0.00, 0.00, 0.00, -0.01, 0.08, -0.93
69, 0.00, -46111.69, 0.00, 0.00, 0.00, 0.00, 0.00, 0.00, -0.01, 0.08, -0.93
70, 0.00, -44693.56, 0.00, 0.00, 0.00, 0.00, 0.00, 0.00, -0.01, 0.08, -0.93
71, 0.00, -44179.83, 0.00, 0.00, 0.00, 0.00, 0.00, 0.00, -0.01, 0.08, -0.93
72, 0.00, -45157.79, 0.00, 0.00, 0.00, 0.00, 0.00, 0.00, -0.02, 0.08, -0.93
73, 0.00, -45261.07, 0.00, 0.00, 0.00, 0.00, 0.00, 0.00, -0.02, 0.08, -0.93
74, 0.00, -43728.15, 0.00, 0.00, 0.00, 0.00, 0.00, 0.00, -0.02, 0.08, -0.93
75, 0.00, -42724.46, 0.00, 0.00, 0.00, 0.00, 0.00, 0.00, -0.02, 0.08, -0.93
76, 0.00, -43533.73, 0.00, 0.00, 0.00, 0.00, 0.00, 0.00, -0.02, 0.08, -0.93
77, 0.00, -44007.70, 0.00, 0.00, 0.00, 0.00, 0.00, 0.00, -0.02, 0.08, -0.94
78, 0.00, -42714.47, 0.00, 0.00, 0.00, 0.00, 0.00, 0.00, -0.02, 0.08, -0.94
79, 0.00, -41552.54, 0.00, 0.00, 0.00, 0.00, 0.00, 0.00, -0.02, 0.08, -0.94
80, 0.00, -42309.66, 0.00, 0.00, 0.00, 0.00, 0.00, 0.00, -0.02, 0.08, -0.94
81, 0.00, -43232.23, 0.00, 0.00, 0.00, 0.00, 0.00, 0.00, -0.02, 0.08, -0.94
82, 0.00, -42293.72, 0.00, 0.00, 0.00, 0.00, 0.00, 0.00, -0.02, 0.08, -0.93
83, 0.00, -41005.30, 0.00, 0.00, 0.00, 0.00, 0.00, 0.00, -0.02, 0.08, -0.93
84, 0.00, -41610.32, 0.00, 0.00, 0.00, 0.00, 0.00, 0.00, -0.02, 0.08, -0.93
85, 0.00, -42813.07, 0.00, 0.00, 0.00, 0.00, 0.00, 0.00, -0.02, 0.08, -0.93
86, 0.00, -42317.57, 0.00, 0.00, 0.00, 0.00, 0.00, 0.00, -0.02, 0.08, -0.93
87, 0.00, -40919.70, 0.00, 0.00, 0.00, 0.00, 0.00, 0.00, -0.02, 0.08, -0.94
88, 0.00, -41178.21, 0.00, 0.00, 0.00, 0.00, 0.00, 0.00, -0.02, 0.08, -0.94
89, 0.00, -42470.26, 0.00, 0.00, 0.00, 0.00, 0.00, 0.00, -0.02, 0.08, -0.94
90, 0.00, -42368.04, 0.00, 0.00, 0.00, 0.00, 0.00, 0.00, -0.02, 0.08, -0.94
91, 0.00, -40958.86, 0.00, 0.00, 0.00, 0.00, 0.00, 0.00, -0.02, 0.08, -0.94
92, 0.00, -40977.50, 0.00, 0.00, 0.00, 0.00, 0.00, 0.00, -0.01, 0.08, -0.94
93, 0.00, -42485.88, 0.00, 0.00, 0.00, 0.00, 0.00, 0.00, -0.01, 0.08, -0.94
94, 0.00, -42888.88, 0.00, 0.00, 0.00, 0.00, 0.00, 0.00, -0.01, 0.08, -0.94
95, 0.00, -41720.80, 0.00, 0.00, 0.00, 0.00, 0.00, 0.00, -0.01, 0.08, -0.94
96, 0.00, -41611.66, 0.00, 0.00, 0.00, 0.00, 0.00, 0.00, -0.01, 0.08, -0.94
97, 0.00, -43334.04, 0.00, 0.00, 0.00, 0.00, 0.00, 0.00, -0.02, 0.08, -0.94
98, 0.00, -44436.99, 0.00, 0.00, 0.00, 0.00, 0.00, 0.00, -0.02, 0.08, -0.94
99, 0.00, -43833.42, 0.00, 0.00, 0.00, 0.00, 0.00, 0.00, -0.02, 0.08, -0.94
100, 0.00, -43727.41, 0.00, 0.00, 0.00, 0.00, 0.00, 0.00, -0.02, 0.08, -0.94
101, 0.00, -45608.60, 0.00, 0.00, 0.00, 0.00, 0.00, 0.00, -0.02, 0.08, -0.94
102, 0.00, -47301.27, 0.00, 0.00, 0.00, 0.00, 0.00, 0.00, -0.01, 0.08, -0.94
103, 0.00, -47070.07, 0.00, 0.00, 0.00, 0.00, 0.00, 0.00, -0.01, 0.08, -0.94
104, 0.00, -46722.74, 0.00, 0.00, 0.00, 0.00, 0.00, 0.00, -0.01, 0.08, -0.94
105, 0.00, -48234.71, 0.00, 0.00, 0.00, 0.00, 0.00, 0.00, -0.01, 0.08, -0.94
106, 0.00, -49863.50, 0.00, 0.00, 0.00, 0.00, 0.00, 0.00, -0.01, 0.08, -0.94
107, 0.00, -49679.21, 0.00, 0.00, 0.00, 0.00, 0.00, 0.00, -0.01, 0.08, -0.93
108, 0.00, -49058.99, 0.00, 0.00, 0.00, 0.00, 0.00, 0.00, -0.01, 0.08, -0.93
109, 0.00, -50298.71, 0.00, 0.00, 0.00, 0.00, 0.00, 0.00, -0.01, 0.08, -0.93
110, 0.00, -52293.56, 0.00, 0.00, 0.00, 0.00, 0.00, 0.00, -0.01, 0.08, -0.93
111, 0.00, -52700.43, 0.00, 0.00, 0.00, 0.00, 0.00, 0.00, -0.01, 0.08, -0.93
112, 0.00, -52163.52, 0.00, 0.00, 0.00, 0.00, 0.00, 0.00, -0.01, 0.08, -0.94
113, 0.00, -53006.54, 0.00, 0.00, 0.00, 0.00, 0.00, 0.00, -0.01, 0.08, -0.94
114, 0.00, -54807.97, 0.00, 0.00, 0.00, 0.00, 0.00, 0.00, -0.01, 0.08, -0.94
115, 0.00, -55226.02, 0.00, 0.00, 0.00, 0.00, 0.00, 0.00, -0.01, 0.08, -0.94
116, 0.00, -54306.29, 0.00, 0.00, 0.00, 0.00, 0.00, 0.00, -0.01, 0.08, -0.94
117, 0.00, -54561.21, 0.00, 0.00, 0.00, 0.00, 0.00, 0.00, -0.01, 0.08, -0.94
118, 0.00, -56110.01, 0.00, 0.00, 0.00, 0.00, 0.00, 0.00, -0.01, 0.08, -0.94
119, 0.00, -56692.29, 0.00, 0.00, 0.00, 0.00, 0.00, 0.00, -0.01, 0.08, -0.94
120, 0.00, -55876.25, 0.00, 0.00, 0.00, 0.00, 0.00, 0.00, -0.01, 0.08, -0.94
121, 0.00, -55894.60, 0.00, 0.00, 0.00, 0.00, 0.00, 0.00, -0.01, 0.08, -0.94
122, 0.00, -57559.36, 0.00, 0.00, 0.00, 0.00, 0.00, 0.00, -0.01, 0.08, -0.93
123, 0.00, -58695.88, 0.00, 0.00, 0.00, 0.00, 0.00, 0.00, -0.01, 0.08, -0.93
124, 0.00, -58267.62, 0.00, 0.00, 0.00, 0.00, 0.00, 0.00, -0.01, 0.08, -0.93
125, 0.00, -58177.36, 0.00, 0.00, 0.00, 0.00, 0.00, 0.00, -0.01, 0.08, -0.93
126, 0.00, -59788.25, 0.00, 0.00, 0.00, 0.00, 0.00, 0.00, -0.01, 0.08, -0.93
127, 0.00, -61276.34, 0.00, 0.00, 0.00, 0.00, 0.00, 0.00, -0.01, 0.08, -0.93
128, 0.00, -61188.48, 0.00, 0.00, 0.00, 0.00, 0.00, 0.00, -0.01, 0.08, -0.93
129, 0.00, -60884.74, 0.00, 0.00, 0.00, 0.00, 0.00, 0.00, -0.01, 0.08, -0.93
130, 0.00, -62188.27, 0.00, 0.00, 0.00, 0.00, 0.00, 0.00, -0.01, 0.08, -0.93
131, 0.00, -63693.71, 0.00, 0.00, 0.00, 0.00, 0.00, 0.00, -0.01, 0.08, -0.93
132, 0.00, -63811.64, 0.00, 0.00, 0.00, 0.00, 0.00, 0.00, -0.01, 0.08, -0.93
133, 0.00, -63490.78, 0.00, 0.00, 0.00, 0.00, 0.00, 0.00, -0.01, 0.08, -0.93
134, 0.00, -64649.45, 0.00, 0.00, 0.00, 0.00, 0.00, 0.00, -0.01, 0.08, -0.93
135, 0.00, -66334.61, 0.00, 0.00, 0.00, 0.00, 0.00, 0.00, -0.01, 0.08, -0.93
136, 0.00, -66755.20, 0.00, 0.00, 0.00, 0.00, 0.00, 0.00, -0.01, 0.08, -0.93
137, 0.00, -66262.33, 0.00, 0.00, 0.00, 0.00, 0.00, 0.00, -0.01, 0.07, -0.93
138, 0.00, -66885.85, 0.00, 0.00, 0.00, 0.00, 0.00, 0.00, -0.01, 0.07, -0.93
139, 0.00, -68343.16, 0.00, 0.00, 0.00, 0.00, 0.00, 0.00, -0.01, 0.07, -0.93
140, 0.00, -68775.20, 0.00, 0.00, 0.00, 0.00, 0.00, 0.00, -0.01, 0.07, -0.93
141, 0.00, -68184.22, 0.00, 0.00, 0.00, 0.00, 0.00, 0.00, -0.01, 0.07, -0.93
142, 0.00, -68441.76, 0.00, 0.00, 0.00, 0.00, 0.00, 0.00, -0.01, 0.08, -0.93
143, 0.00, -69919.88, 0.00, 0.00, 0.00, 0.00, 0.00, 0.00, -0.01, 0.08, -0.93
144, 0.00, -70697.29, 0.00, 0.00, 0.00, 0.00, 0.00, 0.00, -0.01, 0.08, -0.93
145, 0.00, -70291.70, 0.00, 0.00, 0.00, 0.00, 0.00, 0.00, -0.01, 0.08, -0.93
146, 0.00, -70241.16, 0.00, 0.00, 0.00, 0.00, 0.00, 0.00, -0.01, 0.08, -0.93
147, 0.00, -71409.95, 0.00, 0.00, 0.00, 0.00, 0.00, 0.00, -0.01, 0.08, -0.93
148, 0.00, -72200.70, 0.00, 0.00, 0.00, 0.00, 0.00, 0.00, -0.01, 0.08, -0.94
149, 0.00, -71762.42, 0.00, 0.00, 0.00, 0.00, 0.00, 0.00, -0.01, 0.08, -0.94
150, 0.00, -71437.55, 0.00, 0.00, 0.00, 0.00, 0.00, 0.00, -0.01, 0.08, -0.94
151, 0.00, -72490.15, 0.00, 0.00, 0.00, 0.00, 0.00, 0.00, -0.01, 0.08, -0.94
152, 0.00, -73457.82, 0.00, 0.00, 0.00, 0.00, 0.00, 0.00, -0.01, 0.08, -0.94
153, 0.00, -73143.40, 0.00, 0.00, 0.00, 0.00, 0.00, 0.00, -0.01, 0.08, -0.95
154, 0.00, -72532.13, 0.00, 0.00, 0.00, 0.00, 0.00, 0.00, -0.01, 0.08, -0.95
155, 0.00, -73292.09, 0.00, 0.00, 0.00, 0.00, 0.00, 0.00, -0.01, 0.08, -0.95
156, 0.00, -74352.49, 0.00, 0.00, 0.00, 0.00, 0.00, 0.00, -0.01, 0.08, -0.95
157, 0.00, -74224.66, 0.00, 0.00, 0.00, 0.00, 0.00, 0.00, -0.01, 0.08, -0.95
158, 0.00, -73491.33, 0.00, 0.00, 0.00, 0.00, 0.00, 0.00, -0.02, 0.08, -0.95
159, 0.00, -73981.39, 0.00, 0.00, 0.00, 0.00, 0.00, 0.00, -0.02, 0.08, -0.95
160, 0.00, -75071.26, 0.00, 0.00, 0.00, 0.00, 0.00, 0.00, -0.02, 0.08, -0.95
161, 0.00, -75172.24, 0.00, 0.00, 0.00, 0.00, 0.00, 0.00, -0.02, 0.08, -0.95
162, 0.00, -74444.36, 0.00, 0.00, 0.00, 0.00, 0.00, 0.00, -0.02, 0.08, -0.95
163, 0.00, -74713.90, 0.00, 0.00, 0.00, 0.00, 0.00, 0.00, -0.01, 0.08, -0.95
164, 0.00, -75812.40, 0.00, 0.00, 0.00, 0.00, 0.00, 0.00, -0.01, 0.08, -0.95
165, 0.00, -76044.86, 0.00, 0.00, 0.00, 0.00, 0.00, 0.00, -0.01, 0.08, -0.95
166, 0.00, -75207.07, 0.00, 0.00, 0.00, 0.00, 0.00, 0.00, -0.01, 0.08, -0.95
167, 0.00, -75115.02, 0.00, 0.00, 0.00, 0.00, 0.00, 0.00, -0.01, 0.08, -0.95
168, 0.00, -76205.38, 0.00, 0.00, 0.00, 0.00, 0.00, 0.00, -0.01, 0.08, -0.94
169, 0.00, -76700.73, 0.00, 0.00, 0.00, 0.00, 0.00, 0.00, -0.01, 0.08, -0.94
170, 0.00, -75974.45, 0.00, 0.00, 0.00, 0.00, 0.00, 0.00, -0.01, 0.08, -0.94
171, 0.00, -75673.28, 0.00, 0.00, 0.00, 0.00, 0.00, 0.00, -0.01, 0.08, -0.94
172, 0.00, -76640.53, 0.00, 0.00, 0.00, 0.00, 0.00, 0.00, -0.01, 0.08, -0.94
173, 0.00, -77347.41, 0.00, 0.00, 0.00, 0.00, 0.00, 0.00, -0.01, 0.08, -0.94
174, 0.00, -76706.87, 0.00, 0.00, 0.00, 0.00, 0.00, 0.00, -0.01, 0.08, -0.94
175, 0.00, -76091.93, 0.00, 0.00, 0.00, 0.00, 0.00, 0.00, -0.01, 0.08, -0.94
176, 0.00, -76891.14, 0.00, 0.00, 0.00, 0.00, 0.00, 0.00, -0.01, 0.08, -0.94
177, 0.00, -77745.65, 0.00, 0.00, 0.00, 0.00, 0.00, 0.00, -0.01, 0.08, -0.94
178, 0.00, -77196.30, 0.00, 0.00, 0.00, 0.00, 0.00, 0.00, -0.01, 0.08, -0.94
179, 0.00, -76232.63, 0.00, 0.00, 0.00, 0.00, 0.00, 0.00, -0.01, 0.08, -0.94
180, 0.00, -76741.25, 0.00, 0.00, 0.00, 0.00, 0.00, 0.00, -0.01, 0.08, -0.94
181, 0.00, -77747.05, 0.00, 0.00, 0.00, 0.00, 0.00, 0.00, -0.01, 0.08, -0.94
182, 0.00, -77483.05, 0.00, 0.00, 0.00, 0.00, 0.00, 0.00, -0.01, 0.08, -0.94
183, 0.00, -76501.34, 0.00, 0.00, 0.00, 0.00, 0.00, 0.00, -0.01, 0.08, -0.94
184, 0.00, -76809.63, 0.00, 0.00, 0.00, 0.00, 0.00, 0.00, -0.01, 0.08, -0.94
185, 0.00, -77915.34, 0.00, 0.00, 0.00, 0.00, 0.00, 0.00, -0.01, 0.08, -0.94
186, 0.00, -77897.10, 0.00, 0.00, 0.00, 0.00, 0.00, 0.00, -0.01, 0.08, -0.94
187, 0.00, -76814.13, 0.00, 0.00, 0.00, 0.00, 0.00, 0.00, -0.01, 0.08, -0.94
188, 0.00, -76838.59, 0.00, 0.00, 0.00, 0.00, 0.00, 0.00, -0.01, 0.08, -0.94
189, 0.00, -78077.97, 0.00, 0.00, 0.00, 0.00, 0.00, 0.00, -0.01, 0.08, -0.94
190, 0.00, -78384.52, 0.00, 0.00, 0.00, 0.00, 0.00, 0.00, -0.01, 0.08, -0.94
191, 0.00, -77390.19, 0.00, 0.00, 0.00, 0.00, 0.00, 0.00, -0.01, 0.08, -0.94
192, 0.00, -77201.11, 0.00, 0.00, 0.00, 0.00, 0.00, 0.00, -0.01, 0.08, -0.94
193, 0.00, -78447.09, 0.00, 0.00, 0.00, 0.00, 0.00, 0.00, -0.01, 0.09, -0.94
194, 0.00, -79051.30, 0.00, 0.00, 0.00, 0.00, 0.00, 0.00, -0.01, 0.09, -0.94
195, 0.00, -78156.59, 0.00, 0.00, 0.00, 0.00, 0.00, 0.00, -0.01, 0.09, -0.94
196, 0.00, -77627.25, 0.00, 0.00, 0.00, 0.00, 0.00, 0.00, -0.01, 0.09, -0.94
197, 0.00, -78701.07, 0.00, 0.00, 0.00, 0.00, 0.00, 0.00, -0.01, 0.09, -0.94
198, 0.00, -79575.05, 0.00, 0.00, 0.00, 0.00, 0.00, 0.00, -0.01, 0.08, -0.94
199, 0.00, -78878.50, 0.00, 0.00, 0.00, 0.00, 0.00, 0.00, -0.01, 0.08, -0.94
200, 0.00, -78144.09, 0.00, 0.00, 0.00, 0.00, 0.00, 0.00, -0.01, 0.08, -0.94
201, 0.00, -79115.02, 0.00, 0.00, 0.00, 0.00, 0.00, 0.00, -0.01, 0.08, -0.94
202, 0.00, -80293.88, 0.00, 0.00, 0.00, 0.00, 0.00, 0.00, -0.01, 0.08, -0.94
203, 0.00, -79947.65, 0.00, 0.00, 0.00, 0.00, 0.00, 0.00, -0.01, 0.09, -0.94
204, 0.00, -79127.01, 0.00, 0.00, 0.00, 0.00, 0.00, 0.00, -0.01, 0.09, -0.94
205, 0.00, -79886.49, 0.00, 0.00, 0.00, 0.00, 0.00, 0.00, -0.01, 0.09, -0.94
206, 0.00, -81309.54, 0.00, 0.00, 0.00, 0.00, 0.00, 0.00, -0.01, 0.09, -0.94
207, 0.00, -81287.84, 0.00, 0.00, 0.00, 0.00, 0.00, 0.00, -0.01, 0.09, -0.94
208, 0.00, -80402.44, 0.00, 0.00, 0.00, 0.00, 0.00, 0.00, -0.01, 0.09, -0.93
209, 0.00, -81003.03, 0.00, 0.00, 0.00, 0.00, 0.00, 0.00, -0.01, 0.09, -0.93
210, 0.00, -82512.60, 0.00, 0.00, 0.00, 0.00, 0.00, 0.00, -0.01, 0.09, -0.93
211, 0.00, -82791.40, 0.00, 0.00, 0.00, 0.00, 0.00, 0.00, -0.01, 0.09, -0.93
212, 0.00, -81935.50, 0.00, 0.00, 0.00, 0.00, 0.00, 0.00, -0.01, 0.09, -0.93
213, 0.00, -82231.82, 0.00, 0.00, 0.00, 0.00, 0.00, 0.00, -0.01, 0.08, -0.94
214, 0.00, -83791.34, 0.00, 0.00, 0.00, 0.00, 0.00, 0.00, -0.01, 0.08, -0.94
215, 0.00, -84413.26, 0.00, 0.00, 0.00, 0.00, 0.00, 0.00, -0.01, 0.08, -0.94
216, 0.00, -83687.05, 0.00, 0.00, 0.00, 0.00, 0.00, 0.00, -0.01, 0.08, -0.94
217, 0.00, -83635.06, 0.00, 0.00, 0.00, 0.00, 0.00, 0.00, -0.01, 0.08, -0.94
218, 0.00, -85129.43, 0.00, 0.00, 0.00, 0.00, 0.00, 0.00, -0.01, 0.08, -0.95
219, 0.00, -86050.08, 0.00, 0.00, 0.00, 0.00, 0.00, 0.00, -0.01, 0.08, -0.95
220, 0.00, -85427.00, 0.00, 0.00, 0.00, 0.00, 0.00, 0.00, -0.01, 0.08, -0.95
221, 0.00, -85079.66, 0.00, 0.00, 0.00, 0.00, 0.00, 0.00, -0.01, 0.08, -0.95
222, 0.00, -86312.24, 0.00, 0.00, 0.00, 0.00, 0.00, 0.00, -0.01, 0.08, -0.95
223, 0.00, -87424.46, 0.00, 0.00, 0.00, 0.00, 0.00, 0.00, -0.01, 0.08, -0.94
224, 0.00, -87034.78, 0.00, 0.00, 0.00, 0.00, 0.00, 0.00, -0.01, 0.08, -0.94
225, 0.00, -86496.53, 0.00, 0.00, 0.00, 0.00, 0.00, 0.00, -0.01, 0.08, -0.94
226, 0.00, -87533.92, 0.00, 0.00, 0.00, 0.00, 0.00, 0.00, -0.01, 0.08, -0.94
227, 0.00, -88812.33, 0.00, 0.00, 0.00, 0.00, 0.00, 0.00, -0.01, 0.08, -0.94
228, 0.00, -88622.45, 0.00, 0.00, 0.00, 0.00, 0.00, 0.00, -0.01, 0.08, -0.93
229, 0.00, -87867.12, 0.00, 0.00, 0.00, 0.00, 0.00, 0.00, -0.01, 0.08, -0.93
230, 0.00, -88649.83, 0.00, 0.00, 0.00, 0.00, 0.00, 0.00, -0.01, 0.08, -0.93
231, 0.00, -90064.54, 0.00, 0.00, 0.00, 0.00, 0.00, 0.00, -0.01, 0.08, -0.93
232, 0.00, -90198.27, 0.00, 0.00, 0.00, 0.00, 0.00, 0.00, -0.01, 0.08, -0.93
233, 0.00, -89411.04, 0.00, 0.00, 0.00, 0.00, 0.00, 0.00, -0.02, 0.08, -0.94
234, 0.00, -89928.58, 0.00, 0.00, 0.00, 0.00, 0.00, 0.00, -0.02, 0.08, -0.94
235, 0.00, -91390.00, 0.00, 0.00, 0.00, 0.00, 0.00, 0.00, -0.02, 0.08, -0.94
236, 0.00, -91815.45, 0.00, 0.00, 0.00, 0.00, 0.00, 0.00, -0.02, 0.08, -0.94
237, 0.00, -91063.22, 0.00, 0.00, 0.00, 0.00, 0.00, 0.00, -0.02, 0.08, -0.94
238, 0.00, -91167.20, 0.00, 0.00, 0.00, 0.00, 0.00, 0.00, -0.02, 0.08, -0.94
239, 0.00, -92508.81, 0.00, 0.00, 0.00, 0.00, 0.00, 0.00, -0.02, 0.08, -0.94
240, 0.00, -93222.15, 0.00, 0.00, 0.00, 0.00, 0.00, 0.00, -0.02, 0.08, -0.94
241, 0.00, -92636.51, 0.00, 0.00, 0.00, 0.00, 0.00, 0.00, -0.02, 0.08, -0.94
242, 0.00, -92545.52, 0.00, 0.00, 0.00, 0.00, 0.00, 0.00, -0.02, 0.08, -0.94
243, 0.00, -93853.45, 0.00, 0.00, 0.00, 0.00, 0.00, 0.00, -0.02, 0.09, -0.94
244, 0.00, -94771.95, 0.00, 0.00, 0.00, 0.00, 0.00, 0.00, -0.02, 0.09, -0.94
245, 0.00, -94271.63, 0.00, 0.00, 0.00, 0.00, 0.00, 0.00, -0.02, 0.09, -0.94
246, 0.00, -93880.52, 0.00, 0.00, 0.00, 0.00, 0.00, 0.00, -0.02, 0.09, -0.94
247, 0.00, -94979.22, 0.00, 0.00, 0.00, 0.00, 0.00, 0.00, -0.02, 0.09, -0.94
248, 0.00, -95996.07, 0.00, 0.00, 0.00, 0.00, 0.00, 0.00, -0.02, 0.09, -0.94
249, 0.00, -95619.44, 0.00, 0.00, 0.00, 0.00, 0.00, 0.00, -0.02, 0.09, -0.94
250, 0.00, -95020.41, 0.00, 0.00, 0.00, 0.00, 0.00, 0.00, -0.02, 0.09, -0.94
251, 0.00, -95828.85, 0.00, 0.00, 0.00, 0.00, 0.00, 0.00, -0.02, 0.09, -0.94
252, 0.00, -96994.23, 0.00, 0.00, 0.00, 0.00, 0.00, 0.00, -0.02, 0.09, -0.94
253, 0.00, -96959.02, 0.00, 0.00, 0.00, 0.00, 0.00, 0.00, -0.01, 0.08, -0.94
254, 0.00, -96373.12, 0.00, 0.00, 0.00, 0.00, 0.00, 0.00, -0.01, 0.08, -0.94
255, 0.00, -96987.37, 0.00, 0.00, 0.00, 0.00, 0.00, 0.00, -0.01, 0.08, -0.94
0, 0.00, -98305.83, 0.00, 0.00, 0.00, 0.00, 0.00, 0.00, -0.01, 0.08, -0.94
1, 0.00, -98605.34, 0.00, 0.00, 0.00, 0.00, 0.00, 0.00, -0.01, 0.08, -0.94
2, 0.00, -98034.88, 0.00, 0.00, 0.00, 0.00, 0.00, 0.00, -0.01, 0.08, -0.94
3, 0.00, -98529.41, 0.00, 0.00, 0.00, 0.00, 0.00, 0.00, -0.01, 0.08, -0.94
4, 0.00, -99967.93, 0.00, 0.00, 0.00, 0.00, 0.00, 0.00, -0.01, 0.08, -0.94
5, 0.00, -100568.85, 0.00, 0.00, 0.00, 0.00, 0.00, 0.00, -0.01, 0.08, -0.94
6, 0.00, -100059.13, 0.00, 0.00, 0.00, 0.00, 0.00, 0.00, -0.01, 0.08, -0.94
7, 0.00, -100227.70, 0.00, 0.00, 0.00, 0.00, 0.00, 0.00, -0.01, 0.08, -0.94
8, 0.00, -101525.69, 0.00, 0.00, 0.00, 0.00, 0.00, 0.00, -0.01, 0.08, -0.94
9, 0.00, -102226.80, 0.00, 0.00, 0.00, 0.00, 0.00, 0.00, -0.01, 0.08, -0.94
10, 0.00, -101708.01, 0.00, 0.00, 0.00, 0.00, 0.00, 0.00, -0.01, 0.08, -0.94
11, 0.00, -101545.96, 0.00, 0.00, 0.00, 0.00, 0.00, 0.00, -0.01, 0.08, -0.94
12, 0.00, -102638.29, 0.00, 0.00, 0.00, 0.00, 0.00, 0.00, -0.01, 0.08, -0.94
13, 0.00, -103462.13, 0.00, 0.00, 0.00, 0.00, 0.00, 0.00, -0.01, 0.08, -0.94
14, 0.00, -103036.94, 0.00, 0.00, 0.00, 0.00, 0.00, 0.00, -0.01, 0.08, -0.94
15, 0.00, -102503.69, 0.00, 0.00, 0.00, 0.00, 0.00, 0.00, -0.01, 0.08, -0.94
16, 0.00, -103292.75, 0.00, 0.00, 0.00, 0.00, 0.00, 0.00, -0.01, 0.08, -0.94
17, 0.00, -104177.34, 0.00, 0.00, 0.00, 0.00, 0.00, 0.00, -0.01, 0.08, -0.94
18, 0.00, -103890.95, 0.00, 0.00, 0.00, 0.00, 0.00, 0.00, -0.01, 0.08, -0.94
19, 0.00, -103224.63, 0.00, 0.00, 0.00, 0.00, 0.00, 0.00, -0.01, 0.08, -0.94
20, 0.00, -103817.88, 0.00, 0.00, 0.00, 0.00, 0.00, 0.00, -0.01, 0.08, -0.94
21, 0.00, -104834.41, 0.00, 0.00, 0.00, 0.00, 0.00, 0.00, -0.01, 0.08, -0.94
22, 0.00, -104789.55, 0.00, 0.00, 0.00, 0.00, 0.00, 0.00, -0.01, 0.09, -0.93
23, 0.00, -104106.60, 0.00, 0.00, 0.00, 0.00, 0.00, 0.00, -0.01, 0.09, -0.93
24, 0.00, -104609.20, 0.00, 0.00, 0.00, 0.00, 0.00, 0.00, -0.01, 0.09, -0.93
25, 0.00, -105899.92, 0.00, 0.00, 0.00, 0.00, 0.00, 0.00, -0.01, 0.09, -0.93
26, 0.00, -106249.28, 0.00, 0.00, 0.00, 0.00, 0.00, 0.00, -0.01, 0.09, -0.93
27, 0.00, -105681.86, 0.00, 0.00, 0.00, 0.00, 0.00, 0.00, -0.01, 0.08, -0.93
28, 0.00, -105987.99, 0.00, 0.00, 0.00, 0.00, 0.00, 0.00, -0.01, 0.08, -0.93
29, 0.00, -107287.12, 0.00, 0.00, 0.00, 0.00, 0.00, 0.00, -0.01, 0.08, -0.93
30, 0.00, -107838.45, 0.00, 0.00, 0.00, 0.00, 0.00, 0.00, -0.01, 0.08, -0.93
31, 0.00, -107374.63, 0.00, 0.00, 0.00, 0.00, 0.00, 0.00, -0.01, 0.08, -0.93
32, 0.00, -107351.55, 0.00, 0.00, 0.00, 0.00, 0.00, 0.00, -0.01, 0.08, -0.94
33, 0.00, -108457.19, 0.00, 0.00, 0.00, 0.00, 0.00, 0.00, -0.01, 0.08, -0.94
34, 0.00, -109081.94, 0.00, 0.00, 0.00, 0.00, 0.00, 0.00, -0.01, 0.08, -0.94
35, 0.00, -108527.13, 0.00, 0.00, 0.00, 0.00, 0.00, 0.00, -0.01, 0.08, -0.94
36, 0.00, -108225.84, 0.00, 0.00, 0.00, 0.00, 0.00, 0.00, -0.01, 0.08, -0.94
37, 0.00, -109197.63, 0.00, 0.00, 0.00, 0.00, 0.00, 0.00, -0.01, 0.08, -0.95
38, 0.00, -110012.76, 0.00, 0.00, 0.00, 0.00, 0.00, 0.00, -0.01, 0.08, -0.95
39, 0.00, -109590.47, 0.00, 0.00, 0.00, 0.00, 0.00, 0.00, -0.01, 0.08, -0.95
40, 0.00, -109039.34, 0.00, 0.00, 0.00, 0.00, 0.00, 0.00, -0.01, 0.08, -0.95
41, 0.00, -109791.23, 0.00, 0.00, 0.00, 0.00, 0.00, 0.00, -0.01, 0.08, -0.95
42, 0.00, -110644.80, 0.00, 0.00, 0.00, 0.00, 0.00, 0.00, -0.01, 0.08, -0.95
43, 0.00, -110306.62, 0.00, 0.00, 0.00, 0.00, 0.00, 0.00, -0.01, 0.08, -0.95
44, 0.00, -109529.89, 0.00, 0.00, 0.00, 0.00, 0.00, 0.00, -0.01, 0.08, -0.95
45, 0.00, -109995.32, 0.00, 0.00, 0.00, 0.00, 0.00, 0.00, -0.01, 0.08, -0.95
46, 0.00, -110927.77, 0.00, 0.00, 0.00, 0.00, 0.00, 0.00, -0.01, 0.08, -0.95
47, 0.00, -110705.44, 0.00, 0.00, 0.00, 0.00, 0.00, 0.00, -0.01, 0.08, -0.94
48, 0.00, -109705.51, 0.00, 0.00, 0.00, 0.00, 0.00, 0.00, -0.01, 0.08, -0.94
49, 0.00, -109867.42, 0.00, 0.00, 0.00, 0.00, 0.00, 0.00, -0.01, 0.08, -0.94
50, 0.00, -110835.86, 0.00, 0.00, 0.00, 0.00, 0.00, 0.00, -0.01, 0.08, -0.94
51, 0.00, -110825.63, 0.00, 0.00, 0.00, 0.00, 0.00, 0.00, -0.01, 0.08, -0.94
52, 0.00, -109850.44, 0.00, 0.00, 0.00, 0.00, 0.00, 0.00, -0.01, 0.09, -0.94
53, 0.00, -109823.73, 0.00, 0.00, 0.00, 0.00, 0.00, 0.00, -0.01, 0.09, -0.94
54, 0.00, -110893.35, 0.00, 0.00, 0.00, 0.00, 0.00, 0.00, -0.01, 0.09, -0.94
55, 0.00, -111241.68, 0.00, 0.00, 0.00, 0.00, 0.00, 0.00, -0.01, 0.09, -0.94
56, 0.00, -110443.14, 0.00, 0.00, 0.00, 0.00, 0.00, 0.00, -0.01, 0.09, -0.94
57, 0.00, -110166.65, 0.00, 0.00, 0.00, 0.00, 0.00, 0.00, -0.01, 0.09, -0.94
58, 0.00, -111214.25, 0.00, 0.00, 0.00, 0.00, 0.00, 0.00, -0.01, 0.09, -0.94
59, 0.00, -111918.76, 0.00, 0.00, 0.00, 0.00, 0.00, 0.00, -0.01, 0.09, -0.94
60, 0.00, -111228.91, 0.00, 0.00, 0.00, 0.00, 0.00, 0.00, -0.01, 0.09, -0.94
61, 0.00, -110786.69, 0.00, 0.00, 0.00, 0.00, 0.00, 0.00, -0.01, 0.09, -0.94
62, 0.00, -111847.05, 0.00, 0.00, 0.00, 0.00, 0.00, 0.00, -0.01, 0.09, -0.94
63, 0.00, -112725.37, 0.00, 0.00, 0.00, 0.00, 0.00, 0.00, -0.01, 0.09, -0.94
64, 0.00, -112162.37, 0.00, 0.00, 0.00, 0.00, 0.00, 0.00, -0.01, 0.09, -0.94
65, 0.00, -111469.51, 0.00, 0.00, 0.00, 0.00, 0.00, 0.00, -0.01, 0.09, -0.94
66, 0.00, -112266.84, 0.00, 0.00, 0.00, 0.00, 0.00, 0.00, -0.01, 0.09, -0.94
67, 0.00, -113272.06, 0.00, 0.00, 0.00, 0.00, 0.00, 0.00, -0.01, 0.09, -0.94
68, 0.00, -112908.96, 0.00, 0.00, 0.00, 0.00, 0.00, 0.00, -0.01, 0.09, -0.94
69, 0.00, -112034.41, 0.00, 0.00, 0.00, 0.00, 0.00, 0.00, -0.01, 0.09, -0.94
70, 0.00, -112571.92, 0.00, 0.00, 0.00, 0.00, 0.00, 0.00, -0.01, 0.09, -0.94
71, 0.00, -113671.83, 0.00, 0.00, 0.00, 0.00, 0.00, 0.00, -0.01, 0.09, -0.94
72, 0.00, -113517.51, 0.00, 0.00, 0.00, 0.00, 0.00, 0.00, -0.01, 0.09, -0.94
73, 0.00, -112532.89, 0.00, 0.00, 0.00, 0.00, 0.00, 0.00, -0.01, 0.09, -0.94
74, 0.00, -112699.21, 0.00, 0.00, 0.00, 0.00, 0.00, 0.00, -0.01, 0.09, -0.94
75, 0.00, -113797.84, 0.00, 0.00, 0.00, 0.00, 0.00, 0.00, -0.01, 0.09, -0.94
76, 0.00, -113901.63, 0.00, 0.00, 0.00, 0.00, 0.00, 0.00, -0.01, 0.09, -0.94
77, 0.00, -112871.92, 0.00, 0.00, 0.00, 0.00, 0.00, 0.00, -0.01, 0.09, -0.93
78, 0.00, -112824.34, 0.00, 0.00, 0.00, 0.00, 0.00, 0.00, -0.01, 0.09, -0.93
79, 0.00, -113962.49, 0.00, 0.00, 0.00, 0.00, 0.00, 0.00, -0.01, 0.09, -0.93
80, 0.00, -114335.78, 0.00, 0.00, 0.00, 0.00, 0.00, 0.00, -0.01, 0.09, -0.93
81, 0.00, -113476.98, 0.00, 0.00, 0.00, 0.00, 0.00, 0.00, -0.01, 0.09, -0.93
82, 0.00, -113235.54, 0.00, 0.00, 0.00, 0.00, 0.00, 0.00, -0.01, 0.09, -0.93
83, 0.00, -114483.13, 0.00, 0.00, 0.00, 0.00, 0.00, 0.00, -0.01, 0.08, -0.93
84, 0.00, -115253.80, 0.00, 0.00, 0.00, 0.00, 0.00, 0.00, -0.01, 0.08, -0.93
85, 0.00, -114590.62, 0.00, 0.00, 0.00, 0.00, 0.00, 0.00, -0.01, 0.08, -0.93
86, 0.00, -114179.30, 0.00, 0.00, 0.00, 0.00, 0.00, 0.00, -0.01, 0.08, -0.93
87, 0.00, -115319.38, 0.00, 0.00, 0.00, 0.00, 0.00, 0.00, -0.01, 0.08, -0.93
88, 0.00, -116303.38, 0.00, 0.00, 0.00, 0.00, 0.00, 0.00, -0.01, 0.09, -0.94
89, 0.00, -115913.13, 0.00, 0.00, 0.00, 0.00, 0.00, 0.00, -0.01, 0.09, -0.94
90, 0.00, -115351.36, 0.00, 0.00, 0.00, 0.00, 0.00, 0.00, -0.01, 0.09, -0.94
91, 0.00, -116278.40, 0.00, 0.00, 0.00, 0.00, 0.00, 0.00, -0.01, 0.09, -0.94
92, 0.00, -117508.39, 0.00, 0.00, 0.00, 0.00, 0.00, 0.00, -0.01, 0.09, -0.94
93, 0.00, -117370.44, 0.00, 0.00, 0.00, 0.00, 0.00, 0.00, -0.01, 0.09, -0.93
94, 0.00, -116703.98, 0.00, 0.00, 0.00, 0.00, 0.00, 0.00, -0.01, 0.09, -0.93
95, 0.00, -117403.56, 0.00, 0.00, 0.00, 0.00, 0.00, 0.00, -0.01, 0.09, -0.93
96, 0.00, -118695.29, 0.00, 0.00, 0.00, 0.00, 0.00, 0.00, -0.01, 0.09, -0.93
97, 0.00, -118737.31, 0.00, 0.00, 0.00, 0.00, 0.00, 0.00, -0.01, 0.09, -0.93
98, 0.00, -117924.24, 0.00, 0.00, 0.00, 0.00, 0.00, 0.00, -0.01, 0.08, -0.94
99, 0.00, -118241.87, 0.00, 0.00, 0.00, 0.00, 0.00, 0.00, -0.01, 0.08, -0.94
100, 0.00, -119469.89, 0.00, 0.00, 0.00, 0.00, 0.00, 0.00, -0.01, 0.08, -0.94
101, 0.00, -119723.18, 0.00, 0.00, 0.00, 0.00, 0.00, 0.00, -0.01, 0.08, -0.94
102, 0.00, -118854.70, 0.00, 0.00, 0.00, 0.00, 0.00, 0.00, -0.01, 0.08, -0.94
103, 0.00, -118844.94, 0.00, 0.00, 0.00, 0.00, 0.00, 0.00, -0.01, 0.09, -0.93
104, 0.00, -120116.02, 0.00, 0.00, 0.00, 0.00, 0.00, 0.00, -0.01, 0.09, -0.93
105, 0.00, -120707.38, 0.00, 0.00, 0.00, 0.00, 0.00, 0.00, -0.01, 0.09, -0.93
106, 0.00, -120024.93, 0.00, 0.00, 0.00, 0.00, 0.00, 0.00, -0.01, 0.09, -0.93
107, 0.00, -119832.99, 0.00, 0.00, 0.00, 0.00, 0.00, 0.00, -0.01, 0.09, -0.93
108, 0.00, -121026.09, 0.00, 0.00, 0.00, 0.00, 0.00, 0.00, -0.02, 0.08, -0.94
109, 0.00, -121907.84, 0.00, 0.00, 0.00, 0.00, 0.00, 0.00, -0.02, 0.08, -0.94
110, 0.00, -121405.02, 0.00, 0.00, 0.00, 0.00, 0.00, 0.00, -0.02, 0.08, -0.94
111, 0.00, -120941.26, 0.00, 0.00, 0.00, 0.00, 0.00, 0.00, -0.02, 0.08, -0.94
112, 0.00, -121940.07, 0.00, 0.00, 0.00, 0.00, 0.00, 0.00, -0.02, 0.08, -0.94
113, 0.00, -122924.17, 0.00, 0.00, 0.00, 0.00, 0.00, 0.00, -0.01, 0.08, -0.95
114, 0.00, -122579.80, 0.00, 0.00, 0.00, 0.00, 0.00, 0.00, -0.01, 0.08, -0.95
115, 0.00, -122041.75, 0.00, 0.00, 0.00, 0.00, 0.00, 0.00, -0.01, 0.08, -0.95
116, 0.00, -122896.37, 0.00, 0.00, 0.00, 0.00, 0.00, 0.00, -0.01, 0.08, -0.95
117, 0.00, -124111.90, 0.00, 0.00, 0.00, 0.00, 0.00, 0.00, -0.01, 0.08, -0.95
118, 0.00, -124108.55, 0.00, 0.00, 0.00, 0.00, 0.00, 0.00, -0.01, 0.08, -0.94
119, 0.00, -123558.16, 0.00, 0.00, 0.00, 0.00, 0.00, 0.00, -0.01, 0.08, -0.94
120, 0.00, -124271.25, 0.00, 0.00, 0.00, 0.00, 0.00, 0.00, -0.01, 0.08, -0.94
121, 0.00, -125604.33, 0.00, 0.00, 0.00, 0.00, 0.00, 0.00, -0.01, 0.08, -0.94
122, 0.00, -125888.62, 0.00, 0.00, 0.00, 0.00, 0.00, 0.00, -0.01, 0.08, -0.94
123, 0.00, -125360.94, 0.00, 0.00, 0.00, 0.00, 0.00, 0.00, -0.01, 0.08, -0.94
124, 0.00, -125717.09, 0.00, 0.00, 0.00, 0.00, 0.00, 0.00, -0.01, 0.08, -0.94
125, 0.00, -127029.59, 0.00, 0.00, 0.00, 0.00, 0.00, 0.00, -0.01, 0.08, -0.94
126, 0.00, -127520.01, 0.00, 0.00, 0.00, 0.00, 0.00, 0.00, -0.01, 0.08, -0.94
127, 0.00, -126911.77, 0.00, 0.00, 0.00, 0.00, 0.00, 0.00, -0.01, 0.08, -0.94
128, 0.00, -126994.56, 0.00, 0.00, 0.00, 0.00, 0.00, 0.00, -0.01, 0.08, -0.94
129, 0.00, -128157.70, 0.00, 0.00, 0.00, 0.00, 0.00, 0.00, -0.01, 0.08, -0.94
130, 0.00, -128761.09, 0.00, 0.00, 0.00, 0.00, 0.00, 0.00, -0.01, 0.08, -0.94
131, 0.00, -128183.79, 0.00, 0.00, 0.00, 0.00, 0.00, 0.00, -0.01, 0.08, -0.94
132, 0.00, -127907.00, 0.00, 0.00, 0.00, 0.00, 0.00, 0.00, -0.01, 0.08, -0.94
133, 0.00, -128790.01, 0.00, 0.00, 0.00, 0.00, 0.00, 0.00, -0.01, 0.08, -0.94
134, 0.00, -129386.45, 0.00, 0.00, 0.00, 0.00, 0.00, 0.00, -0.01, 0.08, -0.94
135, 0.00, -128793.59, 0.00, 0.00, 0.00, 0.00, 0.00, 0.00, -0.01, 0.08, -0.94
136, 0.00, -128227.84, 0.00, 0.00, 0.00, 0.00, 0.00, 0.00, -0.01, 0.08, -0.94
137, 0.00, -129005.48, 0.00, 0.00, 0.00, 0.00, 0.00, 0.00, -0.01, 0.08, -0.94
138, 0.00, -129804.94, 0.00, 0.00, 0.00, 0.00, 0.00, 0.00, -0.01, 0.09, -0.93
139, 0.00, -129465.28, 0.00, 0.00, 0.00, 0.00, 0.00, 0.00, -0.01, 0.09, -0.93
140, 0.00, -128828.39, 0.00, 0.00, 0.00, 0.00, 0.00, 0.00, -0.01, 0.09, -0.93
141, 0.00, -129386.11, 0.00, 0.00, 0.00, 0.00, 0.00, 0.00, -0.01, 0.09, -0.93
142, 0.00, -130240.33, 0.00, 0.00, 0.00, 0.00, 0.00, 0.00, -0.01, 0.09, -0.93
143, 0.00, -130083.28, 0.00, 0.00, 0.00, 0.00, 0.00, 0.00, -0.00, 0.09, -0.94
144, 0.00, -129398.63, 0.00, 0.00, 0.00, 0.00, 0.00, 0.00, -0.00, 0.09, -0.94
145, 0.00, -129826.21, 0.00, 0.00, 0.00, 0.00, 0.00, 0.00, -0.00, 0.09, -0.94
146, 0.00, -130798.25, 0.00, 0.00, 0.00, 0.00, 0.00, 0.00, -0.00, 0.09, -0.94
147, 0.00, -130963.67, 0.00, 0.00, 0.00, 0.00, 0.00, 0.00, -0.00, 0.09, -0.94
148, 0.00, -130349.42, 0.00, 0.00, 0.00, 0.00, 0.00, 0.00, -0.01, 0.08, -0.94
149, 0.00, -130588.99, 0.00, 0.00, 0.00, 0.00, 0.00, 0.00, -0.01, 0.08, -0.94
150, 0.00, -131679.52, 0.00, 0.00, 0.00, 0.00, 0.00, 0.00, -0.01, 0.08, -0.94
151, 0.00, -132088.84, 0.00, 0.00, 0.00, 0.00, 0.00, 0.00, -0.01, 0.08, -0.94
152, 0.00, -131557.84, 0.00, 0.00, 0.00, 0.00, 0.00, 0.00, -0.01, 0.08, -0.94
153, 0.00, -131615.92, 0.00, 0.00, 0.00, 0.00, 0.00, 0.00, -0.01, 0.08, -0.94
154, 0.00, -132747.98, 0.00, 0.00, 0.00, 0.00, 0.00, 0.00, -0.01, 0.08, -0.94
155, 0.00, -133431.23, 0.00, 0.00, 0.00, 0.00, 0.00, 0.00, -0.01, 0.08, -0.94
156, 0.00, -133058.86, 0.00, 0.00, 0.00, 0.00, 0.00, 0.00, -0.01, 0.08, -0.94
157, 0.00, -132902.00, 0.00, 0.00, 0.00, 0.00, 0.00, 0.00, -0.01, 0.08, -0.94
158, 0.00, -133934.98, 0.00, 0.00, 0.00, 0.00, 0.00, 0.00, -0.01, 0.08, -0.93
159, 0.00, -134735.39, 0.00, 0.00, 0.00, 0.00, 0.00, 0.00, -0.01, 0.08, -0.93
160, 0.00, -134435.17, 0.00, 0.00, 0.00, 0.00, 0.00, 0.00, -0.01, 0.08, -0.93
161, 0.00, -134076.42, 0.00, 0.00, 0.00, 0.00, 0.00, 0.00, -0.01, 0.08, -0.93
162, 0.00, -134939.11, 0.00, 0.00, 0.00, 0.00, 0.00, 0.00, -0.01, 0.08, -0.93
163, 0.00, -135838.30, 0.00, 0.00, 0.00, 0.00, 0.00, 0.00, -0.02, 0.08, -0.94
164, 0.00, -135609.80, 0.00, 0.00, 0.00, 0.00, 0.00, 0.00, -0.02, 0.08, -0.94
165, 0.00, -135031.94, 0.00, 0.00, 0.00, 0.00, 0.00, 0.00, -0.02, 0.08, -0.94
166, 0.00, -135590.92, 0.00, 0.00, 0.00, 0.00, 0.00, 0.00, -0.02, 0.08, -0.94
167, 0.00, -136474.92, 0.00, 0.00, 0.00, 0.00, 0.00, 0.00, -0.02, 0.08, -0.94
168, 0.00, -136336.38, 0.00, 0.00, 0.00, 0.00, 0.00, 0.00, -0.02, 0.08, -0.94
169, 0.00, -135594.28, 0.00, 0.00, 0.00, 0.00, 0.00, 0.00, -0.02, 0.08, -0.94
170, 0.00, -135878.98, 0.00, 0.00, 0.00, 0.00, 0.00, 0.00, -0.02, 0.08, -0.94
171, 0.00, -136808.77, 0.00, 0.00, 0.00, 0.00, 0.00, 0.00, -0.02, 0.08, -0.94
172, 0.00, -136839.05, 0.00, 0.00, 0.00, 0.00, 0.00, 0.00, -0.02, 0.08, -0.94
173, 0.00, -136045.59, 0.00, 0.00, 0.00, 0.00, 0.00, 0.00, -0.01, 0.09, -0.94
174, 0.00, -136050.89, 0.00, 0.00, 0.00, 0.00, 0.00, 0.00, -0.01, 0.09, -0.94
175, 0.00, -136927.20, 0.00, 0.00, 0.00, 0.00, 0.00, 0.00, -0.01, 0.09, -0.94
176, 0.00, -137167.55, 0.00, 0.00, 0.00, 0.00, 0.00, 0.00, -0.01, 0.09, -0.94
177, 0.00, -136420.66, 0.00, 0.00, 0.00, 0.00, 0.00, 0.00, -0.01, 0.09, -0.94
178, 0.00, -136200.19, 0.00, 0.00, 0.00, 0.00, 0.00, 0.00, -0.01, 0.09, -0.94
179, 0.00, -137094.47, 0.00, 0.00, 0.00, 0.00, 0.00, 0.00, -0.01, 0.09, -0.94
180, 0.00, -137579.36, 0.00, 0.00, 0.00, 0.00, 0.00, 0.00, -0.01, 0.09, -0.94
181, 0.00, -136992.47, 0.00, 0.00, 0.00, 0.00, 0.00, 0.00, -0.01, 0.09, -0.94
182, 0.00, -136634.63, 0.00, 0.00, 0.00, 0.00, 0.00, 0.00, -0.01, 0.09, -0.94
183, 0.00, -137475.58, 0.00, 0.00, 0.00, 0.00, 0.00, 0.00, -0.01, 0.09, -0.94
184, 0.00, -138199.88, 0.00, 0.00, 0.00, 0.00, 0.00, 0.00, -0.01, 0.09, -0.94
185, 0.00, -137805.09, 0.00, 0.00, 0.00, 0.00, 0.00, 0.00, -0.01, 0.09, -0.94
186, 0.00, -137304.17, 0.00, 0.00, 0.00, 0.00, 0.00, 0.00, -0.01, 0.09, -0.94
187, 0.00, -138063.48, 0.00, 0.00, 0.00, 0.00, 0.00, 0.00, -0.01, 0.09, -0.94
188, 0.00, -138964.13, 0.00, 0.00, 0.00, 0.00, 0.00, 0.00, -0.01, 0.09, -0.94
189, 0.00, -138766.67, 0.00, 0.00, 0.00, 0.00, 0.00, 0.00, -0.01, 0.09, -0.94
190, 0.00, -138177.56, 0.00, 0.00, 0.00, 0.00, 0.00, 0.00, -0.01, 0.09, -0.94
191, 0.00, -138798.31, 0.00, 0.00, 0.00, 0.00, 0.00, 0.00, -0.01, 0.09, -0.94
192, 0.00, -139902.48, 0.00, 0.00, 0.00, 0.00, 0.00, 0.00, -0.01, 0.09, -0.94
193, 0.00, -139969.14, 0.00, 0.00, 0.00, 0.00, 0.00, 0.00, -0.01, 0.09, -0.94
194, 0.00, -139304.31, 0.00, 0.00, 0.00, 0.00, 0.00, 0.00, -0.01, 0.09, -0.94
195, 0.00, -139669.56, 0.00, 0.00, 0.00, 0.00, 0.00, 0.00, -0.01, 0.09, -0.94
196, 0.00, -140802.00, 0.00, 0.00, 0.00, 0.00, 0.00, 0.00, -0.01, 0.09, -0.94
197, 0.00, -141111.34, 0.00, 0.00, 0.00, 0.00, 0.00, 0.00, -0.01, 0.09, -0.94
198, 0.00, -140467.86, 0.00, 0.00, 0.00, 0.00, 0.00, 0.00, -0.01, 0.09, -0.94
199, 0.00, -140555.20, 0.00, 0.00, 0.00, 0.00, 0.00, 0.00, -0.01, 0.09, -0.94
200, 0.00, -141711.98, 0.00, 0.00, 0.00, 0.00, 0.00, 0.00, -0.01, 0.09, -0.94
201, 0.00, -142175.48, 0.00, 0.00, 0.00, 0.00, 0.00, 0.00, -0.01, 0.09, -0.94
202, 0.00, -141561.70, 0.00, 0.00, 0.00, 0.00, 0.00, 0.00, -0.01, 0.09, -0.94
203, 0.00, -141457.64, 0.00, 0.00, 0.00, 0.00, 0.00, 0.00, -0.01, 0.09, -0.94
204, 0.00, -142548.95, 0.00, 0.00, 0.00, 0.00, 0.00, 0.00, -0.01, 0.09, -0.94
205, 0.00, -143171.39, 0.00, 0.00, 0.00, 0.00, 0.00, 0.00, -0.01, 0.09, -0.94
206, 0.00, -142560.36, 0.00, 0.00, 0.00, 0.00, 0.00, 0.00, -0.01, 0.09, -0.94
207, 0.00, -142126.16, 0.00, 0.00, 0.00, 0.00, 0.00, 0.00, -0.01, 0.09, -0.94
208, 0.00, -142993.06, 0.00, 0.00, 0.00, 0.00, 0.00, 0.00, -0.01, 0.09, -0.94
209, 0.00, -143774.75, 0.00, 0.00, 0.00, 0.00, 0.00, 0.00, -0.01, 0.09, -0.94
210, 0.00, -143303.48, 0.00, 0.00, 0.00, 0.00, 0.00, 0.00, -0.01, 0.09, -0.94
211, 0.00, -142652.47, 0.00, 0.00, 0.00, 0.00, 0.00, 0.00, -0.01, 0.09, -0.94
212, 0.00, -143326.00, 0.00, 0.00, 0.00, 0.00, 0.00, 0.00, -0.01, 0.09, -0.94
213, 0.00, -144249.08, 0.00, 0.00, 0.00, 0.00, 0.00, 0.00, -0.01, 0.08, -0.93
214, 0.00, -143932.02, 0.00, 0.00, 0.00, 0.00, 0.00, 0.00, -0.01, 0.08, -0.93
215, 0.00, -143138.00, 0.00, 0.00, 0.00, 0.00, 0.00, 0.00, -0.01, 0.08, -0.93
216, 0.00, -143515.36, 0.00, 0.00, 0.00, 0.00, 0.00, 0.00, -0.01, 0.08, -0.93
217, 0.00, -144446.09, 0.00, 0.00, 0.00, 0.00, 0.00, 0.00, -0.01, 0.08, -0.93
218, 0.00, -144352.02, 0.00, 0.00, 0.00, 0.00, 0.00, 0.00, -0.01, 0.08, -0.94
219, 0.00, -143488.27, 0.00, 0.00, 0.00, 0.00, 0.00, 0.00, -0.01, 0.08, -0.94
220, 0.00, -143637.61, 0.00, 0.00, 0.00, 0.00, 0.00, 0.00, -0.01, 0.08, -0.94
221, 0.00, -144622.23, 0.00, 0.00, 0.00, 0.00, 0.00, 0.00, -0.01, 0.08, -0.94
222, 0.00, -144794.38, 0.00, 0.00, 0.00, 0.00, 0.00, 0.00, -0.01, 0.08, -0.94
223, 0.00, -143988.02, 0.00, 0.00, 0.00, 0.00, 0.00, 0.00, -0.01, 0.08, -0.93
224, 0.00, -143940.58, 0.00, 0.00, 0.00, 0.00, 0.00, 0.00, -0.01, 0.08, -0.93
225, 0.00, -145091.67, 0.00, 0.00, 0.00, 0.00, 0.00, 0.00, -0.01, 0.08, -0.93
226, 0.00, -145608.73, 0.00, 0.00, 0.00, 0.00, 0.00, 0.00, -0.01, 0.08, -0.93
227, 0.00, -144973.98, 0.00, 0.00, 0.00, 0.00, 0.00, 0.00, -0.01, 0.08, -0.93
228, 0.00, -144788.50, 0.00, 0.00, 0.00, 0.00, 0.00, 0.00, -0.01, 0.08, -0.93
229, 0.00, -145903.16, 0.00, 0.00, 0.00, 0.00, 0.00, 0.00, -0.01, 0.08, -0.93
230, 0.00, -146711.06, 0.00, 0.00, 0.00, 0.00, 0.00, 0.00, -0.01, 0.08, -0.93
231, 0.00, -146307.05, 0.00, 0.00, 0.00, 0.00, 0.00, 0.00, -0.01, 0.08, -0.93
232, 0.00, -145888.80, 0.00, 0.00, 0.00, 0.00, 0.00, 0.00, -0.01, 0.08, -0.93
233, 0.00, -146780.73, 0.00, 0.00, 0.00, 0.00, 0.00, 0.00, -0.01, 0.08, -0.94
234, 0.00, -147708.14, 0.00, 0.00, 0.00, 0.00, 0.00, 0.00, -0.01, 0.08, -0.94
235, 0.00, -147360.69, 0.00, 0.00, 0.00, 0.00, 0.00, 0.00, -0.01, 0.08, -0.94
236, 0.00, -146732.47, 0.00, 0.00, 0.00, 0.00, 0.00, 0.00, -0.01, 0.08, -0.94
237, 0.00, -147375.64, 0.00, 0.00, 0.00, 0.00, 0.00, 0.00, -0.01, 0.08, -0.94
238, 0.00, -148298.33, 0.00, 0.00, 0.00, 0.00, 0.00, 0.00, -0.01, 0.08, -0.94
239, 0.00, -148055.14, 0.00, 0.00, 0.00, 0.00, 0.00, 0.00, -0.01, 0.08, -0.94
240, 0.00, -147272.67, 0.00, 0.00, 0.00, 0.00, 0.00, 0.00, -0.01, 0.08, -0.94
241, 0.00, -147611.86, 0.00, 0.00, 0.00, 0.00, 0.00, 0.00, -0.01, 0.08, -0.94
242, 0.00, -148559.05, 0.00, 0.00, 0.00, 0.00, 0.00, 0.00, -0.01, 0.08, -0.94
243, 0.00, -148534.06, 0.00, 0.00, 0.00, 0.00, 0.00, 0.00, -0.01, 0.08, -0.93
244, 0.00, -147689.70, 0.00, 0.00, 0.00, 0.00, 0.00, 0.00, -0.01, 0.08, -0.93
245, 0.00, -147783.27, 0.00, 0.00, 0.00, 0.00, 0.00, 0.00, -0.01, 0.08, -0.93
246, 0.00, -148756.98, 0.00, 0.00, 0.00, 0.00, 0.00, 0.00, -0.01, 0.08, -0.93
247, 0.00, -148992.77, 0.00, 0.00, 0.00, 0.00, 0.00, 0.00, -0.01, 0.08, -0.93
248, 0.00, -148200.06, 0.00, 0.00, 0.00, 0.00, 0.00, 0.00, -0.01, 0.08, -0.93
249, 0.00, -147989.53, 0.00, 0.00, 0.00, 0.00, 0.00, 0.00, -0.01, 0.08, -0.93
250, 0.00, -148906.88, 0.00, 0.00, 0.00, 0.00, 0.00, 0.00, -0.01, 0.08, -0.93
251, 0.00, -149289.67, 0.00, 0.00, 0.00, 0.00, 0.00, 0.00, -0.01, 0.08, -0.93
252, 0.00, -148558.92, 0.00, 0.00, 0.00, 0.00, 0.00, 0.00, -0.01, 0.08, -0.93
253, 0.00, -148128.27, 0.00, 0.00, 0.00, 0.00, 0.00, 0.00, -0.01, 0.08, -0.94
254, 0.00, -148957.23, 0.00, 0.00, 0.00, 0.00, 0.00, 0.00, -0.01, 0.08, -0.94
255, 0.00, -149564.41, 0.00, 0.00, 0.00, 0.00, 0.00, 0.00, -0.01, 0.08, -0.94
0, 0.00, -149050.19, 0.00, 0.00, 0.00, 0.00, 0.00, 0.00, -0.01, 0.08, -0.94
1, 0.00, -148492.48, 0.00, 0.00, 0.00, 0.00, 0.00, 0.00, -0.01, 0.08, -0.94
2, 0.00, -149207.17, 0.00, 0.00, 0.00, 0.00, 0.00, 0.00, -0.01, 0.08, -0.95
3, 0.00, -149997.17, 0.00, 0.00, 0.00, 0.00, 0.00, 0.00, -0.01, 0.08, -0.95
4, 0.00, -149678.03, 0.00, 0.00, 0.00, 0.00, 0.00, 0.00, -0.01, 0.08, -0.95
5, 0.00, -149049.11, 0.00, 0.00, 0.00, 0.00, 0.00, 0.00, -0.01, 0.08, -0.95
6, 0.00, -149659.03, 0.00, 0.00, 0.00, 0.00, 0.00, 0.00, -0.01, 0.08, -0.95
7, 0.00, -150665.64, 0.00, 0.00, 0.00, 0.00, 0.00, 0.00, -0.01, 0.08, -0.93
8, 0.00, -150621.45, 0.00, 0.00, 0.00, 0.00, 0.00, 0.00, -0.01, 0.08, -0.93
9, 0.00, -149908.34, 0.00, 0.00, 0.00, 0.00, 0.00, 0.00, -0.01, 0.08, -0.93
10, 0.00, -150214.00, 0.00, 0.00, 0.00, 0.00, 0.00, 0.00, -0.01, 0.08, -0.93
11, 0.00, -151219.98, 0.00, 0.00, 0.00, 0.00, 0.00, 0.00, -0.01, 0.08, -0.93
12, 0.00, -151303.48, 0.00, 0.00, 0.00, 0.00, 0.00, 0.00, -0.01, 0.08, -0.93
13, 0.00, -150502.38, 0.00, 0.00, 0.00, 0.00, 0.00, 0.00, -0.01, 0.08, -0.93
14, 0.00, -150552.83, 0.00, 0.00, 0.00, 0.00, 0.00, 0.00, -0.01, 0.08, -0.93
15, 0.00, -151571.78, 0.00, 0.00, 0.00, 0.00, 0.00, 0.00, -0.01, 0.08, -0.93
16, 0.00, -151854.48, 0.00, 0.00, 0.00, 0.00, 0.00, 0.00, -0.01, 0.08, -0.93
17, 0.00, -151035.11, 0.00, 0.00, 0.00, 0.00, 0.00, 0.00, -0.01, 0.08, -0.93
18, 0.00, -150769.58, 0.00, 0.00, 0.00, 0.00, 0.00, 0.00, -0.01, 0.08, -0.93
19, 0.00, -151677.75, 0.00, 0.00, 0.00, 0.00, 0.00, 0.00, -0.01, 0.08, -0.93
20, 0.00, -152084.80, 0.00, 0.00, 0.00, 0.00, 0.00, 0.00, -0.01, 0.08, -0.93
21, 0.00, -151351.61, 0.00, 0.00, 0.00, 0.00, 0.00, 0.00, -0.01, 0.08, -0.93
22, 0.00, -150874.78, 0.00, 0.00, 0.00, 0.00, 0.00, 0.00, -0.01, 0.08, -0.93
23, 0.00, -151633.25, 0.00, 0.00, 0.00, 0.00, 0.00, 0.00, -0.00, 0.08, -0.95
24, 0.00, -152249.91, 0.00, 0.00, 0.00, 0.00, 0.00, 0.00, -0.00, 0.08, -0.95
25, 0.00, -151767.61, 0.00, 0.00, 0.00, 0.00, 0.00, 0.00, -0.00, 0.08, -0.95
26, 0.00, -151221.34, 0.00, 0.00, 0.00, 0.00, 0.00, 0.00, -0.00, 0.08, -0.95
27, 0.00, -151934.48, 0.00, 0.00, 0.00, 0.00, 0.00, 0.00, -0.00, 0.08, -0.95
28, 0.00, -152751.95, 0.00, 0.00, 0.00, 0.00, 0.00, 0.00, -0.00, 0.08, -0.94
29, 0.00, -152443.86, 0.00, 0.00, 0.00, 0.00, 0.00, 0.00, -0.00, 0.08, -0.94
30, 0.00, -151754.92, 0.00, 0.00, 0.00, 0.00, 0.00, 0.00, -0.00, 0.08, -0.94
31, 0.00, -152252.64, 0.00, 0.00, 0.00, 0.00, 0.00, 0.00, -0.00, 0.08, -0.94
32, 0.00, -153221.19, 0.00, 0.00, 0.00, 0.00, 0.00, 0.00, -0.00, 0.08, -0.94
33, 0.00, -153166.22, 0.00, 0.00, 0.00, 0.00, 0.00, 0.00, -0.01, 0.09, -0.94
34, 0.00, -152393.50, 0.00, 0.00, 0.00, 0.00, 0.00, 0.00, -0.01, 0.09, -0.94
35, 0.00, -152574.03, 0.00, 0.00, 0.00, 0.00, 0.00, 0.00, -0.01, 0.09, -0.94
36, 0.00, -153532.56, 0.00, 0.00, 0.00, 0.00, 0.00, 0.00, -0.01, 0.09, -0.94
37, 0.00, -153663.23, 0.00, 0.00, 0.00, 0.00, 0.00, 0.00, -0.01, 0.09, -0.94
38, 0.00, -152888.97, 0.00, 0.00, 0.00, 0.00, 0.00, 0.00, -0.01, 0.08, -0.94
39, 0.00, -152955.02, 0.00, 0.00, 0.00, 0.00, 0.00, 0.00, -0.01, 0.08, -0.94
40, 0.00, -154077.78, 0.00, 0.00, 0.00, 0.00, 0.00, 0.00, -0.01, 0.08, -0.94
41, 0.00, -154509.38, 0.00, 0.00, 0.00, 0.00, 0.00, 0.00, -0.01, 0.08, -0.94
42, 0.00, -153844.06, 0.00, 0.00, 0.00, 0.00, 0.00, 0.00, -0.01, 0.08, -0.94
43, 0.00, -153599.55, 0.00, 0.00, 0.00, 0.00, 0.00, 0.00, -0.02, 0.08, -0.94
44, 0.00, -154531.39, 0.00, 0.00, 0.00, 0.00, 0.00, 0.00, -0.02, 0.08, -0.94
45, 0.00, -155125.39, 0.00, 0.00, 0.00, 0.00, 0.00, 0.00, -0.02, 0.08, -0.94
46, 0.00, -154585.02, 0.00, 0.00, 0.00, 0.00, 0.00, 0.00, -0.02, 0.08, -0.94
47, 0.00, -154245.05, 0.00, 0.00, 0.00, 0.00, 0.00, 0.00, -0.02, 0.08, -0.94
48, 0.00, -155176.25, 0.00, 0.00, 0.00, 0.00, 0.00, 0.00, -0.01, 0.08, -0.94
49, 0.00, -156002.86, 0.00, 0.00, 0.00, 0.00, 0.00, 0.00, -0.01, 0.08, -0.94
50, 0.00, -155587.31, 0.00, 0.00, 0.00, 0.00, 0.00, 0.00, -0.01, 0.08, -0.94
51, 0.00, -154975.13, 0.00, 0.00, 0.00, 0.00, 0.00, 0.00, -0.01, 0.08, -0.94
52, 0.00, -155530.67, 0.00, 0.00, 0.00, 0.00, 0.00, 0.00, -0.01, 0.08, -0.94
53, 0.00, -156324.88, 0.00, 0.00, 0.00, 0.00, 0.00, 0.00, -0.01, 0.08, -0.94
54, 0.00, -155973.31, 0.00, 0.00, 0.00, 0.00, 0.00, 0.00, -0.01, 0.08, -0.94
55, 0.00, -155123.27, 0.00, 0.00, 0.00, 0.00, 0.00, 0.00, -0.01, 0.08, -0.94
56, 0.00, -155468.63, 0.00, 0.00, 0.00, 0.00, 0.00, 0.00, -0.01, 0.08, -0.94
57, 0.00, -156381.05, 0.00, 0.00, 0.00, 0.00, 0.00, 0.00, -0.01, 0.08, -0.94
58, 0.00, -156257.80, 0.00, 0.00, 0.00, 0.00, 0.00, 0.00, -0.01, 0.08, -0.94
59, 0.00, -155343.19, 0.00, 0.00, 0.00, 0.00, 0.00, 0.00, -0.01, 0.08, -0.94
60, 0.00, -155450.72, 0.00, 0.00, 0.00, 0.00, 0.00, 0.00, -0.01, 0.08, -0.94
61, 0.00, -156433.34, 0.00, 0.00, 0.00, 0.00, 0.00, 0.00, -0.01, 0.08, -0.94
62, 0.00, -156574.67, 0.00, 0.00, 0.00, 0.00, 0.00, 0.00, -0.01, 0.08, -0.94
63, 0.00, -155695.27, 0.00, 0.00, 0.00, 0.00, 0.00, 0.00, -0.01, 0.09, -0.94
64, 0.00, -155503.94, 0.00, 0.00, 0.00, 0.00, 0.00, 0.00, -0.01, 0.09, -0.94
65, 0.00, -156430.73, 0.00, 0.00, 0.00, 0.00, 0.00, 0.00, -0.01, 0.09, -0.94
66, 0.00, -156783.89, 0.00, 0.00, 0.00, 0.00, 0.00, 0.00, -0.01, 0.09, -0.94
67, 0.00, -155985.55, 0.00, 0.00, 0.00, 0.00, 0.00, 0.00, -0.01, 0.09, -0.94
68, 0.00, -155586.28, 0.00, 0.00, 0.00, 0.00, 0.00, 0.00, -0.02, 0.09, -0.94
69, 0.00, -156424.81, 0.00, 0.00, 0.00, 0.00, 0.00, 0.00, -0.02, 0.09, -0.94
70, 0.00, -156999.36, 0.00, 0.00, 0.00, 0.00, 0.00, 0.00, -0.02, 0.09, -0.94
71, 0.00, -156337.06, 0.00, 0.00, 0.00, 0.00, 0.00, 0.00, -0.02, 0.09, -0.94
72, 0.00, -155760.61, 0.00, 0.00, 0.00, 0.00, 0.00, 0.00, -0.02, 0.09, -0.94
73, 0.00, -156533.94, 0.00, 0.00, 0.00, 0.00, 0.00, 0.00, -0.01, 0.09, -0.94
74, 0.00, -157245.86, 0.00, 0.00, 0.00, 0.00, 0.00, 0.00, -0.01, 0.09, -0.94
75, 0.00, -156744.03, 0.00, 0.00, 0.00, 0.00, 0.00, 0.00, -0.01, 0.09, -0.94
76, 0.00, -156027.83, 0.00, 0.00, 0.00, 0.00, 0.00, 0.00, -0.01, 0.09, -0.94
77, 0.00, -156566.64, 0.00, 0.00, 0.00, 0.00, 0.00, 0.00, -0.01, 0.09, -0.94
78, 0.00, -157462.48, 0.00, 0.00, 0.00, 0.00, 0.00, 0.00, -0.01, 0.08, -0.95
79, 0.00, -157215.91, 0.00, 0.00, 0.00, 0.00, 0.00, 0.00, -0.01, 0.08, -0.95
80, 0.00, -156420.23, 0.00, 0.00, 0.00, 0.00, 0.00, 0.00, -0.01, 0.08, -0.95
81, 0.00, -156777.14, 0.00, 0.00, 0.00, 0.00, 0.00, 0.00, -0.01, 0.08, -0.95
82, 0.00, -157773.77, 0.00, 0.00, 0.00, 0.00, 0.00, 0.00, -0.01, 0.08, -0.95
83, 0.00, -157806.86, 0.00, 0.00, 0.00, 0.00, 0.00, 0.00, -0.01, 0.08, -0.94
84, 0.00, -157022.61, 0.00, 0.00, 0.00, 0.00, 0.00, 0.00, -0.01, 0.08, -0.94
85, 0.00, -157142.61, 0.00, 0.00, 0.00, 0.00, 0.00, 0.00, -0.01, 0.08, -0.94
86, 0.00, -158172.25, 0.00, 0.00, 0.00, 0.00, 0.00, 0.00, -0.01, 0.08, -0.94
87, 0.00, -158424.83, 0.00, 0.00, 0.00, 0.00, 0.00, 0.00, -0.01, 0.08, -0.94
88, 0.00, -157625.59, 0.00, 0.00, 0.00, 0.00, 0.00, 0.00, -0.01, 0.08, -0.93
89, 0.00, -157462.27, 0.00, 0.00, 0.00, 0.00, 0.00, 0.00, -0.01, 0.08, -0.93
90, 0.00, -158475.45, 0.00, 0.00, 0.00, 0.00, 0.00, 0.00, -0.01, 0.08, -0.93
91, 0.00, -158926.31, 0.00, 0.00, 0.00, 0.00, 0.00, 0.00, -0.01, 0.08, -0.93
92, 0.00, -158183.33, 0.00, 0.00, 0.00, 0.00, 0.00, 0.00, -0.01, 0.08, -0.93
93, 0.00, -157771.33, 0.00, 0.00, 0.00, 0.00, 0.00, 0.00, -0.01, 0.09, -0.94
94, 0.00, -158639.36, 0.00, 0.00, 0.00, 0.00, 0.00, 0.00, -0.01, 0.09, -0.94
95, 0.00, -159323.52, 0.00, 0.00, 0.00, 0.00, 0.00, 0.00, -0.01, 0.09, -0.94
96, 0.00, -158772.50, 0.00, 0.00, 0.00, 0.00, 0.00, 0.00, -0.01, 0.09, -0.94
97, 0.00, -158162.55, 0.00, 0.00, 0.00, 0.00, 0.00, 0.00, -0.01, 0.09, -0.94
98, 0.00, -158839.33, 0.00, 0.00, 0.00, 0.00, 0.00, 0.00, -0.01, 0.09, -0.94
99, 0.00, -159637.92, 0.00, 0.00, 0.00, 0.00, 0.00, 0.00, -0.01, 0.09, -0.94
100, 0.00, -159256.75, 0.00, 0.00, 0.00, 0.00, 0.00, 0.00, -0.01, 0.09, -0.94
101, 0.00, -158548.42, 0.00, 0.00, 0.00, 0.00, 0.00, 0.00, -0.01, 0.09, -0.94
102, 0.00, -159036.86, 0.00, 0.00, 0.00, 0.00, 0.00, 0.00, -0.01, 0.09, -0.94
103, 0.00, -159981.58, 0.00, 0.00, 0.00, 0.00, 0.00, 0.00, -0.01, 0.09, -0.93
104, 0.00, -159868.39, 0.00, 0.00, 0.00, 0.00, 0.00, 0.00, -0.01, 0.09, -0.93
105, 0.00, -159048.39, 0.00, 0.00, 0.00, 0.00, 0.00, 0.00, -0.01, 0.09, -0.93
106, 0.00, -159317.03, 0.00, 0.00, 0.00, 0.00, 0.00, 0.00, -0.01, 0.09, -0.93
107, 0.00, -160296.61, 0.00, 0.00, 0.00, 0.00, 0.00, 0.00, -0.01, 0.09, -0.93
108, 0.00, -160340.55, 0.00, 0.00, 0.00, 0.00, 0.00, 0.00, -0.01, 0.08, -0.94
109, 0.00, -159479.00, 0.00, 0.00, 0.00, 0.00, 0.00, 0.00, -0.01, 0.08, -0.94
110, 0.00, -159495.09, 0.00, 0.00, 0.00, 0.00, 0.00, 0.00, -0.01, 0.08, -0.94
111, 0.00, -160507.25, 0.00, 0.00, 0.00, 0.00, 0.00, 0.00, -0.01, 0.08, -0.94
112, 0.00, -160772.72, 0.00, 0.00, 0.00, 0.00, 0.00, 0.00, -0.01, 0.08, -0.94
113, 0.00, -159969.69, 0.00, 0.00, 0.00, 0.00, 0.00, 0.00, -0.01, 0.08, -0.94
114, 0.00, -159660.52, 0.00, 0.00, 0.00, 0.00, 0.00, 0.00, -0.01, 0.08, -0.94
115, 0.00, -160512.78, 0.00, 0.00, 0.00, 0.00, 0.00, 0.00, -0.01, 0.08, -0.94
116, 0.00, -160907.98, 0.00, 0.00, 0.00, 0.00, 0.00, 0.00, -0.01, 0.08, -0.94
117, 0.00, -160134.95, 0.00, 0.00, 0.00, 0.00, 0.00, 0.00, -0.01, 0.08, -0.94
118, 0.00, -159583.31, 0.00, 0.00, 0.00, 0.00, 0.00, 0.00, -0.01, 0.09, -0.93
119, 0.00, -160318.64, 0.00, 0.00, 0.00, 0.00, 0.00, 0.00, -0.01, 0.09, -0.93
120, 0.00, -160892.44, 0.00, 0.00, 0.00, 0.00, 0.00, 0.00, -0.01, 0.09, -0.93
121, 0.00, -160283.22, 0.00, 0.00, 0.00, 0.00, 0.00, 0.00, -0.01, 0.09, -0.93
122, 0.00, -159552.94, 0.00, 0.00, 0.00, 0.00, 0.00, 0.00, -0.01, 0.09, -0.93
123, 0.00, -160077.47, 0.00, 0.00, 0.00, 0.00, 0.00, 0.00, -0.01, 0.09, -0.94
124, 0.00, -160780.83, 0.00, 0.00, 0.00, 0.00, 0.00, 0.00, -0.01, 0.09, -0.94
125, 0.00, -160393.30, 0.00, 0.00, 0.00, 0.00, 0.00, 0.00, -0.01, 0.09, -0.94
126, 0.00, -159540.36, 0.00, 0.00, 0.00, 0.00, 0.00, 0.00, -0.01, 0.09, -0.94
127, 0.00, -159796.70, 0.00, 0.00, 0.00, 0.00, 0.00, 0.00, -0.01, 0.09, -0.94
128, 0.00, -160483.59, 0.00, 0.00, 0.00, 0.00, 0.00, 0.00, -0.00, 0.09, -0.94
129, 0.00, -160188.28, 0.00, 0.00, 0.00, 0.00, 0.00, 0.00, -0.00, 0.09, -0.94
130, 0.00, -159174.39, 0.00, 0.00, 0.00, 0.00, 0.00, 0.00, -0.00, 0.09, -0.94
131, 0.00, -159116.52, 0.00, 0.00, 0.00, 0.00, 0.00, 0.00, -0.00, 0.09, -0.94
132, 0.00, -159880.95, 0.00, 0.00, 0.00, 0.00, 0.00, 0.00, -0.00, 0.09, -0.94
133, 0.00, -159696.75, 0.00, 0.00, 0.00, 0.00, 0.00, 0.00, 0.00, 0.09, -0.94
134, 0.00, -158602.50, 0.00, 0.00, 0.00, 0.00, 0.00, 0.00, 0.00, 0.09, -0.94
135, 0.00, -158275.80, 0.00, 0.00, 0.00, 0.00, 0.00, 0.00, 0.00, 0.09, -0.94
136, 0.00, -158989.89, 0.00, 0.00, 0.00, 0.00, 0.00, 0.00, 0.00, 0.09, -0.94
137, 0.00, -159095.91, 0.00, 0.00, 0.00, 0.00, 0.00, 0.00, 0.00, 0.09, -0.94
138, 0.00, -158139.72, 0.00, 0.00, 0.00, 0.00, 0.00, 0.00, -0.00, 0.09, -0.94
139, 0.00, -157603.78, 0.00, 0.00, 0.00, 0.00, 0.00, 0.00, -0.00, 0.09, -0.94
140, 0.00, -158253.30, 0.00, 0.00, 0.00, 0.00, 0.00, 0.00, -0.00, 0.09, -0.94
141, 0.00, -158604.67, 0.00, 0.00, 0.00, 0.00, 0.00, 0.00, -0.00, 0.09, -0.94
142, 0.00, -157740.64, 0.00, 0.00, 0.00, 0.00, 0.00, 0.00, -0.00, 0.09, -0.94
143, 0.00, -156987.50, 0.00, 0.00, 0.00, 0.00, 0.00, 0.00, -0.01, 0.09, -0.94
144, 0.00, -157582.86, 0.00, 0.00, 0.00, 0.00, 0.00, 0.00, -0.01, 0.09, -0.94
145, 0.00, -158125.11, 0.00, 0.00, 0.00, 0.00, 0.00, 0.00, -0.01, 0.09, -0.94
146, 0.00, -157588.64, 0.00, 0.00, 0.00, 0.00, 0.00, 0.00, -0.01, 0.09, -0.94
147, 0.00, -156918.86, 0.00, 0.00, 0.00, 0.00, 0.00, 0.00, -0.01, 0.09, -0.94
148, 0.00, -157626.13, 0.00, 0.00, 0.00, 0.00, 0.00, 0.00, -0.01, 0.09, -0.94
149, 0.00, -158724.20, 0.00, 0.00, 0.00, 0.00, 0.00, 0.00, -0.01, 0.09, -0.94
150, 0.00, -158933.39, 0.00, 0.00, 0.00, 0.00, 0.00, 0.00, -0.01, 0.09, -0.94
151, 0.00, -158775.81, 0.00, 0.00, 0.00, 0.00, 0.00, 0.00, -0.01, 0.09, -0.94
152, 0.00, -159854.69, 0.00, 0.00, 0.00, 0.00, 0.00, 0.00, -0.01, 0.09, -0.94
153, 0.00, -161428.16, 0.00, 0.00, 0.00, 0.00, 0.00, 0.00, -0.01, 0.09, -0.95
154, 0.00, -161837.91, 0.00, 0.00, 0.00, 0.00, 0.00, 0.00, -0.01, 0.09, -0.95
155, 0.00, -161249.95, 0.00, 0.00, 0.00, 0.00, 0.00, 0.00, -0.01, 0.09, -0.95
156, 0.00, -161395.34, 0.00, 0.00, 0.00, 0.00, 0.00, 0.00, -0.01, 0.09, -0.95
157, 0.00, -162478.42, 0.00, 0.00, 0.00, 0.00, 0.00, 0.00, -0.01, 0.09, -0.95
158, 0.00, -163208.56, 0.00, 0.00, 0.00, 0.00, 0.00, 0.00, -0.02, 0.09, -0.93
159, 0.00, -162919.52, 0.00, 0.00, 0.00, 0.00, 0.00, 0.00, -0.02, 0.09, -0.93
160, 0.00, -163202.13, 0.00, 0.00, 0.00, 0.00, 0.00, 0.00, -0.02, 0.09, -0.93
161, 0.00, -164522.52, 0.00, 0.00, 0.00, 0.00, 0.00, 0.00, -0.02, 0.09, -0.93
162, 0.00, -165262.95, 0.00, 0.00, 0.00, 0.00, 0.00, 0.00, -0.02, 0.09, -0.93
163, 0.00, -164780.91, 0.00, 0.00, 0.00, 0.00, 0.00, 0.00, -0.02, 0.08, -0.94
164, 0.00, -164683.42, 0.00, 0.00, 0.00, 0.00, 0.00, 0.00, -0.02, 0.08, -0.94
165, 0.00, -165878.34, 0.00, 0.00, 0.00, 0.00, 0.00, 0.00, -0.02, 0.08, -0.94
166, 0.00, -166723.47, 0.00, 0.00, 0.00, 0.00, 0.00, 0.00, -0.02, 0.08, -0.94
167, 0.00, -166370.20, 0.00, 0.00, 0.00, 0.00, 0.00, 0.00, -0.02, 0.08, -0.94
168, 0.00, -165946.36, 0.00, 0.00, 0.00, 0.00, 0.00, 0.00, -0.01, 0.08, -0.94
169, 0.00, -166866.83, 0.00, 0.00, 0.00, 0.00, 0.00, 0.00, -0.01, 0.08, -0.94
170, 0.00, -167881.80, 0.00, 0.00, 0.00, 0.00, 0.00, 0.00, -0.01, 0.08, -0.94
171, 0.00, -167557.64, 0.00, 0.00, 0.00, 0.00, 0.00, 0.00, -0.01, 0.08, -0.94
172, 0.00, -166847.52, 0.00, 0.00, 0.00, 0.00, 0.00, 0.00, -0.01, 0.08, -0.94
173, 0.00, -167513.91, 0.00, 0.00, 0.00, 0.00, 0.00, 0.00, -0.01, 0.08, -0.93
174, 0.00, -168552.39, 0.00, 0.00, 0.00, 0.00, 0.00, 0.00, -0.01, 0.08, -0.93
175, 0.00, -168350.00, 0.00, 0.00, 0.00, 0.00, 0.00, 0.00, -0.01, 0.08, -0.93
176, 0.00, -167450.75, 0.00, 0.00, 0.00, 0.00, 0.00, 0.00, -0.01, 0.08, -0.93
177, 0.00, -167717.25, 0.00, 0.00, 0.00, 0.00, 0.00, 0.00, -0.01, 0.08, -0.93
178, 0.00, -168789.06, 0.00, 0.00, 0.00, 0.00, 0.00, 0.00, -0.02, 0.08, -0.93
179, 0.00, -168961.41, 0.00, 0.00, 0.00, 0.00, 0.00, 0.00, -0.02, 0.08, -0.93
180, 0.00, -168146.00, 0.00, 0.00, 0.00, 0.00, 0.00, 0.00, -0.02, 0.08, -0.93
181, 0.00, -168375.38, 0.00, 0.00, 0.00, 0.00, 0.00, 0.00, -0.02, 0.08, -0.93
182, 0.00, -169775.64, 0.00, 0.00, 0.00, 0.00, 0.00, 0.00, -0.02, 0.08, -0.93
183, 0.00, -170483.36, 0.00, 0.00, 0.00, 0.00, 0.00, 0.00, -0.02, 0.09, -0.93
184, 0.00, -170013.78, 0.00, 0.00, 0.00, 0.00, 0.00, 0.00, -0.02, 0.09, -0.93
185, 0.00, -170220.02, 0.00, 0.00, 0.00, 0.00, 0.00, 0.00, -0.02, 0.09, -0.93
186, 0.00, -171709.61, 0.00, 0.00, 0.00, 0.00, 0.00, 0.00, -0.02, 0.09, -0.93
187, 0.00, -172711.47, 0.00, 0.00, 0.00, 0.00, 0.00, 0.00, -0.02, 0.09, -0.93
188, 0.00, -172357.33, 0.00, 0.00, 0.00, 0.00, 0.00, 0.00, -0.01, 0.09, -0.94
189, 0.00, -172256.23, 0.00, 0.00, 0.00, 0.00, 0.00, 0.00, -0.01, 0.09, -0.94
190, 0.00, -173615.63, 0.00, 0.00, 0.00, 0.00, 0.00, 0.00, -0.01, 0.09, -0.94
191, 0.00, -174808.83, 0.00, 0.00, 0.00, 0.00, 0.00, 0.00, -0.01, 0.09, -0.94
192, 0.00, -174640.70, 0.00, 0.00, 0.00, 0.00, 0.00, 0.00, -0.01, 0.09, -0.94
193, 0.00, -174250.38, 0.00, 0.00, 0.00, 0.00, 0.00, 0.00, -0.01, 0.09, -0.93
194, 0.00, -175326.50, 0.00, 0.00, 0.00, 0.00, 0.00, 0.00, -0.01, 0.09, -0.93
195, 0.00, -176590.70, 0.00, 0.00, 0.00, 0.00, 0.00, 0.00, -0.01, 0.09, -0.93
196, 0.00, -176357.25, 0.00, 0.00, 0.00, 0.00, 0.00, 0.00, -0.01, 0.09, -0.93
197, 0.00, -175552.38, 0.00, 0.00, 0.00, 0.00, 0.00, 0.00, -0.01, 0.09, -0.93
198, 0.00, -176109.08, 0.00, 0.00, 0.00, 0.00, 0.00, 0.00, -0.01, 0.09, -0.93
199, 0.00, -177226.64, 0.00, 0.00, 0.00, 0.00, 0.00, 0.00, -0.01, 0.09, -0.93
200, 0.00, -177063.73, 0.00, 0.00, 0.00, 0.00, 0.00, 0.00, -0.01, 0.09, -0.93
201, 0.00, -176047.20, 0.00, 0.00, 0.00, 0.00, 0.00, 0.00, -0.01, 0.09, -0.93
202, 0.00, -176247.20, 0.00, 0.00, 0.00, 0.00, 0.00, 0.00, -0.01, 0.09, -0.93
203, 0.00, -177389.14, 0.00, 0.00, 0.00, 0.00, 0.00, 0.00, -0.01, 0.08, -0.94
204, 0.00, -177497.19, 0.00, 0.00, 0.00, 0.00, 0.00, 0.00, -0.01, 0.08, -0.94
205, 0.00, -176410.78, 0.00, 0.00, 0.00, 0.00, 0.00, 0.00, -0.01, 0.08, -0.94
206, 0.00, -176273.42, 0.00, 0.00, 0.00, 0.00, 0.00, 0.00, -0.01, 0.08, -0.94
207, 0.00, -177465.72, 0.00, 0.00, 0.00, 0.00, 0.00, 0.00, -0.01, 0.08, -0.94
208, 0.00, -177938.09, 0.00, 0.00, 0.00, 0.00, 0.00, 0.00, -0.01, 0.08, -0.93
209, 0.00, -176948.66, 0.00, 0.00, 0.00, 0.00, 0.00, 0.00, -0.01, 0.08, -0.93
210, 0.00, -176519.45, 0.00, 0.00, 0.00, 0.00, 0.00, 0.00, -0.01, 0.08, -0.93
211, 0.00, -177551.56, 0.00, 0.00, 0.00, 0.00, 0.00, 0.00, -0.01, 0.08, -0.93
212, 0.00, -178101.69, 0.00, 0.00, 0.00, 0.00, 0.00, 0.00, -0.01, 0.08, -0.93
213, 0.00, -177168.91, 0.00, 0.00, 0.00, 0.00, 0.00, 0.00, -0.01, 0.08, -0.93
214, 0.00, -176382.86, 0.00, 0.00, 0.00, 0.00, 0.00, 0.00, -0.01, 0.09, -0.93
215, 0.00, -177150.52, 0.00, 0.00, 0.00, 0.00, 0.00, 0.00, -0.01, 0.09, -0.93
216, 0.00, -177844.69, 0.00, 0.00, 0.00, 0.00, 0.00, 0.00, -0.01, 0.09, -0.93
217, 0.00, -177031.75, 0.00, 0.00, 0.00, 0.00, 0.00, 0.00, -0.01, 0.09, -0.93
218, 0.00, -175950.27, 0.00, 0.00, 0.00, 0.00, 0.00, 0.00, -0.01, 0.09, -0.93
219, 0.00, -176393.56, 0.00, 0.00, 0.00, 0.00, 0.00, 0.00, -0.01, 0.10, -0.94
220, 0.00, -177263.45, 0.00, 0.00, 0.00, 0.00, 0.00, 0.00, -0.01, 0.10, -0.94
221, 0.00, -176707.44, 0.00, 0.00, 0.00, 0.00, 0.00, 0.00, -0.01, 0.10, -0.94
222, 0.00, -175470.83, 0.00, 0.00, 0.00, 0.00, 0.00, 0.00, -0.01, 0.10, -0.94
223, 0.00, -175789.02, 0.00, 0.00, 0.00, 0.00, 0.00, 0.00, -0.01, 0.10, -0.94
224, 0.00, -176858.69, 0.00, 0.00, 0.00, 0.00, 0.00, 0.00, -0.01, 0.09, -0.95
225, 0.00, -176566.08, 0.00, 0.00, 0.00, 0.00, 0.00, 0.00, -0.01, 0.09, -0.95
226, 0.00, -175148.47, 0.00, 0.00, 0.00, 0.00, 0.00, 0.00, -0.01, 0.09, -0.95
227, 0.00, -174945.17, 0.00, 0.00, 0.00, 0.00, 0.00, 0.00, -0.01, 0.09, -0.95
228, 0.00, -175857.31, 0.00, 0.00, 0.00, 0.00, 0.00, 0.00, -0.01, 0.09, -0.95
229, 0.00, -175734.55, 0.00, 0.00, 0.00, 0.00, 0.00, 0.00, -0.01, 0.08, -0.94
230, 0.00, -174348.31, 0.00, 0.00, 0.00, 0.00, 0.00, 0.00, -0.01, 0.08, -0.94
231, 0.00, -173845.48, 0.00, 0.00, 0.00, 0.00, 0.00, 0.00, -0.01, 0.08, -0.94
232, 0.00, -174678.88, 0.00, 0.00, 0.00, 0.00, 0.00, 0.00, -0.01, 0.08, -0.94
233, 0.00, -174817.50, 0.00, 0.00, 0.00, 0.00, 0.00, 0.00, -0.01, 0.08, -0.94
234, 0.00, -173511.27, 0.00, 0.00, 0.00, 0.00, 0.00, 0.00, -0.01, 0.08, -0.93
235, 0.00, -172647.45, 0.00, 0.00, 0.00, 0.00, 0.00, 0.00, -0.01, 0.08, -0.93
236, 0.00, -173371.13, 0.00, 0.00, 0.00, 0.00, 0.00, 0.00, -0.01, 0.08, -0.93
237, 0.00, -173778.64, 0.00, 0.00, 0.00, 0.00, 0.00, 0.00, -0.01, 0.08, -0.93
238, 0.00, -172643.69, 0.00, 0.00, 0.00, 0.00, 0.00, 0.00, -0.01, 0.08, -0.93
239, 0.00, -171507.34, 0.00, 0.00, 0.00, 0.00, 0.00, 0.00, -0.01, 0.08, -0.93
240, 0.00, -172039.45, 0.00, 0.00, 0.00, 0.00, 0.00, 0.00, -0.01, 0.08, -0.93
241, 0.00, -172647.59, 0.00, 0.00, 0.00, 0.00, 0.00, 0.00, -0.01, 0.08, -0.93
1, 0.00, 4983.28, 0.00, 0.00, 0.00, 0.00, 0.00, 0.00, -0.01, 0.08, -0.94
2, 0.00, 5001.49, 0.00, 0.00, 0.00, 0.00, 0.00, 0.00, -0.01, 0.08, -0.94
3, 0.00, 5024.47, 0.00, 0.00, 0.00, 0.00, 0.00, 0.00, -0.01, 0.08, -0.94
4, 0.00, 5031.33, 0.00, 0.00, 0.00, 0.00, 0.00, 0.00, -0.01, 0.08, -0.94
5, 0.00, 5035.13, 0.00, 0.00, 0.00, 0.00, 0.00, 0.00, -0.01, 0.08, -0.94
6, 0.00, 5056.28, 0.00, 0.00, 0.00, 0.00, 0.00, 0.00, -0.01, 0.08, -0.94
7, 0.00, 5068.77, 0.00, 0.00, 0.00, 0.00, 0.00, 0.00, -0.01, 0.08, -0.93
8, 0.00, 5097.65, 0.00, 0.00, 0.00, 0.00, 0.00, 0.00, -0.01, 0.08, -0.93
9, 0.00, 5111.31, 0.00, 0.00, 0.00, 0.00, 0.00, 0.00, -0.01, 0.08, -0.93
10, 0.00, 5125.43, 0.00, 0.00, 0.00, 0.00, 0.00, 0.00, -0.01, 0.08, -0.93
11, 0.00, 5142.49, 0.00, 0.00, 0.00, 0.00, 0.00, 0.00, -0.01, 0.08, -0.93
12, 0.00, 5146.06, 0.00, 0.00, 0.00, 0.00, 0.00, 0.00, -0.00, 0.08, -0.93
13, 0.00, 5154.45, 0.00, 0.00, 0.00, 0.00, 0.00, 0.00, -0.00, 0.08, -0.93
14, 0.00, 5169.58, 0.00, 0.00, 0.00, 0.00, 0.00, 0.00, -0.00, 0.08, -0.93
15, 0.00, 5181.40, 0.00, 0.00, 0.00, 0.00, 0.00, 0.00, -0.00, 0.08, -0.93
16, 0.00, 5228.16, 0.00, 0.00, 0.00, 0.00, 0.00, 0.00, -0.00, 0.08, -0.93
17, 0.00, 5261.42, 0.00, 0.00, 0.00, 0.00, 0.00, 0.00, -0.00, 0.08, -0.93
18, 0.00, 5254.43, 0.00, 0.00, 0.00, 0.00, 0.00, 0.00, -0.00, 0.08, -0.93
19, 0.00, 5273.36, 0.00, 0.00, 0.00, 0.00, 0.00, 0.00, -0.00, 0.08, -0.93
20, 0.00, 5263.52, 0.00, 0.00, 0.00, 0.00, 0.00, 0.00, -0.00, 0.08, -0.93
21, 0.00, 5244.39, 0.00, 0.00, 0.00, 0.00, 0.00, 0.00, -0.00, 0.08, -0.93
22, 0.00, 5245.35, 0.00, 0.00, 0.00, 0.00, 0.00, 0.00, -0.00, 0.08, -0.93
23, 0.00, 5283.01, 0.00, 0.00, 0.00, 0.00, 0.00, 0.00, -0.00, 0.08, -0.93
24, 0.00, 5286.86, 0.00, 0.00, 0.00, 0.00, 0.00, 0.00, -0.00, 0.08, -0.93
25, 0.00, 5287.17, 0.00, 0.00, 0.00, 0.00, 0.00, 0.00, -0.00, 0.08, -0.93
26, 0.00, 5264.91, 0.00, 0.00, 0.00, 0.00, 0.00, 0.00, -0.00, 0.08, -0.93
27, 0.00, 5285.11, 0.00, 0.00, 0.00, 0.00, 0.00, 0.00, -0.01, 0.08, -0.93
28, 0.00, 5296.63, 0.00, 0.00, 0.00, 0.00, 0.00, 0.00, -0.01, 0.08, -0.93
29, 0.00, 5333.71, 0.00, 0.00, 0.00, 0.00, 0.00, 0.00, -0.01, 0.08, -0.93
30, 0.00, 5372.35, 0.00, 0.00, 0.00, 0.00, 0.00, 0.00, -0.01, 0.08, -0.93
31, 0.00, 5389.43, 0.00, 0.00, 0.00, 0.00, 0.00, 0.00, -0.01, 0.08, -0.93
32, 0.00, 5361.02, 0.00, 0.00, 0.00, 0.00, 0.00, 0.00, -0.00, 0.08, -0.94
33, 0.00, 5387.40, 0.00, 0.00, 0.00, 0.00, 0.00, 0.00, -0.00, 0.08, -0.94
34, 0.00, 5342.87, 0.00, 0.00, 0.00, 0.00, 0.00, 0.00, -0.00, 0.08, -0.94
35, 0.00, 5380.06, 0.00, 0.00, 0.00, 0.00, 0.00, 0.00, -0.00, 0.08, -0.94
36, 0.00, 5458.25, 0.00, 0.00, 0.00, 0.00, 0.00, 0.00, -0.00, 0.08, -0.94
37, 0.00, 5430.51, 0.00, 0.00, 0.00, 0.00, 0.00, 0.00, -0.01, 0.08, -0.94
38, 0.00, 5440.50, 0.00, 0.00, 0.00, 0.00, 0.00, 0.00, -0.01, 0.08, -0.94
39, 0.00, 5479.78, 0.00, 0.00, 0.00, 0.00, 0.00, 0.00, -0.01, 0.08, -0.94
40, 0.00, 5487.00, 0.00, 0.00, 0.00, 0.00, 0.00, 0.00, -0.01, 0.08, -0.94
41, 0.00, 5496.76, 0.00, 0.00, 0.00, 0.00, 0.00, 0.00, -0.01, 0.08, -0.94
42, 0.00, 5515.87, 0.00, 0.00, 0.00, 0.00, 0.00, 0.00, -0.02, 0.07, -0.94
43, 0.00, 5516.50, 0.00, 0.00, 0.00, 0.00, 0.00, 0.00, -0.02, 0.07, -0.94
44, 0.00, 5522.33, 0.00, 0.00, 0.00, 0.00, 0.00, 0.00, -0.02, 0.07, -0.94
45, 0.00, 5548.22, 0.00, 0.00, 0.00, 0.00, 0.00, 0.00, -0.02, 0.07, -0.94
46, 0.00, 5535.61, 0.00, 0.00, 0.00, 0.00, 0.00, 0.00, -0.02, 0.07, -0.94
47, 0.00, 5555.15, 0.00, 0.00, 0.00, 0.00, 0.00, 0.00, -0.01, 0.08, -0.93
48, 0.00, 5579.76, 0.00, 0.00, 0.00, 0.00, 0.00, 0.00, -0.01, 0.08, -0.93
49, 0.00, 5583.00, 0.00, 0.00, 0.00, 0.00, 0.00, 0.00, -0.01, 0.08, -0.93
50, 0.00, 5590.69, 0.00, 0.00, 0.00, 0.00, 0.00, 0.00, -0.01, 0.08, -0.93
51, 0.00, 5602.84, 0.00, 0.00, 0.00, 0.00, 0.00, 0.00, -0.01, 0.08, -0.93
52, 0.00, 5614.42, 0.00, 0.00, 0.00, 0.00, 0.00, 0.00, -0.01, 0.08, -0.93
53, 0.00, 5631.14, 0.00, 0.00, 0.00, 0.00, 0.00, 0.00, -0.01, 0.08, -0.93
54, 0.00, 5642.83, 0.00, 0.00, 0.00, 0.00, 0.00, 0.00, -0.01, 0.08, -0.93
55, 0.00, 5646.52, 0.00, 0.00, 0.00, 0.00, 0.00, 0.00, -0.01, 0.08, -0.93
56, 0.00, 5653.85, 0.00, 0.00, 0.00, 0.00, 0.00, 0.00, -0.01, 0.08, -0.93
57, 0.00, 5671.55, 0.00, 0.00, 0.00, 0.00, 0.00, 0.00, -0.01, 0.08, -0.93
58, 0.00, 5701.01, 0.00, 0.00, 0.00, 0.00, 0.00, 0.00, -0.01, 0.08, -0.93
59, 0.00, 5698.58, 0.00, 0.00, 0.00, 0.00, 0.00, 0.00, -0.01, 0.08, -0.93
60, 0.00, 5713.58, 0.00, 0.00, 0.00, 0.00, 0.00, 0.00, -0.01, 0.08, -0.93
61, 0.00, 5726.58, 0.00, 0.00, 0.00, 0.00, 0.00, 0.00, -0.01, 0.08, -0.93
62, 0.00, 5742.59, 0.00, 0.00, 0.00, 0.00, 0.00, 0.00, 0.00, 0.08, -0.93
63, 0.00, 5752.49, 0.00, 0.00, 0.00, 0.00, 0.00, 0.00, 0.00, 0.08, -0.93
64, 0.00, 5762.23, 0.00, 0.00, 0.00, 0.00, 0.00, 0.00, 0.00, 0.08, -0.93
65, 0.00, 5772.07, 0.00, 0.00, 0.00, 0.00, 0.00, 0.00, 0.00, 0.08, -0.93
66, 0.00, 5777.12, 0.00, 0.00, 0.00, 0.00, 0.00, 0.00, 0.00, 0.08, -0.93
67, 0.00, 5806.45, 0.00, 0.00, 0.00, 0.00, 0.00, 0.00, -0.01, 0.08, -0.94
68, 0.00, 5807.90, 0.00, 0.00, 0.00, 0.00, 0.00, 0.00, -0.01, 0.08, -0.94
69, 0.00, 5812.12, 0.00, 0.00, 0.00, 0.00, 0.00, 0.00, -0.01, 0.08, -0.94
70, 0.00, 5836.33, 0.00, 0.00, 0.00, 0.00, 0.00, 0.00, -0.01, 0.08, -0.94
71, 0.00, 5848.15, 0.00, 0.00, 0.00, 0.00, 0.00, 0.00, -0.01, 0.08, -0.94
72, 0.00, 5860.60, 0.00, 0.00, 0.00, 0.00, 0.00, 0.00, 0.00, 0.08, -0.94
73, 0.00, 5867.98, 0.00, 0.00, 0.00, 0.00, 0.00, 0.00, 0.00, 0.08, -0.94
74, 0.00, 5875.33, 0.00, 0.00, 0.00, 0.00, 0.00, 0.00, 0.00, 0.08, -0.94
75, 0.00, 5885.46, 0.00, 0.00, 0.00, 0.00, 0.00, 0.00, 0.00, 0.08, -0.94
76, 0.00, 5905.53, 0.00, 0.00, 0.00, 0.00, 0.00, 0.00, 0.00, 0.08, -0.94
77, 0.00, 5910.16, 0.00, 0.00, 0.00, 0.00, 0.00, 0.00, -0.01, 0.07, -0.94
78, 0.00, 5910.96, 0.00, 0.00, 0.00, 0.00, 0.00, 0.00, -0.01, 0.07, -0.94
79, 0.00, 5928.11, 0.00, 0.00, 0.00, 0.00, 0.00, 0.00, -0.01, 0.07, -0.94
80, 0.00, 5944.78, 0.00, 0.00, 0.00, 0.00, 0.00, 0.00, -0.01, 0.07, -0.94
81, 0.00, 5956.54, 0.00, 0.00, 0.00, 0.00, 0.00, 0.00, -0.01, 0.07, -0.94
82, 0.00, 5953.34, 0.00, 0.00, 0.00, 0.00, 0.00, 0.00, -0.01, 0.07, -0.94
83, 0.00, 5973.48, 0.00, 0.00, 0.00, 0.00, 0.00, 0.00, -0.01, 0.07, -0.94
84, 0.00, 5980.75, 0.00, 0.00, 0.00, 0.00, 0.00, 0.00, -0.01, 0.07, -0.94
85, 0.00, 5992.90, 0.00, 0.00, 0.00, 0.00, 0.00, 0.00, -0.01, 0.07, -0.94
86, 0.00, 6013.60, 0.00, 0.00, 0.00, 0.00, 0.00, 0.00, -0.01, 0.07, -0.94
87, 0.00, 5991.59, 0.00, 0.00, 0.00, 0.00, 0.00, 0.00, -0.01, 0.08, -0.94
88, 0.00, 5999.59, 0.00, 0.00, 0.00, 0.00, 0.00, 0.00, -0.01, 0.08, -0.94
89, 0.00, 6008.89, 0.00, 0.00, 0.00, 0.00, 0.00, 0.00, -0.01, 0.08, -0.94
90, 0.00, 6012.84, 0.00, 0.00, 0.00, 0.00, 0.00, 0.00, -0.01, 0.08, -0.94
91, 0.00, 6029.74, 0.00, 0.00, 0.00, 0.00, 0.00, 0.00, -0.01, 0.08, -0.94
92, 0.00, 6028.20, 0.00, 0.00, 0.00, 0.00, 0.00, 0.00, -0.01, 0.08, -0.94
93, 0.00, 6025.31, 0.00, 0.00, 0.00, 0.00, 0.00, 0.00, -0.01, 0.08, -0.94
94, 0.00, 6043.02, 0.00, 0.00, 0.00, 0.00, 0.00, 0.00, -0.01, 0.08, -0.94
95, 0.00, 6051.20, 0.00, 0.00, 0.00, 0.00, 0.00, 0.00, -0.01, 0.08, -0.94
96, 0.00, 6064.79, 0.00, 0.00, 0.00, 0.00, 0.00, 0.00, -0.01, 0.08, -0.94
97, 0.00, 6065.95, 0.00, 0.00, 0.00, 0.00, 0.00, 0.00, -0.01, 0.08, -0.94
98, 0.00, 6072.30, 0.00, 0.00, 0.00, 0.00, 0.00, 0.00, -0.01, 0.08, -0.94
99, 0.00, 6087.16, 0.00, 0.00, 0.00, 0.00, 0.00, 0.00, -0.01, 0.08, -0.94
100, 0.00, 6107.26, 0.00, 0.00, 0.00, 0.00, 0.00, 0.00, -0.01, 0.08, -0.94
101, 0.00, 6118.50, 0.00, 0.00, 0.00, 0.00, 0.00, 0.00, -0.01, 0.08, -0.94
102, 0.00, 6112.29, 0.00, 0.00, 0.00, 0.00, 0.00, 0.00, -0.01, 0.08, -0.94
103, 0.00, 6119.06, 0.00, 0.00, 0.00, 0.00, 0.00, 0.00, -0.01, 0.08, -0.94
104, 0.00, 6130.37, 0.00, 0.00, 0.00, 0.00, 0.00, 0.00, -0.01, 0.08, -0.94
105, 0.00, 6153.64, 0.00, 0.00, 0.00, 0.00, 0.00, 0.00, -0.01, 0.08, -0.94
106, 0.00, 6150.02, 0.00, 0.00, 0.00, 0.00, 0.00, 0.00, -0.01, 0.08, -0.94
107, 0.00, 6158.89, 0.00, 0.00, 0.00, 0.00, 0.00, 0.00, -0.00, 0.07, -0.94
108, 0.00, 6169.35, 0.00, 0.00, 0.00, 0.00, 0.00, 0.00, -0.00, 0.07, -0.94
109, 0.00, 6175.72, 0.00, 0.00, 0.00, 0.00, 0.00, 0.00, -0.00, 0.07, -0.94
110, 0.00, 6189.33, 0.00, 0.00, 0.00, 0.00, 0.00, 0.00, -0.00, 0.07, -0.94
111, 0.00, 6204.13, 0.00, 0.00, 0.00, 0.00, 0.00, 0.00, -0.00, 0.07, -0.94
112, 0.00, 6217.20, 0.00, 0.00, 0.00, 0.00, 0.00, 0.00, -0.00, 0.08, -0.94
113, 0.00, 6226.44, 0.00, 0.00, 0.00, 0.00, 0.00, 0.00, -0.00, 0.08, -0.94
114, 0.00, 6226.59, 0.00, 0.00, 0.00, 0.00, 0.00, 0.00, -0.00, 0.08, -0.94
115, 0.00, 6234.30, 0.00, 0.00, 0.00, 0.00, 0.00, 0.00, -0.00, 0.08, -0.94
116, 0.00, 6245.64, 0.00, 0.00, 0.00, 0.00, 0.00, 0.00, -0.00, 0.08, -0.94
117, 0.00, 6257.21, 0.00, 0.00, 0.00, 0.00, 0.00, 0.00, -0.00, 0.07, -0.94
118, 0.00, 6252.39, 0.00, 0.00, 0.00, 0.00, 0.00, 0.00, -0.00, 0.07, -0.94
119, 0.00, 6268.23, 0.00, 0.00, 0.00, 0.00, 0.00, 0.00, -0.00, 0.07, -0.94
120, 0.00, 6281.47, 0.00, 0.00, 0.00, 0.00, 0.00, 0.00, -0.00, 0.07, -0.94
121, 0.00, 6291.12, 0.00, 0.00, 0.00, 0.00, 0.00, 0.00, -0.00, 0.07, -0.94
122, 0.00, 6301.31, 0.00, 0.00, 0.00, 0.00, 0.00, 0.00, -0.00, 0.08, -0.94
123, 0.00, 6297.47, 0.00, 0.00, 0.00, 0.00, 0.00, 0.00, -0.00, 0.08, -0.94
124, 0.00, 6313.52, 0.00, 0.00, 0.00, 0.00, 0.00, 0.00, -0.00, 0.08, -0.94
125, 0.00, 6332.74, 0.00, 0.00, 0.00, 0.00, 0.00, 0.00, -0.00, 0.08, -0.94
126, 0.00, 6339.27, 0.00, 0.00, 0.00, 0.00, 0.00, 0.00, -0.00, 0.08, -0.94
127, 0.00, 6338.60, 0.00, 0.00, 0.00, 0.00, 0.00, 0.00, -0.00, 0.08, -0.94
128, 0.00, 6354.18, 0.00, 0.00, 0.00, 0.00, 0.00, 0.00, -0.00, 0.08, -0.94
129, 0.00, 6377.31, 0.00, 0.00, 0.00, 0.00, 0.00, 0.00, -0.00, 0.08, -0.94
130, 0.00, 6382.63, 0.00, 0.00, 0.00, 0.00, 0.00, 0.00, -0.00, 0.08, -0.94
131, 0.00, 6378.67, 0.00, 0.00, 0.00, 0.00, 0.00, 0.00, -0.00, 0.08, -0.94
132, 0.00, 6383.90, 0.00, 0.00, 0.00, 0.00, 0.00, 0.00, 0.00, 0.08, -0.94
133, 0.00, 6406.64, 0.00, 0.00, 0.00, 0.00, 0.00, 0.00, 0.00, 0.08, -0.94
134, 0.00, 6418.53, 0.00, 0.00, 0.00, 0.00, 0.00, 0.00, 0.00, 0.08, -0.94
135, 0.00, 6412.74, 0.00, 0.00, 0.00, 0.00, 0.00, 0.00, 0.00, 0.08, -0.94
136, 0.00, 6423.67, 0.00, 0.00, 0.00, 0.00, 0.00, 0.00, 0.00, 0.08, -0.94
137, 0.00, 6437.82, 0.00, 0.00, 0.00, 0.00, 0.00, 0.00, 0.00, 0.08, -0.93
138, 0.00, 6461.29, 0.00, 0.00, 0.00, 0.00, 0.00, 0.00, 0.00, 0.08, -0.93
139, 0.00, 6450.85, 0.00, 0.00, 0.00, 0.00, 0.00, 0.00, 0.00, 0.08, -0.93
140, 0.00, 6471.77, 0.00, 0.00, 0.00, 0.00, 0.00, 0.00, 0.00, 0.08, -0.93
141, 0.00, 6466.90, 0.00, 0.00, 0.00, 0.00, 0.00, 0.00, 0.00, 0.08, -0.93
142, 0.00, 6471.75, 0.00, 0.00, 0.00, 0.00, 0.00, 0.00, 0.00, 0.08, -0.93
143, 0.00, 6483.95, 0.00, 0.00, 0.00, 0.00, 0.00, 0.00, -0.01, 0.07, -0.94
144, 0.00, 6498.05, 0.00, 0.00, 0.00, 0.00, 0.00, 0.00, -0.01, 0.07, -0.94
145, 0.00, 6518.06, 0.00, 0.00, 0.00, 0.00, 0.00, 0.00, -0.01, 0.07, -0.94
146, 0.00, 6527.78, 0.00, 0.00, 0.00, 0.00, 0.00, 0.00, -0.01, 0.07, -0.94
147, 0.00, 6521.19, 0.00, 0.00, 0.00, 0.00, 0.00, 0.00, -0.01, 0.07, -0.94
148, 0.00, 6523.87, 0.00, 0.00, 0.00, 0.00, 0.00, 0.00, -0.01, 0.08, -0.93
149, 0.00, 6533.03, 0.00, 0.00, 0.00, 0.00, 0.00, 0.00, -0.01, 0.08, -0.93
150, 0.00, 6553.96, 0.00, 0.00, 0.00, 0.00, 0.00, 0.00, -0.01, 0.08, -0.93
151, 0.00, 6559.63, 0.00, 0.00, 0.00, 0.00, 0.00, 0.00, -0.01, 0.08, -0.93
152, 0.00, 6562.20, 0.00, 0.00, 0.00, 0.00, 0.00, 0.00, -0.01, 0.08, -0.93
153, 0.00, 6564.48, 0.00, 0.00, 0.00, 0.00, 0.00, 0.00, -0.01, 0.08, -0.93
154, 0.00, 6569.98, 0.00, 0.00, 0.00, 0.00, 0.00, 0.00, -0.01, 0.08, -0.93
155, 0.00, 6588.53, 0.00, 0.00, 0.00, 0.00, 0.00, 0.00, -0.01, 0.08, -0.93
156, 0.00, 6583.21, 0.00, 0.00, 0.00, 0.00, 0.00, 0.00, -0.01, 0.08, -0.93
157, 0.00, 6565.91, 0.00, 0.00, 0.00, 0.00, 0.00, 0.00, -0.01, 0.08, -0.93
158, 0.00, 6572.62, 0.00, 0.00, 0.00, 0.00, 0.00, 0.00, -0.01, 0.08, -0.93
159, 0.00, 6617.03, 0.00, 0.00, 0.00, 0.00, 0.00, 0.00, -0.01, 0.08, -0.93
160, 0.00, 6603.62, 0.00, 0.00, 0.00, 0.00, 0.00, 0.00, -0.01, 0.08, -0.93
161, 0.00, 6625.82, 0.00, 0.00, 0.00, 0.00, 0.00, 0.00, -0.01, 0.08, -0.93
162, 0.00, 6645.82, 0.00, 0.00, 0.00, 0.00, 0.00, 0.00, -0.01, 0.08, -0.93
163, 0.00, 6639.41, 0.00, 0.00, 0.00, 0.00, 0.00, 0.00, -0.00, 0.08, -0.94
164, 0.00, 6635.54, 0.00, 0.00, 0.00, 0.00, 0.00, 0.00, -0.00, 0.08, -0.94
165, 0.00, 6645.53, 0.00, 0.00, 0.00, 0.00, 0.00, 0.00, -0.00, 0.08, -0.94
166, 0.00, 6646.25, 0.00, 0.00, 0.00, 0.00, 0.00, 0.00, -0.00, 0.08, -0.94
167, 0.00, 6662.56, 0.00, 0.00, 0.00, 0.00, 0.00, 0.00, -0.00, 0.08, -0.94
168, 0.00, 6691.31, 0.00, 0.00, 0.00, 0.00, 0.00, 0.00, -0.01, 0.08, -0.95
169, 0.00, 6705.59, 0.00, 0.00, 0.00, 0.00, 0.00, 0.00, -0.01, 0.08, -0.95
170, 0.00, 6703.98, 0.00, 0.00, 0.00, 0.00, 0.00, 0.00, -0.01, 0.08, -0.95
171, 0.00, 6701.48, 0.00, 0.00, 0.00, 0.00, 0.00, 0.00, -0.01, 0.08, -0.95
172, 0.00, 6697.97, 0.00, 0.00, 0.00, 0.00, 0.00, 0.00, -0.01, 0.08, -0.95
173, 0.00, 6709.08, 0.00, 0.00, 0.00, 0.00, 0.00, 0.00, -0.01, 0.08, -0.94
174, 0.00, 6713.19, 0.00, 0.00, 0.00, 0.00, 0.00, 0.00, -0.01, 0.08, -0.94
175, 0.00, 6720.28, 0.00, 0.00, 0.00, 0.00, 0.00, 0.00, -0.01, 0.08, -0.94
176, 0.00, 6707.96, 0.00, 0.00, 0.00, 0.00, 0.00, 0.00, -0.01, 0.08, -0.94
177, 0.00, 6745.06, 0.00, 0.00, 0.00, 0.00, 0.00, 0.00, -0.01, 0.08, -0.94
178, 0.00, 6760.37, 0.00, 0.00, 0.00, 0.00, 0.00, 0.00, 0.00, 0.08, -0.94
179, 0.00, 6770.77, 0.00, 0.00, 0.00, 0.00, 0.00, 0.00, 0.00, 0.08, -0.94
180, 0.00, 6776.91, 0.00, 0.00, 0.00, 0.00, 0.00, 0.00, 0.00, 0.08, -0.94
181, 0.00, 6780.31, 0.00, 0.00, 0.00, 0.00, 0.00, 0.00, 0.00, 0.08, -0.94
182, 0.00, 6773.65, 0.00, 0.00, 0.00, 0.00, 0.00, 0.00, 0.00, 0.08, -0.94
183, 0.00, 6796.74, 0.00, 0.00, 0.00, 0.00, 0.00, 0.00, -0.01, 0.08, -0.93
184, 0.00, 6786.28, 0.00, 0.00, 0.00, 0.00, 0.00, 0.00, -0.01, 0.08, -0.93
185, 0.00, 6798.80, 0.00, 0.00, 0.00, 0.00, 0.00, 0.00, -0.01, 0.08, -0.93
186, 0.00, 6819.25, 0.00, 0.00, 0.00, 0.00, 0.00, 0.00, -0.01, 0.08, -0.93
187, 0.00, 6810.67, 0.00, 0.00, 0.00, 0.00, 0.00, 0.00, -0.01, 0.08, -0.93
188, 0.00, 6810.69, 0.00, 0.00, 0.00, 0.00, 0.00, 0.00, -0.01, 0.08, -0.94
189, 0.00, 6824.86, 0.00, 0.00, 0.00, 0.00, 0.00, 0.00, -0.01, 0.08, -0.94
190, 0.00, 6828.37, 0.00, 0.00, 0.00, 0.00, 0.00, 0.00, -0.01, 0.08, -0.94
191, 0.00, 6842.52, 0.00, 0.00, 0.00, 0.00, 0.00, 0.00, -0.01, 0.08, -0.94
192, 0.00, 6852.69, 0.00, 0.00, 0.00, 0.00, 0.00, 0.00, -0.01, 0.08, -0.94
193, 0.00, 6855.23, 0.00, 0.00, 0.00, 0.00, 0.00, 0.00, -0.01, 0.08, -0.94
194, 0.00, 6876.20, 0.00, 0.00, 0.00, 0.00, 0.00, 0.00, -0.01, 0.08, -0.94
195, 0.00, 6885.32, 0.00, 0.00, 0.00, 0.00, 0.00, 0.00, -0.01, 0.08, -0.94
196, 0.00, 6882.24, 0.00, 0.00, 0.00, 0.00, 0.00, 0.00, -0.01, 0.08, -0.94
197, 0.00, 6890.80, 0.00, 0.00, 0.00, 0.00, 0.00, 0.00, -0.01, 0.08, -0.94
198, 0.00, 6901.10, 0.00, 0.00, 0.00, 0.00, 0.00, 0.00, -0.01, 0.08, -0.94
199, 0.00, 6912.03, 0.00, 0.00, 0.00, 0.00, 0.00, 0.00, -0.01, 0.08, -0.94
200, 0.00, 6913.98, 0.00, 0.00, 0.00, 0.00, 0.00, 0.00, -0.01, 0.08, -0.94
201, 0.00, 6906.60, 0.00, 0.00, 0.00, 0.00, 0.00, 0.00, -0.01, 0.08, -0.94
202, 0.00, 6900.34, 0.00, 0.00, 0.00, 0.00, 0.00, 0.00, -0.01, 0.08, -0.94
203, 0.00, 6918.89, 0.00, 0.00, 0.00, 0.00, 0.00, 0.00, -0.01, 0.08, -0.94
204, 0.00, 6929.76, 0.00, 0.00, 0.00, 0.00, 0.00, 0.00, -0.01, 0.08, -0.94
205, 0.00, 6928.12, 0.00, 0.00, 0.00, 0.00, 0.00, 0.00, -0.01, 0.08, -0.94
206, 0.00, 6947.44, 0.00, 0.00, 0.00, 0.00, 0.00, 0.00, -0.01, 0.08, -0.94
207, 0.00, 6958.77, 0.00, 0.00, 0.00, 0.00, 0.00, 0.00, -0.01, 0.08, -0.94
208, 0.00, 6961.58, 0.00, 0.00, 0.00, 0.00, 0.00, 0.00, -0.01, 0.09, -0.95
209, 0.00, 6977.72, 0.00, 0.00, 0.00, 0.00, 0.00, 0.00, -0.01, 0.09, -0.95
210, 0.00, 6986.55, 0.00, 0.00, 0.00, 0.00, 0.00, 0.00, -0.01, 0.09, -0.95
211, 0.00, 7005.06, 0.00, 0.00, 0.00, 0.00, 0.00, 0.00, -0.01, 0.09, -0.95
212, 0.00, 7004.41, 0.00, 0.00, 0.00, 0.00, 0.00, 0.00, -0.01, 0.09, -0.95
213, 0.00, 7011.00, 0.00, 0.00, 0.00, 0.00, 0.00, 0.00, -0.01, 0.08, -0.94
214, 0.00, 7024.24, 0.00, 0.00, 0.00, 0.00, 0.00, 0.00, -0.01, 0.08, -0.94
215, 0.00, 7031.10, 0.00, 0.00, 0.00, 0.00, 0.00, 0.00, -0.01, 0.08, -0.94
216, 0.00, 7034.09, 0.00, 0.00, 0.00, 0.00, 0.00, 0.00, -0.01, 0.08, -0.94
217, 0.00, 7062.59, 0.00, 0.00, 0.00, 0.00, 0.00, 0.00, -0.01, 0.08, -0.94
218, 0.00, 7074.86, 0.00, 0.00, 0.00, 0.00, 0.00, 0.00, -0.01, 0.08, -0.94
219, 0.00, 7075.24, 0.00, 0.00, 0.00, 0.00, 0.00, 0.00, -0.01, 0.08, -0.94
220, 0.00, 7085.70, 0.00, 0.00, 0.00, 0.00, 0.00, 0.00, -0.01, 0.08, -0.94
221, 0.00, 7108.12, 0.00, 0.00, 0.00, 0.00, 0.00, 0.00, -0.01, 0.08, -0.94
222, 0.00, 7121.51, 0.00, 0.00, 0.00, 0.00, 0.00, 0.00, -0.01, 0.08, -0.94
223, 0.00, 7116.06, 0.00, 0.00, 0.00, 0.00, 0.00, 0.00, -0.01, 0.08, -0.93
224, 0.00, 7133.87, 0.00, 0.00, 0.00, 0.00, 0.00, 0.00, -0.01, 0.08, -0.93
225, 0.00, 7167.22, 0.00, 0.00, 0.00, 0.00, 0.00, 0.00, -0.01, 0.08, -0.93
226, 0.00, 7137.22, 0.00, 0.00, 0.00, 0.00, 0.00, 0.00, -0.01, 0.08, -0.93
227, 0.00, 7130.85, 0.00, 0.00, 0.00, 0.00, 0.00, 0.00, -0.01, 0.08, -0.93
228, 0.00, 7151.71, 0.00, 0.00, 0.00, 0.00, 0.00, 0.00, -0.01, 0.08, -0.93
229, 0.00, 7176.23, 0.00, 0.00, 0.00, 0.00, 0.00, 0.00, -0.01, 0.08, -0.93
230, 0.00, 7171.09, 0.00, 0.00, 0.00, 0.00, 0.00, 0.00, -0.01, 0.08, -0.93
231, 0.00, 7160.16, 0.00, 0.00, 0.00, 0.00, 0.00, 0.00, -0.01, 0.08, -0.93
232, 0.00, 7186.69, 0.00, 0.00, 0.00, 0.00, 0.00, 0.00, -0.01, 0.08, -0.93
233, 0.00, 7205.93, 0.00, 0.00, 0.00, 0.00, 0.00, 0.00, -0.01, 0.08, -0.94
234, 0.00, 7216.35, 0.00, 0.00, 0.00, 0.00, 0.00, 0.00, -0.01, 0.08, -0.94
235, 0.00, 7222.70, 0.00, 0.00, 0.00, 0.00, 0.00, 0.00, -0.01, 0.08, -0.94
236, 0.00, 7215.84, 0.00, 0.00, 0.00, 0.00, 0.00, 0.00, -0.01, 0.08, -0.94
237, 0.00, 7226.83, 0.00, 0.00, 0.00, 0.00, 0.00, 0.00, -0.01, 0.08, -0.94
238, 0.00, 7244.40, 0.00, 0.00, 0.00, 0.00, 0.00, 0.00, -0.01, 0.08, -0.94
239, 0.00, 7245.05, 0.00, 0.00, 0.00, 0.00, 0.00, 0.00, -0.01, 0.08, -0.94
240, 0.00, 7246.41, 0.00, 0.00, 0.00, 0.00, 0.00, 0.00, -0.01, 0.08, -0.94
241, 0.00, 7260.14, 0.00, 0.00, 0.00, 0.00, 0.00, 0.00, -0.01, 0.08, -0.94
242, 0.00, 7283.72, 0.00, 0.00, 0.00, 0.00, 0.00, 0.00, -0.01, 0.08, -0.94
243, 0.00, 7249.43, 0.00, 0.00, 0.00, 0.00, 0.00, 0.00, -0.01, 0.07, -0.94
244, 0.00, 7259.78, 0.00, 0.00, 0.00, 0.00, 0.00, 0.00, -0.01, 0.07, -0.94
245, 0.00, 7277.15, 0.00, 0.00, 0.00, 0.00, 0.00, 0.00, -0.01, 0.07, -0.94
246, 0.00, 7295.92, 0.00, 0.00, 0.00, 0.00, 0.00, 0.00, -0.01, 0.07, -0.94
247, 0.00, 7284.48, 0.00, 0.00, 0.00, 0.00, 0.00, 0.00, -0.01, 0.07, -0.94
248, 0.00, 7304.19, 0.00, 0.00, 0.00, 0.00, 0.00, 0.00, -0.01, 0.08, -0.94
249, 0.00, 7312.40, 0.00, 0.00, 0.00, 0.00, 0.00, 0.00, -0.01, 0.08, -0.94
250, 0.00, 7317.16, 0.00, 0.00, 0.00, 0.00, 0.00, 0.00, -0.01, 0.08, -0.94
251, 0.00, 7314.97, 0.00, 0.00, 0.00, 0.00, 0.00, 0.00, -0.01, 0.08, -0.94
252, 0.00, 7329.43, 0.00, 0.00, 0.00, 0.00, 0.00, 0.00, -0.01, 0.08, -0.94
253, 0.00, 7334.95, 0.00, 0.00, 0.00, 0.00, 0.00, 0.00, -0.01, 0.08, -0.94
254, 0.00, 7348.36, 0.00, 0.00, 0.00, 0.00, 0.00, 0.00, -0.01, 0.08, -0.94
255, 0.00, 7353.86, 0.00, 0.00, 0.00, 0.00, 0.00, 0.00, -0.01, 0.08, -0.94
0, 0.00, 7335.46, 0.00, 0.00, 0.00, 0.00, 0.00, 0.00, -0.01, 0.08, -0.94
1, 0.00, 7346.62, 0.00, 0.00, 0.00, 0.00, 0.00, 0.00, -0.01, 0.08, -0.94
2, 0.00, 7355.58, 0.00, 0.00, 0.00, 0.00, 0.00, 0.00, -0.01, 0.08, -0.94
3, 0.00, 7360.27, 0.00, 0.00, 0.00, 0.00, 0.00, 0.00, -0.01, 0.08, -0.94
4, 0.00, 7350.68, 0.00, 0.00, 0.00, 0.00, 0.00, 0.00, -0.01, 0.08, -0.94
5, 0.00, 7363.42, 0.00, 0.00, 0.00, 0.00, 0.00, 0.00, -0.01, 0.08, -0.94
6, 0.00, 7370.71, 0.00, 0.00, 0.00, 0.00, 0.00, 0.00, -0.01, 0.08, -0.94
7, 0.00, 7385.73, 0.00, 0.00, 0.00, 0.00, 0.00, 0.00, -0.01, 0.08, -0.94
8, 0.00, 7388.46, 0.00, 0.00, 0.00, 0.00, 0.00, 0.00, -0.01, 0.08, -0.94
9, 0.00, 7401.04, 0.00, 0.00, 0.00, 0.00, 0.00, 0.00, -0.01, 0.08, -0.94
10, 0.00, 7411.91, 0.00, 0.00, 0.00, 0.00, 0.00, 0.00, -0.01, 0.08, -0.94
11, 0.00, 7415.55, 0.00, 0.00, 0.00, 0.00, 0.00, 0.00, -0.01, 0.08, -0.94
12, 0.00, 7408.69, 0.00, 0.00, 0.00, 0.00, 0.00, 0.00, 0.00, 0.08, -0.94
13, 0.00, 7418.19, 0.00, 0.00, 0.00, 0.00, 0.00, 0.00, 0.00, 0.08, -0.94
14, 0.00, 7438.19, 0.00, 0.00, 0.00, 0.00, 0.00, 0.00, 0.00, 0.08, -0.94
15, 0.00, 7427.13, 0.00, 0.00, 0.00, 0.00, 0.00, 0.00, 0.00, 0.08, -0.94
16, 0.00, 7435.08, 0.00, 0.00, 0.00, 0.00, 0.00, 0.00, 0.00, 0.08, -0.94
17, 0.00, 7445.68, 0.00, 0.00, 0.00, 0.00, 0.00, 0.00, -0.01, 0.08, -0.94
18, 0.00, 7458.37, 0.00, 0.00, 0.00, 0.00, 0.00, 0.00, -0.01, 0.08, -0.94
19, 0.00, 7474.71, 0.00, 0.00, 0.00, 0.00, 0.00, 0.00, -0.01, 0.08, -0.94
20, 0.00, 7474.56, 0.00, 0.00, 0.00, 0.00, 0.00, 0.00, -0.01, 0.08, -0.94
21, 0.00, 7487.05, 0.00, 0.00, 0.00, 0.00, 0.00, 0.00, -0.01, 0.08, -0.94
22, 0.00, 7504.80, 0.00, 0.00, 0.00, 0.00, 0.00, 0.00, -0.00, 0.08, -0.94
23, 0.00, 7502.85, 0.00, 0.00, 0.00, 0.00, 0.00, 0.00, -0.00, 0.08, -0.94
24, 0.00, 7508.04, 0.00, 0.00, 0.00, 0.00, 0.00, 0.00, -0.00, 0.08, -0.94
25, 0.00, 7511.88, 0.00, 0.00, 0.00, 0.00, 0.00, 0.00, -0.00, 0.08, -0.94
26, 0.00, 7496.64, 0.00, 0.00, 0.00, 0.00, 0.00, 0.00, -0.00, 0.08, -0.94
27, 0.00, 7511.10, 0.00, 0.00, 0.00, 0.00, 0.00, 0.00, -0.01, 0.08, -0.94
28, 0.00, 7521.12, 0.00, 0.00, 0.00, 0.00, 0.00, 0.00, -0.01, 0.08, -0.94
29, 0.00, 7525.25, 0.00, 0.00, 0.00, 0.00, 0.00, 0.00, -0.01, 0.08, -0.94
30, 0.00, 7530.55, 0.00, 0.00, 0.00, 0.00, 0.00, 0.00, -0.01, 0.08, -0.94
31, 0.00, 7533.25, 0.00, 0.00, 0.00, 0.00, 0.00, 0.00, -0.01, 0.08, -0.94
32, 0.00, 7543.07, 0.00, 0.00, 0.00, 0.00, 0.00, 0.00, -0.01, 0.08, -0.94
33, 0.00, 7560.12, 0.00, 0.00, 0.00, 0.00, 0.00, 0.00, -0.01, 0.08, -0.94
34, 0.00, 7560.59, 0.00, 0.00, 0.00, 0.00, 0.00, 0.00, -0.01, 0.08, -0.94
35, 0.00, 7568.55, 0.00, 0.00, 0.00, 0.00, 0.00, 0.00, -0.01, 0.08, -0.94
36, 0.00, 7561.51, 0.00, 0.00, 0.00, 0.00, 0.00, 0.00, -0.01, 0.08, -0.94
37, 0.00, 7558.89, 0.00, 0.00, 0.00, 0.00, 0.00, 0.00, -0.01, 0.07, -0.93
38, 0.00, 7578.11, 0.00, 0.00, 0.00, 0.00, 0.00, 0.00, -0.01, 0.07, -0.93
39, 0.00, 7580.66, 0.00, 0.00, 0.00, 0.00, 0.00, 0.00, -0.01, 0.07, -0.93
40, 0.00, 7584.66, 0.00, 0.00, 0.00, 0.00, 0.00, 0.00, -0.01, 0.07, -0.93
41, 0.00, 7592.73, 0.00, 0.00, 0.00, 0.00, 0.00, 0.00, -0.01, 0.07, -0.93
42, 0.00, 7594.47, 0.00, 0.00, 0.00, 0.00, 0.00, 0.00, -0.00, 0.07, -0.92
43, 0.00, 7590.45, 0.00, 0.00, 0.00, 0.00, 0.00, 0.00, -0.00, 0.07, -0.92
44, 0.00, 7601.14, 0.00, 0.00, 0.00, 0.00, 0.00, 0.00, -0.00, 0.07, -0.92
45, 0.00, 7602.32, 0.00, 0.00, 0.00, 0.00, 0.00, 0.00, -0.00, 0.07, -0.92
46, 0.00, 7610.81, 0.00, 0.00, 0.00, 0.00, 0.00, 0.00, -0.00, 0.07, -0.92
47, 0.00, 7620.80, 0.00, 0.00, 0.00, 0.00, 0.00, 0.00, -0.00, 0.07, -0.91
48, 0.00, 7620.51, 0.00, 0.00, 0.00, 0.00, 0.00, 0.00, -0.00, 0.07, -0.91
49, 0.00, 7642.37, 0.00, 0.00, 0.00, 0.00, 0.00, 0.00, -0.00, 0.07, -0.91
50, 0.00, 7643.94, 0.00, 0.00, 0.00, 0.00, 0.00, 0.00, -0.00, 0.07, -0.91
51, 0.00, 7647.76, 0.00, 0.00, 0.00, 0.00, 0.00, 0.00, -0.00, 0.07, -0.91
52, 0.00, 7644.21, 0.00, 0.00, 0.00, 0.00, 0.00, 0.00, 0.00, 0.08, -0.95
53, 0.00, 7656.08, 0.00, 0.00, 0.00, 0.00, 0.00, 0.00, 0.00, 0.08, -0.95
54, 0.00, 7655.83, 0.00, 0.00, 0.00, 0.00, 0.00, 0.00, 0.00, 0.08, -0.95
55, 0.00, 7656.66, 0.00, 0.00, 0.00, 0.00, 0.00, 0.00, 0.00, 0.08, -0.95
56, 0.00, 7660.77, 0.00, 0.00, 0.00, 0.00, 0.00, 0.00, 0.00, 0.08, -0.95
57, 0.00, 7678.76, 0.00, 0.00, 0.00, 0.00, 0.00, 0.00, -0.00, 0.08, -0.95
58, 0.00, 7684.75, 0.00, 0.00, 0.00, 0.00, 0.00, 0.00, -0.00, 0.08, -0.95
59, 0.00, 7687.41, 0.00, 0.00, 0.00, 0.00, 0.00, 0.00, -0.00, 0.08, -0.95
60, 0.00, 7683.70, 0.00, 0.00, 0.00, 0.00, 0.00, 0.00, -0.00, 0.08, -0.95
61, 0.00, 7690.16, 0.00, 0.00, 0.00, 0.00, 0.00, 0.00, -0.00, 0.08, -0.95
62, 0.00, 7706.46, 0.00, 0.00, 0.00, 0.00, 0.00, 0.00, -0.01, 0.08, -0.94
63, 0.00, 7712.38, 0.00, 0.00, 0.00, 0.00, 0.00, 0.00, -0.01, 0.08, -0.94
64, 0.00, 7710.75, 0.00, 0.00, 0.00, 0.00, 0.00, 0.00, -0.01, 0.08, -0.94
65, 0.00, 7716.90, 0.00, 0.00, 0.00, 0.00, 0.00, 0.00, -0.01, 0.08, -0.94
66, 0.00, 7719.64, 0.00, 0.00, 0.00, 0.00, 0.00, 0.00, -0.01, 0.08, -0.94
67, 0.00, 7721.34, 0.00, 0.00, 0.00, 0.00, 0.00, 0.00, -0.01, 0.08, -0.95
68, 0.00, 7735.11, 0.00, 0.00, 0.00, 0.00, 0.00, 0.00, -0.01, 0.08, -0.95
69, 0.00, 7738.46, 0.00, 0.00, 0.00, 0.00, 0.00, 0.00, -0.01, 0.08, -0.95
70, 0.00, 7739.31, 0.00, 0.00, 0.00, 0.00, 0.00, 0.00, -0.01, 0.08, -0.95
71, 0.00, 7748.01, 0.00, 0.00, 0.00, 0.00, 0.00, 0.00, -0.01, 0.08, -0.95
72, 0.00, 7753.04, 0.00, 0.00, 0.00, 0.00, 0.00, 0.00, -0.01, 0.08, -0.93
73, 0.00, 7757.69, 0.00, 0.00, 0.00, 0.00, 0.00, 0.00, -0.01, 0.08, -0.93
74, 0.00, 7764.24, 0.00, 0.00, 0.00, 0.00, 0.00, 0.00, -0.01, 0.08, -0.93
75, 0.00, 7762.51, 0.00, 0.00, 0.00, 0.00, 0.00, 0.00, -0.01, 0.08, -0.93
76, 0.00, 7761.91, 0.00, 0.00, 0.00, 0.00, 0.00, 0.00, -0.01, 0.08, -0.93
77, 0.00, 7787.15, 0.00, 0.00, 0.00, 0.00, 0.00, 0.00, -0.01, 0.08, -0.93
78, 0.00, 7784.40, 0.00, 0.00, 0.00, 0.00, 0.00, 0.00, -0.01, 0.08, -0.94
79, 0.00, 7781.63, 0.00, 0.00, 0.00, 0.00, 0.00, 0.00, -0.01, 0.08, -0.94
80, 0.00, 7797.61, 0.00, 0.00, 0.00, 0.00, 0.00, 0.00, -0.01, 0.08, -0.94
81, 0.00, 7792.87, 0.00, 0.00, 0.00, 0.00, 0.00, 0.00, -0.01, 0.08, -0.94
82, 0.00, 7799.26, 0.00, 0.00, 0.00, 0.00, 0.00, 0.00, -0.01, 0.08, -0.94
83, 0.00, 7807.89, 0.00, 0.00, 0.00, 0.00, 0.00, 0.00, -0.01, 0.08, -0.95
84, 0.00, 7816.09, 0.00, 0.00, 0.00, 0.00, 0.00, 0.00, -0.01, 0.08, -0.95
85, 0.00, 7817.54, 0.00, 0.00, 0.00, 0.00, 0.00, 0.00, -0.01, 0.08, -0.95
86, 0.00, 7818.13, 0.00, 0.00, 0.00, 0.00, 0.00, 0.00, -0.01, 0.08, -0.95
87, 0.00, 7830.11, 0.00, 0.00, 0.00, 0.00, 0.00, 0.00, -0.01, 0.08, -0.95
88, 0.00, 7838.24, 0.00, 0.00, 0.00, 0.00, 0.00, 0.00, -0.01, 0.08, -0.93
89, 0.00, 7850.74, 0.00, 0.00, 0.00, 0.00, 0.00, 0.00, -0.01, 0.08, -0.93
90, 0.00, 7861.06, 0.00, 0.00, 0.00, 0.00, 0.00, 0.00, -0.01, 0.08, -0.93
91, 0.00, 7864.19, 0.00, 0.00, 0.00, 0.00, 0.00, 0.00, -0.01, 0.08, -0.93
92, 0.00, 7871.97, 0.00, 0.00, 0.00, 0.00, 0.00, 0.00, -0.01, 0.08, -0.93
93, 0.00, 7881.02, 0.00, 0.00, 0.00, 0.00, 0.00, 0.00, -0.01, 0.08, -0.93
94, 0.00, 7878.86, 0.00, 0.00, 0.00, 0.00, 0.00, 0.00, -0.01, 0.08, -0.93
95, 0.00, 7872.15, 0.00, 0.00, 0.00, 0.00, 0.00, 0.00, -0.01, 0.08, -0.93
96, 0.00, 7873.27, 0.00, 0.00, 0.00, 0.00, 0.00, 0.00, -0.01, 0.08, -0.93
97, 0.00, 7900.51, 0.00, 0.00, 0.00, 0.00, 0.00, 0.00, -0.01, 0.08, -0.93
98, 0.00, 7899.46, 0.00, 0.00, 0.00, 0.00, 0.00, 0.00, -0.01, 0.07, -0.93
99, 0.00, 7916.79, 0.00, 0.00, 0.00, 0.00, 0.00, 0.00, -0.01, 0.07, -0.93
100, 0.00, 7891.48, 0.00, 0.00, 0.00, 0.00, 0.00, 0.00, -0.01, 0.07, -0.93
101, 0.00, 7920.59, 0.00, 0.00, 0.00, 0.00, 0.00, 0.00, -0.01, 0.07, -0.93
102, 0.00, 7952.48, 0.00, 0.00, 0.00, 0.00, 0.00, 0.00, -0.01, 0.07, -0.93
103, 0.00, 7967.97, 0.00, 0.00, 0.00, 0.00, 0.00, 0.00, -0.01, 0.08, -0.93
104, 0.00, 7966.09, 0.00, 0.00, 0.00, 0.00, 0.00, 0.00, -0.01, 0.08, -0.93
105, 0.00, 7950.27, 0.00, 0.00, 0.00, 0.00, 0.00, 0.00, -0.01, 0.08, -0.93
106, 0.00, 7983.91, 0.00, 0.00, 0.00, 0.00, 0.00, 0.00, -0.01, 0.08, -0.93
107, 0.00, 7996.43, 0.00, 0.00, 0.00, 0.00, 0.00, 0.00, -0.01, 0.08, -0.93
108, 0.00, 8007.20, 0.00, 0.00, 0.00, 0.00, 0.00, 0.00, -0.01, 0.08, -0.94
109, 0.00, 8011.04, 0.00, 0.00, 0.00, 0.00, 0.00, 0.00, -0.01, 0.08, -0.94
110, 0.00, 8010.78, 0.00, 0.00, 0.00, 0.00, 0.00, 0.00, -0.01, 0.08, -0.94
111, 0.00, 8014.96, 0.00, 0.00, 0.00, 0.00, 0.00, 0.00, -0.01, 0.08, -0.94
112, 0.00, 8023.92, 0.00, 0.00, 0.00, 0.00, 0.00, 0.00, -0.01, 0.08, -0.94
113, 0.00, 8028.77, 0.00, 0.00, 0.00, 0.00, 0.00, 0.00, -0.01, 0.07, -0.94
114, 0.00, 8021.42, 0.00, 0.00, 0.00, 0.00, 0.00, 0.00, -0.01, 0.07, -0.94
115, 0.00, 8036.23, 0.00, 0.00, 0.00, 0.00, 0.00, 0.00, -0.01, 0.07, -0.94
116, 0.00, 8041.89, 0.00, 0.00, 0.00, 0.00, 0.00, 0.00, -0.01, 0.07, -0.94
117, 0.00, 8047.28, 0.00, 0.00, 0.00, 0.00, 0.00, 0.00, -0.01, 0.07, -0.94
118, 0.00, 8062.77, 0.00, 0.00, 0.00, 0.00, 0.00, 0.00, -0.01, 0.07, -0.93
119, 0.00, 8068.11, 0.00, 0.00, 0.00, 0.00, 0.00, 0.00, -0.01, 0.07, -0.93
120, 0.00, 8076.42, 0.00, 0.00, 0.00, 0.00, 0.00, 0.00, -0.01, 0.07, -0.93
121, 0.00, 8076.33, 0.00, 0.00, 0.00, 0.00, 0.00, 0.00, -0.01, 0.07, -0.93
122, 0.00, 8076.00, 0.00, 0.00, 0.00, 0.00, 0.00, 0.00, -0.01, 0.07, -0.93
123, 0.00, 8087.04, 0.00, 0.00, 0.00, 0.00, 0.00, 0.00, -0.01, 0.07, -0.93
124, 0.00, 8084.42, 0.00, 0.00, 0.00, 0.00, 0.00, 0.00, -0.01, 0.07, -0.93
125, 0.00, 8088.00, 0.00, 0.00, 0.00, 0.00, 0.00, 0.00, -0.01, 0.07, -0.93
126, 0.00, 8102.15, 0.00, 0.00, 0.00, 0.00, 0.00, 0.00, -0.01, 0.07, -0.93
127, 0.00, 8095.20, 0.00, 0.00, 0.00, 0.00, 0.00, 0.00, -0.01, 0.07, -0.93
128, 0.00, 8089.68, 0.00, 0.00, 0.00, 0.00, 0.00, 0.00, -0.01, 0.07, -0.94
129, 0.00, 8095.76, 0.00, 0.00, 0.00, 0.00, 0.00, 0.00, -0.01, 0.07, -0.94
130, 0.00, 8115.31, 0.00, 0.00, 0.00, 0.00, 0.00, 0.00, -0.01, 0.07, -0.94
131, 0.00, 8113.53, 0.00, 0.00, 0.00, 0.00, 0.00, 0.00, -0.01, 0.07, -0.94
132, 0.00, 8111.02, 0.00, 0.00, 0.00, 0.00, 0.00, 0.00, -0.01, 0.07, -0.94
133, 0.00, 8119.43, 0.00, 0.00, 0.00, 0.00, 0.00, 0.00, -0.01, 0.07, -0.94
134, 0.00, 8122.91, 0.00, 0.00, 0.00, 0.00, 0.00, 0.00, -0.01, 0.07, -0.94
135, 0.00, 8128.68, 0.00, 0.00, 0.00, 0.00, 0.00, 0.00, -0.01, 0.07, -0.94
136, 0.00, 8117.01, 0.00, 0.00, 0.00, 0.00, 0.00, 0.00, -0.01, 0.07, -0.94
137, 0.00, 8127.21, 0.00, 0.00, 0.00, 0.00, 0.00, 0.00, -0.01, 0.07, -0.94
138, 0.00, 8121.22, 0.00, 0.00, 0.00, 0.00, 0.00, 0.00, -0.01, 0.08, -0.93
139, 0.00, 8109.75, 0.00, 0.00, 0.00, 0.00, 0.00, 0.00, -0.01, 0.08, -0.93
140, 0.00, 8106.53, 0.00, 0.00, 0.00, 0.00, 0.00, 0.00, -0.01, 0.08, -0.93
141, 0.00, 8112.05, 0.00, 0.00, 0.00, 0.00, 0.00, 0.00, -0.01, 0.08, -0.93
142, 0.00, 8115.45, 0.00, 0.00, 0.00, 0.00, 0.00, 0.00, -0.01, 0.08, -0.93
143, 0.00, 8116.99, 0.00, 0.00, 0.00, 0.00, 0.00, 0.00, -0.01, 0.08, -0.92
144, 0.00, 8112.07, 0.00, 0.00, 0.00, 0.00, 0.00, 0.00, -0.01, 0.08, -0.92
145, 0.00, 8101.64, 0.00, 0.00, 0.00, 0.00, 0.00, 0.00, -0.01, 0.08, -0.92
146, 0.00, 8114.49, 0.00, 0.00, 0.00, 0.00, 0.00, 0.00, -0.01, 0.08, -0.92
147, 0.00, 8131.99, 0.00, 0.00, 0.00, 0.00, 0.00, 0.00, -0.01, 0.08, -0.92
148, 0.00, 8135.92, 0.00, 0.00, 0.00, 0.00, 0.00, 0.00, -0.01, 0.07, -0.93
149, 0.00, 8144.17, 0.00, 0.00, 0.00, 0.00, 0.00, 0.00, -0.01, 0.07, -0.93
150, 0.00, 8128.41, 0.00, 0.00, 0.00, 0.00, 0.00, 0.00, -0.01, 0.07, -0.93
151, 0.00, 8139.57, 0.00, 0.00, 0.00, 0.00, 0.00, 0.00, -0.01, 0.07, -0.93
152, 0.00, 8155.26, 0.00, 0.00, 0.00, 0.00, 0.00, 0.00, -0.01, 0.07, -0.93
153, 0.00, 8152.75, 0.00, 0.00, 0.00, 0.00, 0.00, 0.00, -0.01, 0.08, -0.94
154, 0.00, 8151.41, 0.00, 0.00, 0.00, 0.00, 0.00, 0.00, -0.01, 0.08, -0.94
155, 0.00, 8161.25, 0.00, 0.00, 0.00, 0.00, 0.00, 0.00, -0.01, 0.08, -0.94
156, 0.00, 8157.63, 0.00, 0.00, 0.00, 0.00, 0.00, 0.00, -0.01, 0.08, -0.94
157, 0.00, 8158.88, 0.00, 0.00, 0.00, 0.00, 0.00, 0.00, -0.01, 0.08, -0.94
158, 0.00, 8167.39, 0.00, 0.00, 0.00, 0.00, 0.00, 0.00, -0.01, 0.08, -0.94
159, 0.00, 8136.91, 0.00, 0.00, 0.00, 0.00, 0.00, 0.00, -0.01, 0.08, -0.94
160, 0.00, 8126.11, 0.00, 0.00, 0.00, 0.00, 0.00, 0.00, -0.01, 0.08, -0.94
161, 0.00, 8156.53, 0.00, 0.00, 0.00, 0.00, 0.00, 0.00, -0.01, 0.08, -0.94
162, 0.00, 8145.47, 0.00, 0.00, 0.00, 0.00, 0.00, 0.00, -0.01, 0.08, -0.94
163, 0.00, 8167.91, 0.00, 0.00, 0.00, 0.00, 0.00, 0.00, -0.01, 0.08, -0.94
164, 0.00, 8173.76, 0.00, 0.00, 0.00, 0.00, 0.00, 0.00, -0.01, 0.08, -0.94
165, 0.00, 8159.68, 0.00, 0.00, 0.00, 0.00, 0.00, 0.00, -0.01, 0.08, -0.94
166, 0.00, 8136.91, 0.00, 0.00, 0.00, 0.00, 0.00, 0.00, -0.01, 0.08, -0.94
167, 0.00, 8170.75, 0.00, 0.00, 0.00, 0.00, 0.00, 0.00, -0.01, 0.08, -0.94
168, 0.00, 8168.20, 0.00, 0.00, 0.00, 0.00, 0.00, 0.00, -0.01, 0.08, -0.94
169, 0.00, 8170.68, 0.00, 0.00, 0.00, 0.00, 0.00, 0.00, -0.01, 0.08, -0.94
170, 0.00, 8195.22, 0.00, 0.00, 0.00, 0.00, 0.00, 0.00, -0.01, 0.08, -0.94
171, 0.00, 8216.28, 0.00, 0.00, 0.00, 0.00, 0.00, 0.00, -0.01, 0.08, -0.94
172, 0.00, 8213.51, 0.00, 0.00, 0.00, 0.00, 0.00, 0.00, -0.01, 0.08, -0.94
173, 0.00, 8211.47, 0.00, 0.00, 0.00, 0.00, 0.00, 0.00, -0.01, 0.08, -0.93
174, 0.00, 8219.92, 0.00, 0.00, 0.00, 0.00, 0.00, 0.00, -0.01, 0.08, -0.93
175, 0.00, 8217.15, 0.00, 0.00, 0.00, 0.00, 0.00, 0.00, -0.01, 0.08, -0.93
176, 0.00, 8220.10, 0.00, 0.00, 0.00, 0.00, 0.00, 0.00, -0.01, 0.08, -0.93
177, 0.00, 8223.79, 0.00, 0.00, 0.00, 0.00, 0.00, 0.00, -0.01, 0.08, -0.93
178, 0.00, 8234.25, 0.00, 0.00, 0.00, 0.00, 0.00, 0.00, -0.01, 0.07, -0.94
179, 0.00, 8201.10, 0.00, 0.00, 0.00, 0.00, 0.00, 0.00, -0.01, 0.07, -0.94
180, 0.00, 8225.42, 0.00, 0.00, 0.00, 0.00, 0.00, 0.00, -0.01, 0.07, -0.94
181, 0.00, 8255.91, 0.00, 0.00, 0.00, 0.00, 0.00, 0.00, -0.01, 0.07, -0.94
182, 0.00, 8256.09, 0.00, 0.00, 0.00, 0.00, 0.00, 0.00, -0.01, 0.07, -0.94
183, 0.00, 8300.95, 0.00, 0.00, 0.00, 0.00, 0.00, 0.00, -0.00, 0.08, -0.94
184, 0.00, 8270.93, 0.00, 0.00, 0.00, 0.00, 0.00, 0.00, -0.00, 0.08, -0.94
185, 0.00, 8282.06, 0.00, 0.00, 0.00, 0.00, 0.00, 0.00, -0.00, 0.08, -0.94
186, 0.00, 8289.46, 0.00, 0.00, 0.00, 0.00, 0.00, 0.00, -0.00, 0.08, -0.94
187, 0.00, 8285.17, 0.00, 0.00, 0.00, 0.00, 0.00, 0.00, -0.00, 0.08, -0.94
188, 0.00, 8310.67, 0.00, 0.00, 0.00, 0.00, 0.00, 0.00, -0.01, 0.08, -0.94
189, 0.00, 8307.20, 0.00, 0.00, 0.00, 0.00, 0.00, 0.00, -0.01, 0.08, -0.94
190, 0.00, 8277.92, 0.00, 0.00, 0.00, 0.00, 0.00, 0.00, -0.01, 0.08, -0.94
191, 0.00, 8282.46, 0.00, 0.00, 0.00, 0.00, 0.00, 0.00, -0.01, 0.08, -0.94
192, 0.00, 8314.45, 0.00, 0.00, 0.00, 0.00, 0.00, 0.00, -0.01, 0.08, -0.94
193, 0.00, 8289.68, 0.00, 0.00, 0.00, 0.00, 0.00, 0.00, -0.01, 0.08, -0.94
194, 0.00, 8315.07, 0.00, 0.00, 0.00, 0.00, 0.00, 0.00, -0.01, 0.08, -0.94
195, 0.00, 8323.79, 0.00, 0.00, 0.00, 0.00, 0.00, 0.00, -0.01, 0.08, -0.94
196, 0.00, 8322.72, 0.00, 0.00, 0.00, 0.00, 0.00, 0.00, -0.01, 0.08, -0.94
197, 0.00, 8305.21, 0.00, 0.00, 0.00, 0.00, 0.00, 0.00, -0.01, 0.08, -0.94
198, 0.00, 8309.35, 0.00, 0.00, 0.00, 0.00, 0.00, 0.00, -0.01, 0.08, -0.93
199, 0.00, 8330.16, 0.00, 0.00, 0.00, 0.00, 0.00, 0.00, -0.01, 0.08, -0.93
200, 0.00, 8349.78, 0.00, 0.00, 0.00, 0.00, 0.00, 0.00, -0.01, 0.08, -0.93
201, 0.00, 8343.10, 0.00, 0.00, 0.00, 0.00, 0.00, 0.00, -0.01, 0.08, -0.93
202, 0.00, 8366.82, 0.00, 0.00, 0.00, 0.00, 0.00, 0.00, -0.01, 0.08, -0.93
203, 0.00, 8356.51, 0.00, 0.00, 0.00, 0.00, 0.00, 0.00, -0.00, 0.07, -0.93
204, 0.00, 8372.72, 0.00, 0.00, 0.00, 0.00, 0.00, 0.00, -0.00, 0.07, -0.93
205, 0.00, 8387.36, 0.00, 0.00, 0.00, 0.00, 0.00, 0.00, -0.00, 0.07, -0.93
206, 0.00, 8379.47, 0.00, 0.00, 0.00, 0.00, 0.00, 0.00, -0.00, 0.07, -0.93
207, 0.00, 8381.37, 0.00, 0.00, 0.00, 0.00, 0.00, 0.00, -0.00, 0.07, -0.93
208, 0.00, 8387.20, 0.00, 0.00, 0.00, 0.00, 0.00, 0.00, -0.01, 0.07, -0.94
209, 0.00, 8385.73, 0.00, 0.00, 0.00, 0.00, 0.00, 0.00, -0.01, 0.07, -0.94
210, 0.00, 8388.65, 0.00, 0.00, 0.00, 0.00, 0.00, 0.00, -0.01, 0.07, -0.94
211, 0.00, 8375.22, 0.00, 0.00, 0.00, 0.00, 0.00, 0.00, -0.01, 0.07, -0.94
212, 0.00, 8384.76, 0.00, 0.00, 0.00, 0.00, 0.00, 0.00, -0.01, 0.07, -0.94
213, 0.00, 8403.56, 0.00, 0.00, 0.00, 0.00, 0.00, 0.00, -0.01, 0.07, -0.93
214, 0.00, 8415.43, 0.00, 0.00, 0.00, 0.00, 0.00, 0.00, -0.01, 0.07, -0.93
215, 0.00, 8407.45, 0.00, 0.00, 0.00, 0.00, 0.00, 0.00, -0.01, 0.07, -0.93
216, 0.00, 8411.32, 0.00, 0.00, 0.00, 0.00, 0.00, 0.00, -0.01, 0.07, -0.93
217, 0.00, 8446.70, 0.00, 0.00, 0.00, 0.00, 0.00, 0.00, -0.01, 0.07, -0.93
218, 0.00, 8427.34, 0.00, 0.00, 0.00, 0.00, 0.00, 0.00, -0.01, 0.07, -0.93
219, 0.00, 8422.36, 0.00, 0.00, 0.00, 0.00, 0.00, 0.00, -0.01, 0.07, -0.93
220, 0.00, 8457.23, 0.00, 0.00, 0.00, 0.00, 0.00, 0.00, -0.01, 0.07, -0.93
221, 0.00, 8443.17, 0.00, 0.00, 0.00, 0.00, 0.00, 0.00, -0.01, 0.07, -0.93
222, 0.00, 8466.59, 0.00, 0.00, 0.00, 0.00, 0.00, 0.00, -0.01, 0.07, -0.93
223, 0.00, 8499.16, 0.00, 0.00, 0.00, 0.00, 0.00, 0.00, -0.01, 0.07, -0.93
224, 0.00, 8463.33, 0.00, 0.00, 0.00, 0.00, 0.00, 0.00, -0.01, 0.07, -0.93
225, 0.00, 8441.96, 0.00, 0.00, 0.00, 0.00, 0.00, 0.00, -0.01, 0.07, -0.93
226, 0.00, 8446.34, 0.00, 0.00, 0.00, 0.00, 0.00, 0.00, -0.01, 0.07, -0.93
227, 0.00, 8446.86, 0.00, 0.00, 0.00, 0.00, 0.00, 0.00, -0.01, 0.07, -0.93
228, 0.00, 8427.08, 0.00, 0.00, 0.00, 0.00, 0.00, 0.00, -0.01, 0.07, -0.94
229, 0.00, 8450.28, 0.00, 0.00, 0.00, 0.00, 0.00, 0.00, -0.01, 0.07, -0.94
230, 0.00, 8433.31, 0.00, 0.00, 0.00, 0.00, 0.00, 0.00, -0.01, 0.07, -0.94
231, 0.00, 8439.71, 0.00, 0.00, 0.00, 0.00, 0.00, 0.00, -0.01, 0.07, -0.94
232, 0.00, 8432.80, 0.00, 0.00, 0.00, 0.00, 0.00, 0.00, -0.01, 0.07, -0.94
233, 0.00, 8459.31, 0.00, 0.00, 0.00, 0.00, 0.00, 0.00, -0.01, 0.07, -0.93
234, 0.00, 8461.97, 0.00, 0.00, 0.00, 0.00, 0.00, 0.00, -0.01, 0.07, -0.93
235, 0.00, 8469.99, 0.00, 0.00, 0.00, 0.00, 0.00, 0.00, -0.01, 0.07, -0.93
236, 0.00, 8489.62, 0.00, 0.00, 0.00, 0.00, 0.00, 0.00, -0.01, 0.07, -0.93
237, 0.00, 8483.92, 0.00, 0.00, 0.00, 0.00, 0.00, 0.00, -0.01, 0.07, -0.93
238, 0.00, 8487.56, 0.00, 0.00, 0.00, 0.00, 0.00, 0.00, -0.01, 0.07, -0.94
239, 0.00, 8525.58, 0.00, 0.00, 0.00, 0.00, 0.00, 0.00, -0.01, 0.07, -0.94
240, 0.00, 8508.39, 0.00, 0.00, 0.00, 0.00, 0.00, 0.00, -0.01, 0.07, -0.94
241, 0.00, 8510.90, 0.00, 0.00, 0.00, 0.00, 0.00, 0.00, -0.01, 0.07, -0.94
242, 0.00, 8515.14, 0.00, 0.00, 0.00, 0.00, 0.00, 0.00, -0.01, 0.07, -0.94
243, 0.00, 8527.53, 0.00, 0.00, 0.00, 0.00, 0.00, 0.00, -0.01, 0.08, -0.94
244, 0.00, 8550.66, 0.00, 0.00, 0.00, 0.00, 0.00, 0.00, -0.01, 0.08, -0.94
245, 0.00, 8568.12, 0.00, 0.00, 0.00, 0.00, 0.00, 0.00, -0.01, 0.08, -0.94
246, 0.00, 8564.07, 0.00, 0.00, 0.00, 0.00, 0.00, 0.00, -0.01, 0.08, -0.94
247, 0.00, 8554.68, 0.00, 0.00, 0.00, 0.00, 0.00, 0.00, -0.01, 0.08, -0.94
248, 0.00, 8567.96, 0.00, 0.00, 0.00, 0.00, 0.00, 0.00, -0.01, 0.09, -0.94
249, 0.00, 8571.18, 0.00, 0.00, 0.00, 0.00, 0.00, 0.00, -0.01, 0.09, -0.94
250, 0.00, 8554.86, 0.00, 0.00, 0.00, 0.00, 0.00, 0.00, -0.01, 0.09, -0.94
251, 0.00, 8566.37, 0.00, 0.00, 0.00, 0.00, 0.00, 0.00, -0.01, 0.09, -0.94
252, 0.00, 8606.61, 0.00, 0.00, 0.00, 0.00, 0.00, 0.00, -0.01, 0.09, -0.94
253, 0.00, 8610.18, 0.00, 0.00, 0.00, 0.00, 0.00, 0.00, -0.01, 0.08, -0.94
254, 0.00, 8588.12, 0.00, 0.00, 0.00, 0.00, 0.00, 0.00, -0.01, 0.08, -0.94
255, 0.00, 8604.95, 0.00, 0.00, 0.00, 0.00, 0.00, 0.00, -0.01, 0.08, -0.94
0, 0.00, 8596.10, 0.00, 0.00, 0.00, 0.00, 0.00, 0.00, -0.01, 0.08, -0.94
1, 0.00, 8595.83, 0.00, 0.00, 0.00, 0.00, 0.00, 0.00, -0.01, 0.08, -0.94
2, 0.00, 8627.42, 0.00, 0.00, 0.00, 0.00, 0.00, 0.00, -0.01, 0.08, -0.94
3, 0.00, 8633.09, 0.00, 0.00, 0.00, 0.00, 0.00, 0.00, -0.01, 0.08, -0.94
4, 0.00, 8620.04, 0.00, 0.00, 0.00, 0.00, 0.00, 0.00, -0.01, 0.08, -0.94
5, 0.00, 8641.32, 0.00, 0.00, 0.00, 0.00, 0.00, 0.00, -0.01, 0.08, -0.94
6, 0.00, 8666.29, 0.00, 0.00, 0.00, 0.00, 0.00, 0.00, -0.01, 0.08, -0.94
7, 0.00, 8647.67, 0.00, 0.00, 0.00, 0.00, 0.00, 0.00, -0.01, 0.07, -0.94
8, 0.00, 8660.65, 0.00, 0.00, 0.00, 0.00, 0.00, 0.00, -0.01, 0.07, -0.94
9, 0.00, 8648.85, 0.00, 0.00, 0.00, 0.00, 0.00, 0.00, -0.01, 0.07, -0.94
10, 0.00, 8646.53, 0.00, 0.00, 0.00, 0.00, 0.00, 0.00, -0.01, 0.07, -0.94
11, 0.00, 8670.44, 0.00, 0.00, 0.00, 0.00, 0.00, 0.00, -0.01, 0.07, -0.94
12, 0.00, 8704.08, 0.00, 0.00, 0.00, 0.00, 0.00, 0.00, -0.01, 0.07, -0.94
13, 0.00, 8701.51, 0.00, 0.00, 0.00, 0.00, 0.00, 0.00, -0.01, 0.07, -0.94
14, 0.00, 8699.23, 0.00, 0.00, 0.00, 0.00, 0.00, 0.00, -0.01, 0.07, -0.94
15, 0.00, 8690.89, 0.00, 0.00, 0.00, 0.00, 0.00, 0.00, -0.01, 0.07, -0.94
16, 0.00, 8699.39, 0.00, 0.00, 0.00, 0.00, 0.00, 0.00, -0.01, 0.07, -0.94
17, 0.00, 8693.69, 0.00, 0.00, 0.00, 0.00, 0.00, 0.00, -0.01, 0.07, -0.94
18, 0.00, 8709.51, 0.00, 0.00, 0.00, 0.00, 0.00, 0.00, -0.01, 0.08, -0.94
19, 0.00, 8748.61, 0.00, 0.00, 0.00, 0.00, 0.00, 0.00, -0.01, 0.08, -0.94
20, 0.00, 8732.80, 0.00, 0.00, 0.00, 0.00, 0.00, 0.00, -0.01, 0.08, -0.94
21, 0.00, 8740.09, 0.00, 0.00, 0.00, 0.00, 0.00, 0.00, -0.01, 0.08, -0.94
22, 0.00, 8722.08, 0.00, 0.00, 0.00, 0.00, 0.00, 0.00, -0.01, 0.08, -0.94
23, 0.00, 8732.11, 0.00, 0.00, 0.00, 0.00, 0.00, 0.00, -0.01, 0.08, -0.93
24, 0.00, 8739.15, 0.00, 0.00, 0.00, 0.00, 0.00, 0.00, -0.01, 0.08, -0.93
25, 0.00, 8737.41, 0.00, 0.00, 0.00, 0.00, 0.00, 0.00, -0.01, 0.08, -0.93
26, 0.00, 8757.35, 0.00, 0.00, 0.00, 0.00, 0.00, 0.00, -0.01, 0.08, -0.93
27, 0.00, 8775.52, 0.00, 0.00, 0.00, 0.00, 0.00, 0.00, -0.01, 0.08, -0.93
28, 0.00, 8760.63, 0.00, 0.00, 0.00, 0.00, 0.00, 0.00, -0.01, 0.08, -0.93
29, 0.00, 8767.49, 0.00, 0.00, 0.00, 0.00, 0.00, 0.00, -0.01, 0.08, -0.93
30, 0.00, 8758.26, 0.00, 0.00, 0.00, 0.00, 0.00, 0.00, -0.01, 0.08, -0.93
31, 0.00, 8763.34, 0.00, 0.00, 0.00, 0.00, 0.00, 0.00, -0.01, 0.08, -0.93
32, 0.00, 8793.22, 0.00, 0.00, 0.00, 0.00, 0.00, 0.00, -0.01, 0.08, -0.93
33, 0.00, 8800.91, 0.00, 0.00, 0.00, 0.00, 0.00, 0.00, -0.01, 0.09, -0.94
34, 0.00, 8810.88, 0.00, 0.00, 0.00, 0.00, 0.00, 0.00, -0.01, 0.09, -0.94
35, 0.00, 8807.41, 0.00, 0.00, 0.00, 0.00, 0.00, 0.00, -0.01, 0.09, -0.94
36, 0.00, 8809.67, 0.00, 0.00, 0.00, 0.00, 0.00, 0.00, -0.01, 0.09, -0.94
37, 0.00, 8820.38, 0.00, 0.00, 0.00, 0.00, 0.00, 0.00, -0.01, 0.09, -0.94
38, 0.00, 8811.24, 0.00, 0.00, 0.00, 0.00, 0.00, 0.00, -0.01, 0.09, -0.94
39, 0.00, 8822.77, 0.00, 0.00, 0.00, 0.00, 0.00, 0.00, -0.01, 0.09, -0.94
40, 0.00, 8848.81, 0.00, 0.00, 0.00, 0.00, 0.00, 0.00, -0.01, 0.09, -0.94
41, 0.00, 8814.88, 0.00, 0.00, 0.00, 0.00, 0.00, 0.00, -0.01, 0.09, -0.94
42, 0.00, 8810.03, 0.00, 0.00, 0.00, 0.00, 0.00, 0.00, -0.01, 0.09, -0.94
43, 0.00, 8820.42, 0.00, 0.00, 0.00, 0.00, 0.00, 0.00, -0.01, 0.08, -0.94
44, 0.00, 8854.15, 0.00, 0.00, 0.00, 0.00, 0.00, 0.00, -0.01, 0.08, -0.94
45, 0.00, 8865.35, 0.00, 0.00, 0.00, 0.00, 0.00, 0.00, -0.01, 0.08, -0.94
46, 0.00, 8872.59, 0.00, 0.00, 0.00, 0.00, 0.00, 0.00, -0.01, 0.08, -0.94
47, 0.00, 8868.14, 0.00, 0.00, 0.00, 0.00, 0.00, 0.00, -0.01, 0.08, -0.94
48, 0.00, 8874.04, 0.00, 0.00, 0.00, 0.00, 0.00, 0.00, -0.01, 0.08, -0.95
49, 0.00, 8886.70, 0.00, 0.00, 0.00, 0.00, 0.00, 0.00, -0.01, 0.08, -0.95
50, 0.00, 8897.65, 0.00, 0.00, 0.00, 0.00, 0.00, 0.00, -0.01, 0.08, -0.95
51, 0.00, 8900.75, 0.00, 0.00, 0.00, 0.00, 0.00, 0.00, -0.01, 0.08, -0.95
52, 0.00, 8895.39, 0.00, 0.00, 0.00, 0.00, 0.00, 0.00, -0.01, 0.08, -0.95
53, 0.00, 8897.33, 0.00, 0.00, 0.00, 0.00, 0.00, 0.00, -0.01, 0.08, -0.94
54, 0.00, 8905.78, 0.00, 0.00, 0.00, 0.00, 0.00, 0.00, -0.01, 0.08, -0.94
55, 0.00, 8930.30, 0.00, 0.00, 0.00, 0.00, 0.00, 0.00, -0.01, 0.08, -0.94
56, 0.00, 8918.82, 0.00, 0.00, 0.00, 0.00, 0.00, 0.00, -0.01, 0.08, -0.94
57, 0.00, 8906.01, 0.00, 0.00, 0.00, 0.00, 0.00, 0.00, -0.01, 0.08, -0.94
58, 0.00, 8896.98, 0.00, 0.00, 0.00, 0.00, 0.00, 0.00, -0.01, 0.08, -0.94
59, 0.00, 8932.29, 0.00, 0.00, 0.00, 0.00, 0.00, 0.00, -0.01, 0.08, -0.94
60, 0.00, 8948.77, 0.00, 0.00, 0.00, 0.00, 0.00, 0.00, -0.01, 0.08, -0.94
61, 0.00, 8969.93, 0.00, 0.00, 0.00, 0.00, 0.00, 0.00, -0.01, 0.08, -0.94
62, 0.00, 8969.53, 0.00, 0.00, 0.00, 0.00, 0.00, 0.00, -0.01, 0.08, -0.94
63, 0.00, 8945.95, 0.00, 0.00, 0.00, 0.00, 0.00, 0.00, -0.01, 0.08, -0.94
64, 0.00, 8945.57, 0.00, 0.00, 0.00, 0.00, 0.00, 0.00, -0.01, 0.08, -0.94
65, 0.00, 8968.32, 0.00, 0.00, 0.00, 0.00, 0.00, 0.00, -0.01, 0.08, -0.94
66, 0.00, 8991.19, 0.00, 0.00, 0.00, 0.00, 0.00, 0.00, -0.01, 0.08, -0.94
67, 0.00, 8984.13, 0.00, 0.00, 0.00, 0.00, 0.00, 0.00, -0.01, 0.08, -0.94
68, 0.00, 9008.11, 0.00, 0.00, 0.00, 0.00, 0.00, 0.00, -0.01, 0.07, -0.94
69, 0.00, 9016.78, 0.00, 0.00, 0.00, 0.00, 0.00, 0.00, -0.01, 0.07, -0.94
70, 0.00, 9006.32, 0.00, 0.00, 0.00, 0.00, 0.00, 0.00, -0.01, 0.07, -0.94
71, 0.00, 9012.16, 0.00, 0.00, 0.00, 0.00, 0.00, 0.00, -0.01, 0.07, -0.94
72, 0.00, 8997.94, 0.00, 0.00, 0.00, 0.00, 0.00, 0.00, -0.01, 0.07, -0.94
73, 0.00, 9001.29, 0.00, 0.00, 0.00, 0.00, 0.00, 0.00, -0.00, 0.07, -0.94
74, 0.00, 9010.86, 0.00, 0.00, 0.00, 0.00, 0.00, 0.00, -0.00, 0.07, -0.94
75, 0.00, 9011.28, 0.00, 0.00, 0.00, 0.00, 0.00, 0.00, -0.00, 0.07, -0.94
76, 0.00, 9029.05, 0.00, 0.00, 0.00, 0.00, 0.00, 0.00, -0.00, 0.07, -0.94
77, 0.00, 9030.15, 0.00, 0.00, 0.00, 0.00, 0.00, 0.00, -0.00, 0.07, -0.94
78, 0.00, 9021.16, 0.00, 0.00, 0.00, 0.00, 0.00, 0.00, -0.00, 0.08, -0.94
79, 0.00, 9024.74, 0.00, 0.00, 0.00, 0.00, 0.00, 0.00, -0.00, 0.08, -0.94
80, 0.00, 9032.41, 0.00, 0.00, 0.00, 0.00, 0.00, 0.00, -0.00, 0.08, -0.94
81, 0.00, 9036.39, 0.00, 0.00, 0.00, 0.00, 0.00, 0.00, -0.00, 0.08, -0.94
82, 0.00, 9034.60, 0.00, 0.00, 0.00, 0.00, 0.00, 0.00, -0.00, 0.08, -0.94
83, 0.00, 9036.72, 0.00, 0.00, 0.00, 0.00, 0.00, 0.00, -0.00, 0.07, -0.94
84, 0.00, 9040.74, 0.00, 0.00, 0.00, 0.00, 0.00, 0.00, -0.00, 0.07, -0.94
85, 0.00, 9040.41, 0.00, 0.00, 0.00, 0.00, 0.00, 0.00, -0.00, 0.07, -0.94
86, 0.00, 9045.33, 0.00, 0.00, 0.00, 0.00, 0.00, 0.00, -0.00, 0.07, -0.94
87, 0.00, 9054.89, 0.00, 0.00, 0.00, 0.00, 0.00, 0.00, -0.00, 0.07, -0.94
88, 0.00, 9056.32, 0.00, 0.00, 0.00, 0.00, 0.00, 0.00, -0.00, 0.07, -0.94
89, 0.00, 9047.61, 0.00, 0.00, 0.00, 0.00, 0.00, 0.00, -0.00, 0.07, -0.94
90, 0.00, 9040.39, 0.00, 0.00, 0.00, 0.00, 0.00, 0.00, -0.00, 0.07, -0.94
91, 0.00, 9059.85, 0.00, 0.00, 0.00, 0.00, 0.00, 0.00, -0.00, 0.07, -0.94
92, 0.00, 9074.16, 0.00, 0.00, 0.00, 0.00, 0.00, 0.00, -0.00, 0.07, -0.94
93, 0.00, 9078.72, 0.00, 0.00, 0.00, 0.00, 0.00, 0.00, -0.01, 0.08, -0.93
94, 0.00, 9095.17, 0.00, 0.00, 0.00, 0.00, 0.00, 0.00, -0.01, 0.08, -0.93
95, 0.00, 9088.53, 0.00, 0.00, 0.00, 0.00, 0.00, 0.00, -0.01, 0.08, -0.93
96, 0.00, 9087.37, 0.00, 0.00, 0.00, 0.00, 0.00, 0.00, -0.01, 0.08, -0.93
97, 0.00, 9078.36, 0.00, 0.00, 0.00, 0.00, 0.00, 0.00, -0.01, 0.08, -0.93
98, 0.00, 9116.20, 0.00, 0.00, 0.00, 0.00, 0.00, 0.00, -0.01, 0.08, -0.94
99, 0.00, 9107.98, 0.00, 0.00, 0.00, 0.00, 0.00, 0.00, -0.01, 0.08, -0.94
100, 0.00, 9113.92, 0.00, 0.00, 0.00, 0.00, 0.00, 0.00, -0.01, 0.08, -0.94
101, 0.00, 9123.85, 0.00, 0.00, 0.00, 0.00, 0.00, 0.00, -0.01, 0.08, -0.94
102, 0.00, 9121.17, 0.00, 0.00, 0.00, 0.00, 0.00, 0.00, -0.01, 0.08, -0.94
103, 0.00, 9127.78, 0.00, 0.00, 0.00, 0.00, 0.00, 0.00, -0.00, 0.09, -0.94
104, 0.00, 9134.80, 0.00, 0.00, 0.00, 0.00, 0.00, 0.00, -0.00, 0.09, -0.94
105, 0.00, 9140.63, 0.00, 0.00, 0.00, 0.00, 0.00, 0.00, -0.00, 0.09, -0.94
106, 0.00, 9153.06, 0.00, 0.00, 0.00, 0.00, 0.00, 0.00, -0.00, 0.09, -0.94
107, 0.00, 9156.71, 0.00, 0.00, 0.00, 0.00, 0.00, 0.00, -0.00, 0.09, -0.94
108, 0.00, 9160.04, 0.00, 0.00, 0.00, 0.00, 0.00, 0.00, -0.00, 0.08, -0.95
109, 0.00, 9158.36, 0.00, 0.00, 0.00, 0.00, 0.00, 0.00, -0.00, 0.08, -0.95
110, 0.00, 9160.62, 0.00, 0.00, 0.00, 0.00, 0.00, 0.00, -0.00, 0.08, -0.95
111, 0.00, 9168.28, 0.00, 0.00, 0.00, 0.00, 0.00, 0.00, -0.00, 0.08, -0.95
112, 0.00, 9170.65, 0.00, 0.00, 0.00, 0.00, 0.00, 0.00, -0.00, 0.08, -0.95
113, 0.00, 9175.30, 0.00, 0.00, 0.00, 0.00, 0.00, 0.00, -0.01, 0.08, -0.95
114, 0.00, 9187.19, 0.00, 0.00, 0.00, 0.00, 0.00, 0.00, -0.01, 0.08, -0.95
115, 0.00, 9186.37, 0.00, 0.00, 0.00, 0.00, 0.00, 0.00, -0.01, 0.08, -0.95
116, 0.00, 9190.99, 0.00, 0.00, 0.00, 0.00, 0.00, 0.00, -0.01, 0.08, -0.95
117, 0.00, 9193.52, 0.00, 0.00, 0.00, 0.00, 0.00, 0.00, -0.01, 0.08, -0.95
118, 0.00, 9195.13, 0.00, 0.00, 0.00, 0.00, 0.00, 0.00, -0.01, 0.08, -0.95
119, 0.00, 9202.08, 0.00, 0.00, 0.00, 0.00, 0.00, 0.00, -0.01, 0.08, -0.95
120, 0.00, 9198.82, 0.00, 0.00, 0.00, 0.00, 0.00, 0.00, -0.01, 0.08, -0.95
121, 0.00, 9205.07, 0.00, 0.00, 0.00, 0.00, 0.00, 0.00, -0.01, 0.08, -0.95
122, 0.00, 9204.40, 0.00, 0.00, 0.00, 0.00, 0.00, 0.00, -0.01, 0.08, -0.95
123, 0.00, 9235.27, 0.00, 0.00, 0.00, 0.00, 0.00, 0.00, -0.01, 0.08, -0.94
124, 0.00, 9227.58, 0.00, 0.00, 0.00, 0.00, 0.00, 0.00, -0.01, 0.08, -0.94
125, 0.00, 9226.64, 0.00, 0.00, 0.00, 0.00, 0.00, 0.00, -0.01, 0.08, -0.94
126, 0.00, 9242.76, 0.00, 0.00, 0.00, 0.00, 0.00, 0.00, -0.01, 0.08, -0.94
127, 0.00, 9259.39, 0.00, 0.00, 0.00, 0.00, 0.00, 0.00, -0.01, 0.08, -0.94
128, 0.00, 9271.03, 0.00, 0.00, 0.00, 0.00, 0.00, 0.00, -0.01, 0.07, -0.94
129, 0.00, 9270.81, 0.00, 0.00, 0.00, 0.00, 0.00, 0.00, -0.01, 0.07, -0.94
130, 0.00, 9272.02, 0.00, 0.00, 0.00, 0.00, 0.00, 0.00, -0.01, 0.07, -0.94
131, 0.00, 9269.78, 0.00, 0.00, 0.00, 0.00, 0.00, 0.00, -0.01, 0.07, -0.94
132, 0.00, 9288.13, 0.00, 0.00, 0.00, 0.00, 0.00, 0.00, -0.01, 0.07, -0.94
133, 0.00, 9286.10, 0.00, 0.00, 0.00, 0.00, 0.00, 0.00, -0.00, 0.08, -0.94
134, 0.00, 9294.32, 0.00, 0.00, 0.00, 0.00, 0.00, 0.00, -0.00, 0.08, -0.94
135, 0.00, 9310.06, 0.00, 0.00, 0.00, 0.00, 0.00, 0.00, -0.00, 0.08, -0.94
136, 0.00, 9316.45, 0.00, 0.00, 0.00, 0.00, 0.00, 0.00, -0.00, 0.08, -0.94
137, 0.00, 9321.39, 0.00, 0.00, 0.00, 0.00, 0.00, 0.00, -0.00, 0.08, -0.94
138, 0.00, 9321.30, 0.00, 0.00, 0.00, 0.00, 0.00, 0.00, -0.01, 0.08, -0.94
139, 0.00, 9334.45, 0.00, 0.00, 0.00, 0.00, 0.00, 0.00, -0.01, 0.08, -0.94
140, 0.00, 9339.74, 0.00, 0.00, 0.00, 0.00, 0.00, 0.00, -0.01, 0.08, -0.94
141, 0.00, 9357.02, 0.00, 0.00, 0.00, 0.00, 0.00, 0.00, -0.01, 0.08, -0.94
142, 0.00, 9359.08, 0.00, 0.00, 0.00, 0.00, 0.00, 0.00, -0.01, 0.08, -0.94
143, 0.00, 9369.27, 0.00, 0.00, 0.00, 0.00, 0.00, 0.00, -0.01, 0.08, -0.93
144, 0.00, 9375.19, 0.00, 0.00, 0.00, 0.00, 0.00, 0.00, -0.01, 0.08, -0.93
145, 0.00, 9387.31, 0.00, 0.00, 0.00, 0.00, 0.00, 0.00, -0.01, 0.08, -0.93
146, 0.00, 9381.52, 0.00, 0.00, 0.00, 0.00, 0.00, 0.00, -0.01, 0.08, -0.93
147, 0.00, 9394.66, 0.00, 0.00, 0.00, 0.00, 0.00, 0.00, -0.01, 0.08, -0.93
148, 0.00, 9408.81, 0.00, 0.00, 0.00, 0.00, 0.00, 0.00, -0.01, 0.08, -0.94
149, 0.00, 9418.20, 0.00, 0.00, 0.00, 0.00, 0.00, 0.00, -0.01, 0.08, -0.94
150, 0.00, 9424.79, 0.00, 0.00, 0.00, 0.00, 0.00, 0.00, -0.01, 0.08, -0.94
151, 0.00, 9423.94, 0.00, 0.00, 0.00, 0.00, 0.00, 0.00, -0.01, 0.08, -0.94
152, 0.00, 9432.77, 0.00, 0.00, 0.00, 0.00, 0.00, 0.00, -0.01, 0.08, -0.94
153, 0.00, 9452.42, 0.00, 0.00, 0.00, 0.00, 0.00, 0.00, -0.00, 0.08, -0.94
154, 0.00, 9456.55, 0.00, 0.00, 0.00, 0.00, 0.00, 0.00, -0.00, 0.08, -0.94
155, 0.00, 9468.87, 0.00, 0.00, 0.00, 0.00, 0.00, 0.00, -0.00, 0.08, -0.94
156, 0.00, 9472.74, 0.00, 0.00, 0.00, 0.00, 0.00, 0.00, -0.00, 0.08, -0.94
157, 0.00, 9470.57, 0.00, 0.00, 0.00, 0.00, 0.00, 0.00, -0.00, 0.08, -0.94
158, 0.00, 9475.69, 0.00, 0.00, 0.00, 0.00, 0.00, 0.00, -0.00, 0.08, -0.94
159, 0.00, 9486.10, 0.00, 0.00, 0.00, 0.00, 0.00, 0.00, -0.00, 0.08, -0.94
160, 0.00, 9501.75, 0.00, 0.00, 0.00, 0.00, 0.00, 0.00, -0.00, 0.08, -0.94
161, 0.00, 9508.28, 0.00, 0.00, 0.00, 0.00, 0.00, 0.00, -0.00, 0.08, -0.94
162, 0.00, 9513.33, 0.00, 0.00, 0.00, 0.00, 0.00, 0.00, -0.00, 0.08, -0.94
163, 0.00, 9516.55, 0.00, 0.00, 0.00, 0.00, 0.00, 0.00, -0.00, 0.08, -0.94
164, 0.00, 9519.45, 0.00, 0.00, 0.00, 0.00, 0.00, 0.00, -0.00, 0.08, -0.94
165, 0.00, 9528.53, 0.00, 0.00, 0.00, 0.00, 0.00, 0.00, -0.00, 0.08, -0.94
166, 0.00, 9536.93, 0.00, 0.00, 0.00, 0.00, 0.00, 0.00, -0.00, 0.08, -0.94
167, 0.00, 9530.29, 0.00, 0.00, 0.00, 0.00, 0.00, 0.00, -0.00, 0.08, -0.94
168, 0.00, 9538.96, 0.00, 0.00, 0.00, 0.00, 0.00, 0.00, -0.01, 0.09, -0.94
169, 0.00, 9538.74, 0.00, 0.00, 0.00, 0.00, 0.00, 0.00, -0.01, 0.09, -0.94
170, 0.00, 9550.63, 0.00, 0.00, 0.00, 0.00, 0.00, 0.00, -0.01, 0.09, -0.94
171, 0.00, 9561.14, 0.00, 0.00, 0.00, 0.00, 0.00, 0.00, -0.01, 0.09, -0.94
172, 0.00, 9561.99, 0.00, 0.00, 0.00, 0.00, 0.00, 0.00, -0.01, 0.09, -0.94
173, 0.00, 9561.83, 0.00, 0.00, 0.00, 0.00, 0.00, 0.00, -0.01, 0.08, -0.93
174, 0.00, 9589.97, 0.00, 0.00, 0.00, 0.00, 0.00, 0.00, -0.01, 0.08, -0.93
175, 0.00, 9589.12, 0.00, 0.00, 0.00, 0.00, 0.00, 0.00, -0.01, 0.08, -0.93
176, 0.00, 9597.30, 0.00, 0.00, 0.00, 0.00, 0.00, 0.00, -0.01, 0.08, -0.93
177, 0.00, 9606.29, 0.00, 0.00, 0.00, 0.00, 0.00, 0.00, -0.01, 0.08, -0.93
178, 0.00, 9598.84, 0.00, 0.00, 0.00, 0.00, 0.00, 0.00, -0.00, 0.08, -0.94
179, 0.00, 9593.10, 0.00, 0.00, 0.00, 0.00, 0.00, 0.00, -0.00, 0.08, -0.94
180, 0.00, 9610.42, 0.00, 0.00, 0.00, 0.00, 0.00, 0.00, -0.00, 0.08, -0.94
181, 0.00, 9619.41, 0.00, 0.00, 0.00, 0.00, 0.00, 0.00, -0.00, 0.08, -0.94
182, 0.00, 9618.69, 0.00, 0.00, 0.00, 0.00, 0.00, 0.00, -0.00, 0.08, -0.94
183, 0.00, 9623.66, 0.00, 0.00, 0.00, 0.00, 0.00, 0.00, -0.01, 0.08, -0.94
184, 0.00, 9634.21, 0.00, 0.00, 0.00, 0.00, 0.00, 0.00, -0.01, 0.08, -0.94
185, 0.00, 9636.17, 0.00, 0.00, 0.00, 0.00, 0.00, 0.00, -0.01, 0.08, -0.94
186, 0.00, 9640.42, 0.00, 0.00, 0.00, 0.00, 0.00, 0.00, -0.01, 0.08, -0.94
187, 0.00, 9654.03, 0.00, 0.00, 0.00, 0.00, 0.00, 0.00, -0.01, 0.08, -0.94
188, 0.00, 9647.19, 0.00, 0.00, 0.00, 0.00, 0.00, 0.00, -0.01, 0.08, -0.94
189, 0.00, 9646.63, 0.00, 0.00, 0.00, 0.00, 0.00, 0.00, -0.01, 0.08, -0.94
190, 0.00, 9644.87, 0.00, 0.00, 0.00, 0.00, 0.00, 0.00, -0.01, 0.08, -0.94
191, 0.00, 9657.38, 0.00, 0.00, 0.00, 0.00, 0.00, 0.00, -0.01, 0.08, -0.94
192, 0.00, 9665.09, 0.00, 0.00, 0.00, 0.00, 0.00, 0.00, -0.01, 0.08, -0.94
193, 0.00, 9674.46, 0.00, 0.00, 0.00, 0.00, 0.00, 0.00, -0.01, 0.08, -0.94
194, 0.00, 9682.40, 0.00, 0.00, 0.00, 0.00, 0.00, 0.00, -0.01, 0.08, -0.94
195, 0.00, 9698.11, 0.00, 0.00, 0.00, 0.00, 0.00, 0.00, -0.01, 0.08, -0.94
196, 0.00, 9687.60, 0.00, 0.00, 0.00, 0.00, 0.00, 0.00, -0.01, 0.08, -0.94
197, 0.00, 9699.34, 0.00, 0.00, 0.00, 0.00, 0.00, 0.00, -0.01, 0.08, -0.94
198, 0.00, 9702.00, 0.00, 0.00, 0.00, 0.00, 0.00, 0.00, -0.01, 0.09, -0.94
199, 0.00, 9701.01, 0.00, 0.00, 0.00, 0.00, 0.00, 0.00, -0.01, 0.09, -0.94
200, 0.00, 9714.38, 0.00, 0.00, 0.00, 0.00, 0.00, 0.00, -0.01, 0.09, -0.94
201, 0.00, 9718.47, 0.00, 0.00, 0.00, 0.00, 0.00, 0.00, -0.01, 0.09, -0.94
202, 0.00, 9730.85, 0.00, 0.00, 0.00, 0.00, 0.00, 0.00, -0.01, 0.09, -0.94
203, 0.00, 9748.13, 0.00, 0.00, 0.00, 0.00, 0.00, 0.00, -0.01, 0.09, -0.94
204, 0.00, 9756.29, 0.00, 0.00, 0.00, 0.00, 0.00, 0.00, -0.01, 0.09, -0.94
205, 0.00, 9763.58, 0.00, 0.00, 0.00, 0.00, 0.00, 0.00, -0.01, 0.09, -0.94
206, 0.00, 9776.14, 0.00, 0.00, 0.00, 0.00, 0.00, 0.00, -0.01, 0.09, -0.94
207, 0.00, 9787.16, 0.00, 0.00, 0.00, 0.00, 0.00, 0.00, -0.01, 0.09, -0.94
208, 0.00, 9790.09, 0.00, 0.00, 0.00, 0.00, 0.00, 0.00, -0.01, 0.09, -0.94
209, 0.00, 9802.63, 0.00, 0.00, 0.00, 0.00, 0.00, 0.00, -0.01, 0.09, -0.94
210, 0.00, 9810.14, 0.00, 0.00, 0.00, 0.00, 0.00, 0.00, -0.01, 0.09, -0.94
211, 0.00, 9822.47, 0.00, 0.00, 0.00, 0.00, 0.00, 0.00, -0.01, 0.09, -0.94
212, 0.00, 9834.59, 0.00, 0.00, 0.00, 0.00, 0.00, 0.00, -0.01, 0.09, -0.94
213, 0.00, 9824.40, 0.00, 0.00, 0.00, 0.00, 0.00, 0.00, -0.01, 0.09, -0.94
214, 0.00, 9826.36, 0.00, 0.00, 0.00, 0.00, 0.00, 0.00, -0.01, 0.08, -0.94
215, 0.00, 9846.79, 0.00, 0.00, 0.00, 0.00, 0.00, 0.00, -0.01, 0.08, -0.94
216, 0.00, 9845.90, 0.00, 0.00, 0.00, 0.00, 0.00, 0.00, -0.01, 0.08, -0.94
217, 0.00, 9842.84, 0.00, 0.00, 0.00, 0.00, 0.00, 0.00, -0.01, 0.08, -0.94
218, 0.00, 9863.31, 0.00, 0.00, 0.00, 0.00, 0.00, 0.00, -0.01, 0.08, -0.94
219, 0.00, 9868.61, 0.00, 0.00, 0.00, 0.00, 0.00, 0.00, 0.00, 0.08, -0.94
220, 0.00, 9881.91, 0.00, 0.00, 0.00, 0.00, 0.00, 0.00, 0.00, 0.08, -0.94
221, 0.00, 9900.86, 0.00, 0.00, 0.00, 0.00, 0.00, 0.00, 0.00, 0.08, -0.94
222, 0.00, 9895.09, 0.00, 0.00, 0.00, 0.00, 0.00, 0.00, 0.00, 0.08, -0.94
223, 0.00, 9899.30, 0.00, 0.00, 0.00, 0.00, 0.00, 0.00, 0.00, 0.08, -0.94
224, 0.00, 9904.39, 0.00, 0.00, 0.00, 0.00, 0.00, 0.00, -0.01, 0.08, -0.94
225, 0.00, 9906.16, 0.00, 0.00, 0.00, 0.00, 0.00, 0.00, -0.01, 0.08, -0.94
226, 0.00, 9909.00, 0.00, 0.00, 0.00, 0.00, 0.00, 0.00, -0.01, 0.08, -0.94
227, 0.00, 9907.63, 0.00, 0.00, 0.00, 0.00, 0.00, 0.00, -0.01, 0.08, -0.94
228, 0.00, 9934.39, 0.00, 0.00, 0.00, 0.00, 0.00, 0.00, -0.01, 0.08, -0.94
229, 0.00, 9938.90, 0.00, 0.00, 0.00, 0.00, 0.00, 0.00, -0.00, 0.08, -0.94
230, 0.00, 9944.69, 0.00, 0.00, 0.00, 0.00, 0.00, 0.00, -0.00, 0.08, -0.94
231, 0.00, 9947.22, 0.00, 0.00, 0.00, 0.00, 0.00, 0.00, -0.00, 0.08, -0.94
232, 0.00, 9957.17, 0.00, 0.00, 0.00, 0.00, 0.00, 0.00, -0.00, 0.08, -0.94
233, 0.00, 9953.46, 0.00, 0.00, 0.00, 0.00, 0.00, 0.00, -0.00, 0.08, -0.94
234, 0.00, 9959.92, 0.00, 0.00, 0.00, 0.00, 0.00, 0.00, -0.01, 0.08, -0.94
235, 0.00, 9977.77, 0.00, 0.00, 0.00, 0.00, 0.00, 0.00, -0.01, 0.08, -0.94
236, 0.00, 9979.00, 0.00, 0.00, 0.00, 0.00, 0.00, 0.00, -0.01, 0.08, -0.94
237, 0.00, 9976.88, 0.00, 0.00, 0.00, 0.00, 0.00, 0.00, -0.01, 0.08, -0.94
238, 0.00, 9989.53, 0.00, 0.00, 0.00, 0.00, 0.00, 0.00, -0.01, 0.08, -0.94
239, 0.00, 10002.85, 0.00, 0.00, 0.00, 0.00, 0.00, 0.00, -0.01, 0.08, -0.93
240, 0.00, 10021.16, 0.00, 0.00, 0.00, 0.00, 0.00, 0.00, -0.01, 0.08, -0.93
241, 0.00, 10023.50, 0.00, 0.00, 0.00, 0.00, 0.00, 0.00, -0.01, 0.08, -0.93
242, 0.00, 10009.49, 0.00, 0.00, 0.00, 0.00, 0.00, 0.00, -0.01, 0.08, -0.93
243, 0.00, 10013.78, 0.00, 0.00, 0.00, 0.00, 0.00, 0.00, -0.01, 0.08, -0.93
244, 0.00, 10020.04, 0.00, 0.00, 0.00, 0.00, 0.00, 0.00, -0.01, 0.08, -0.93
245, 0.00, 10022.25, 0.00, 0.00, 0.00, 0.00, 0.00, 0.00, -0.01, 0.08, -0.93
246, 0.00, 10033.36, 0.00, 0.00, 0.00, 0.00, 0.00, 0.00, -0.01, 0.08, -0.93
247, 0.00, 10032.33, 0.00, 0.00, 0.00, 0.00, 0.00, 0.00, -0.01, 0.08, -0.93
248, 0.00, 10012.31, 0.00, 0.00, 0.00, 0.00, 0.00, 0.00, -0.01, 0.08, -0.93
249, 0.00, 10043.93, 0.00, 0.00, 0.00, 0.00, 0.00, 0.00, -0.01, 0.08, -0.93
250, 0.00, 10056.16, 0.00, 0.00, 0.00, 0.00, 0.00, 0.00, -0.01, 0.08, -0.93
251, 0.00, 10057.35, 0.00, 0.00, 0.00, 0.00, 0.00, 0.00, -0.01, 0.08, -0.93
252, 0.00, 10062.73, 0.00, 0.00, 0.00, 0.00, 0.00, 0.00, -0.01, 0.08, -0.93
253, 0.00, 10079.79, 0.00, 0.00, 0.00, 0.00, 0.00, 0.00, -0.01, 0.08, -0.93
254, 0.00, 10094.00, 0.00, 0.00, 0.00, 0.00, 0.00, 0.00, -0.01, 0.08, -0.93
255, 0.00, 10089.24, 0.00, 0.00, 0.00, 0.00, 0.00, 0.00, -0.01, 0.08, -0.93
0, 0.00, 10101.76, 0.00, 0.00, 0.00, 0.00, 0.00, 0.00, -0.01, 0.08, -0.93
1, 0.00, 10107.55, 0.00, 0.00, 0.00, 0.00, 0.00, 0.00, -0.01, 0.08, -0.93
2, 0.00, 10115.68, 0.00, 0.00, 0.00, 0.00, 0.00, 0.00, -0.01, 0.08, -0.93
3, 0.00, 10118.48, 0.00, 0.00, 0.00, 0.00, 0.00, 0.00, -0.01, 0.07, -0.94
4, 0.00, 10115.73, 0.00, 0.00, 0.00, 0.00, 0.00, 0.00, -0.01, 0.07, -0.94
5, 0.00, 10127.17, 0.00, 0.00, 0.00, 0.00, 0.00, 0.00, -0.01, 0.07, -0.94
6, 0.00, 10143.38, 0.00, 0.00, 0.00, 0.00, 0.00, 0.00, -0.01, 0.07, -0.94
7, 0.00, 10150.78, 0.00, 0.00, 0.00, 0.00, 0.00, 0.00, -0.01, 0.07, -0.94
8, 0.00, 10157.48, 0.00, 0.00, 0.00, 0.00, 0.00, 0.00, -0.02, 0.08, -0.93
9, 0.00, 10163.03, 0.00, 0.00, 0.00, 0.00, 0.00, 0.00, -0.02, 0.08, -0.93
10, 0.00, 10168.61, 0.00, 0.00, 0.00, 0.00, 0.00, 0.00, -0.02, 0.08, -0.93
11, 0.00, 10173.11, 0.00, 0.00, 0.00, 0.00, 0.00, 0.00, -0.02, 0.08, -0.93
12, 0.00, 10176.50, 0.00, 0.00, 0.00, 0.00, 0.00, 0.00, -0.02, 0.08, -0.93
13, 0.00, 10174.83, 0.00, 0.00, 0.00, 0.00, 0.00, 0.00, -0.01, 0.08, -0.93
14, 0.00, 10186.45, 0.00, 0.00, 0.00, 0.00, 0.00, 0.00, -0.01, 0.08, -0.93
15, 0.00, 10192.91, 0.00, 0.00, 0.00, 0.00, 0.00, 0.00, -0.01, 0.08, -0.93
16, 0.00, 10200.75, 0.00, 0.00, 0.00, 0.00, 0.00, 0.00, -0.01, 0.08, -0.93
17, 0.00, 10198.81, 0.00, 0.00, 0.00, 0.00, 0.00, 0.00, -0.01, 0.08, -0.93
18, 0.00, 10204.31, 0.00, 0.00, 0.00, 0.00, 0.00, 0.00, -0.01, 0.08, -0.93
19, 0.00, 10201.69, 0.00, 0.00, 0.00, 0.00, 0.00, 0.00, -0.01, 0.08, -0.93
20, 0.00, 10191.84, 0.00, 0.00, 0.00, 0.00, 0.00, 0.00, -0.01, 0.08, -0.93
21, 0.00, 10215.60, 0.00, 0.00, 0.00, 0.00, 0.00, 0.00, -0.01, 0.08, -0.93
22, 0.00, 10225.57, 0.00, 0.00, 0.00, 0.00, 0.00, 0.00, -0.01, 0.08, -0.93
23, 0.00, 10241.46, 0.00, 0.00, 0.00, 0.00, 0.00, 0.00, -0.01, 0.09, -0.94
24, 0.00, 10249.46, 0.00, 0.00, 0.00, 0.00, 0.00, 0.00, -0.01, 0.09, -0.94
25, 0.00, 10252.45, 0.00, 0.00, 0.00, 0.00, 0.00, 0.00, -0.01, 0.09, -0.94
26, 0.00, 10244.50, 0.00, 0.00, 0.00, 0.00, 0.00, 0.00, -0.01, 0.09, -0.94
27, 0.00, 10243.09, 0.00, 0.00, 0.00, 0.00, 0.00, 0.00, -0.01, 0.09, -0.94
28, 0.00, 10264.23, 0.00, 0.00, 0.00, 0.00, 0.00, 0.00, -0.01, 0.08, -0.93
29, 0.00, 10266.29, 0.00, 0.00, 0.00, 0.00, 0.00, 0.00, -0.01, 0.08, -0.93
30, 0.00, 10275.72, 0.00, 0.00, 0.00, 0.00, 0.00, 0.00, -0.01, 0.08, -0.93
31, 0.00, 10276.24, 0.00, 0.00, 0.00, 0.00, 0.00, 0.00, -0.01, 0.08, -0.93
32, 0.00, 10283.68, 0.00, 0.00, 0.00, 0.00, 0.00, 0.00, -0.01, 0.08, -0.93
33, 0.00, 10296.80, 0.00, 0.00, 0.00, 0.00, 0.00, 0.00, -0.01, 0.08, -0.93
34, 0.00, 10297.20, 0.00, 0.00, 0.00, 0.00, 0.00, 0.00, -0.01, 0.08, -0.93
35, 0.00, 10312.47, 0.00, 0.00, 0.00, 0.00, 0.00, 0.00, -0.01, 0.08, -0.93
36, 0.00, 10323.47, 0.00, 0.00, 0.00, 0.00, 0.00, 0.00, -0.01, 0.08, -0.93
37, 0.00, 10314.86, 0.00, 0.00, 0.00, 0.00, 0.00, 0.00, -0.01, 0.08, -0.93
38, 0.00, 10307.93, 0.00, 0.00, 0.00, 0.00, 0.00, 0.00, -0.01, 0.07, -0.93
39, 0.00, 10310.19, 0.00, 0.00, 0.00, 0.00, 0.00, 0.00, -0.01, 0.07, -0.93
40, 0.00, 10324.27, 0.00, 0.00, 0.00, 0.00, 0.00, 0.00, -0.01, 0.07, -0.93
41, 0.00, 10330.91, 0.00, 0.00, 0.00, 0.00, 0.00, 0.00, -0.01, 0.07, -0.93
42, 0.00, 10343.92, 0.00, 0.00, 0.00, 0.00, 0.00, 0.00, -0.01, 0.07, -0.93
43, 0.00, 10361.15, 0.00, 0.00, 0.00, 0.00, 0.00, 0.00, -0.01, 0.08, -0.94
44, 0.00, 10359.56, 0.00, 0.00, 0.00, 0.00, 0.00, 0.00, -0.01, 0.08, -0.94
45, 0.00, 10357.19, 0.00, 0.00, 0.00, 0.00, 0.00, 0.00, -0.01, 0.08, -0.94
46, 0.00, 10371.41, 0.00, 0.00, 0.00, 0.00, 0.00, 0.00, -0.01, 0.08, -0.94
47, 0.00, 10378.79, 0.00, 0.00, 0.00, 0.00, 0.00, 0.00, -0.01, 0.08, -0.94
48, 0.00, 10385.47, 0.00, 0.00, 0.00, 0.00, 0.00, 0.00, -0.01, 0.09, -0.94
49, 0.00, 10388.31, 0.00, 0.00, 0.00, 0.00, 0.00, 0.00, -0.01, 0.09, -0.94
50, 0.00, 10391.30, 0.00, 0.00, 0.00, 0.00, 0.00, 0.00, -0.01, 0.09, -0.94
51, 0.00, 10400.09, 0.00, 0.00, 0.00, 0.00, 0.00, 0.00, -0.01, 0.09, -0.94
52, 0.00, 10407.49, 0.00, 0.00, 0.00, 0.00, 0.00, 0.00, -0.01, 0.09, -0.94
53, 0.00, 10410.10, 0.00, 0.00, 0.00, 0.00, 0.00, 0.00, -0.01, 0.08, -0.95
54, 0.00, 10418.33, 0.00, 0.00, 0.00, 0.00, 0.00, 0.00, -0.01, 0.08, -0.95
55, 0.00, 10428.29, 0.00, 0.00, 0.00, 0.00, 0.00, 0.00, -0.01, 0.08, -0.95
56, 0.00, 10437.84, 0.00, 0.00, 0.00, 0.00, 0.00, 0.00, -0.01, 0.08, -0.95
57, 0.00, 10437.48, 0.00, 0.00, 0.00, 0.00, 0.00, 0.00, -0.01, 0.08, -0.95
58, 0.00, 10442.47, 0.00, 0.00, 0.00, 0.00, 0.00, 0.00, -0.01, 0.08, -0.94
