%OpenBCI Raw EEG Data
%
%Sample Rate = 250.0 Hz
%First Column = SampleIndex
%Other Columns = EEG data in microvolts followed by Accel Data (in G) interleaved with Aux Data
0, 0.00, 53752.73, 0.00, 0.00, 0.00, 0.00, 0.00, 0.00, 0.00, -0.18, 1.01
1, 0.00, 53711.78, 0.00, 0.00, 0.00, 0.00, 0.00, 0.00, 0.00, -0.18, 1.01
2, 0.00, 53674.96, 0.00, 0.00, 0.00, 0.00, 0.00, 0.00, 0.00, -0.19, 1.01
3, 0.00, 53718.53, 0.00, 0.00, 0.00, 0.00, 0.00, 0.00, 0.00, -0.19, 1.01
4, 0.00, 53750.31, 0.00, 0.00, 0.00, 0.00, 0.00, 0.00, 0.00, -0.19, 1.01
5, 0.00, 53716.79, 0.00, 0.00, 0.00, 0.00, 0.00, 0.00, 0.00, -0.19, 1.01
6, 0.00, 53666.36, 0.00, 0.00, 0.00, 0.00, 0.00, 0.00, 0.00, -0.19, 1.01
7, 0.00, 53687.10, 0.00, 0.00, 0.00, 0.00, 0.00, 0.00, 0.00, -0.19, 1.02
8, 0.00, 53749.30, 0.00, 0.00, 0.00, 0.00, 0.00, 0.00, 0.00, -0.19, 1.02
9, 0.00, 53728.83, 0.00, 0.00, 0.00, 0.00, 0.00, 0.00, 0.00, -0.19, 1.02
10, 0.00, 53666.96, 0.00, 0.00, 0.00, 0.00, 0.00, 0.00, 0.00, -0.19, 1.02
11, 0.00, 53672.10, 0.00, 0.00, 0.00, 0.00, 0.00, 0.00, 0.00, -0.19, 1.02
12, 0.00, 53728.99, 0.00, 0.00, 0.00, 0.00, 0.00, 0.00, 0.00, -0.18, 1.02
13, 0.00, 53732.56, 0.00, 0.00, 0.00, 0.00, 0.00, 0.00, 0.00, -0.18, 1.02
14, 0.00, 53669.78, 0.00, 0.00, 0.00, 0.00, 0.00, 0.00, 0.00, -0.18, 1.02
15, 0.00, 53658.38, 0.00, 0.00, 0.00, 0.00, 0.00, 0.00, 0.00, -0.18, 1.02
16, 0.00, 53718.01, 0.00, 0.00, 0.00, 0.00, 0.00, 0.00, 0.00, -0.18, 1.02
17, 0.00, 53735.58, 0.00, 0.00, 0.00, 0.00, 0.00, 0.00, 0.00, -0.19, 1.01
18, 0.00, 53689.20, 0.00, 0.00, 0.00, 0.00, 0.00, 0.00, 0.00, -0.19, 1.01
19, 0.00, 53665.04, 0.00, 0.00, 0.00, 0.00, 0.00, 0.00, 0.00, -0.19, 1.01
20, 0.00, 53716.96, 0.00, 0.00, 0.00, 0.00, 0.00, 0.00, 0.00, -0.19, 1.01
21, 0.00, 53756.14, 0.00, 0.00, 0.00, 0.00, 0.00, 0.00, 0.00, -0.19, 1.01
22, 0.00, 53711.24, 0.00, 0.00, 0.00, 0.00, 0.00, 0.00, 0.00, -0.18, 1.01
23, 0.00, 53670.43, 0.00, 0.00, 0.00, 0.00, 0.00, 0.00, 0.00, -0.18, 1.01
24, 0.00, 53703.82, 0.00, 0.00, 0.00, 0.00, 0.00, 0.00, 0.00, -0.18, 1.01
25, 0.00, 53747.52, 0.00, 0.00, 0.00, 0.00, 0.00, 0.00, 0.00, -0.18, 1.01
26, 0.00, 53715.18, 0.00, 0.00, 0.00, 0.00, 0.00, 0.00, 0.00, -0.18, 1.01
27, 0.00, 53666.56, 0.00, 0.00, 0.00, 0.00, 0.00, 0.00, 0.01, -0.18, 1.01
28, 0.00, 53693.14, 0.00, 0.00, 0.00, 0.00, 0.00, 0.00, 0.01, -0.18, 1.01
29, 0.00, 53743.65, 0.00, 0.00, 0.00, 0.00, 0.00, 0.00, 0.01, -0.18, 1.01
30, 0.00, 53727.82, 0.00, 0.00, 0.00, 0.00, 0.00, 0.00, 0.01, -0.18, 1.01
31, 0.00, 53673.40, 0.00, 0.00, 0.00, 0.00, 0.00, 0.00, 0.01, -0.18, 1.01
32, 0.00, 53684.17, 0.00, 0.00, 0.00, 0.00, 0.00, 0.00, 0.01, -0.18, 1.01
33, 0.00, 53736.70, 0.00, 0.00, 0.00, 0.00, 0.00, 0.00, 0.01, -0.18, 1.01
34, 0.00, 53738.66, 0.00, 0.00, 0.00, 0.00, 0.00, 0.00, 0.01, -0.18, 1.01
35, 0.00, 53682.85, 0.00, 0.00, 0.00, 0.00, 0.00, 0.00, 0.01, -0.18, 1.01
36, 0.00, 53673.31, 0.00, 0.00, 0.00, 0.00, 0.00, 0.00, 0.01, -0.18, 1.01
37, 0.00, 53728.50, 0.00, 0.00, 0.00, 0.00, 0.00, 0.00, 0.00, -0.19, 1.02
38, 0.00, 53727.58, 0.00, 0.00, 0.00, 0.00, 0.00, 0.00, 0.00, -0.19, 1.02
39, 0.00, 53678.70, 0.00, 0.00, 0.00, 0.00, 0.00, 0.00, 0.00, -0.19, 1.02
40, 0.00, 53667.07, 0.00, 0.00, 0.00, 0.00, 0.00, 0.00, 0.00, -0.19, 1.02
41, 0.00, 53706.86, 0.00, 0.00, 0.00, 0.00, 0.00, 0.00, 0.00, -0.19, 1.02
42, 0.00, 53733.99, 0.00, 0.00, 0.00, 0.00, 0.00, 0.00, 0.00, -0.18, 1.01
43, 0.00, 53698.90, 0.00, 0.00, 0.00, 0.00, 0.00, 0.00, 0.00, -0.18, 1.01
44, 0.00, 53673.40, 0.00, 0.00, 0.00, 0.00, 0.00, 0.00, 0.00, -0.18, 1.01
45, 0.00, 53710.61, 0.00, 0.00, 0.00, 0.00, 0.00, 0.00, 0.00, -0.18, 1.01
46, 0.00, 53737.48, 0.00, 0.00, 0.00, 0.00, 0.00, 0.00, 0.00, -0.18, 1.01
47, 0.00, 53706.28, 0.00, 0.00, 0.00, 0.00, 0.00, 0.00, 0.00, -0.18, 1.01
48, 0.00, 53683.48, 0.00, 0.00, 0.00, 0.00, 0.00, 0.00, 0.00, -0.18, 1.01
49, 0.00, 53699.86, 0.00, 0.00, 0.00, 0.00, 0.00, 0.00, 0.00, -0.18, 1.01
50, 0.00, 53724.45, 0.00, 0.00, 0.00, 0.00, 0.00, 0.00, 0.00, -0.18, 1.01
51, 0.00, 53705.85, 0.00, 0.00, 0.00, 0.00, 0.00, 0.00, 0.00, -0.18, 1.01
52, 0.00, 53679.59, 0.00, 0.00, 0.00, 0.00, 0.00, 0.00, 0.00, -0.18, 1.02
53, 0.00, 53699.59, 0.00, 0.00, 0.00, 0.00, 0.00, 0.00, 0.00, -0.18, 1.02
54, 0.00, 53727.20, 0.00, 0.00, 0.00, 0.00, 0.00, 0.00, 0.00, -0.18, 1.02
55, 0.00, 53708.96, 0.00, 0.00, 0.00, 0.00, 0.00, 0.00, 0.00, -0.18, 1.02
56, 0.00, 53674.88, 0.00, 0.00, 0.00, 0.00, 0.00, 0.00, 0.00, -0.18, 1.02
57, 0.00, 53685.74, 0.00, 0.00, 0.00, 0.00, 0.00, 0.00, 0.00, -0.18, 1.02
58, 0.00, 53715.00, 0.00, 0.00, 0.00, 0.00, 0.00, 0.00, 0.00, -0.18, 1.02
59, 0.00, 53700.55, 0.00, 0.00, 0.00, 0.00, 0.00, 0.00, 0.00, -0.18, 1.02
60, 0.00, 53672.55, 0.00, 0.00, 0.00, 0.00, 0.00, 0.00, 0.00, -0.18, 1.02
61, 0.00, 53679.90, 0.00, 0.00, 0.00, 0.00, 0.00, 0.00, 0.00, -0.18, 1.02
62, 0.00, 53707.17, 0.00, 0.00, 0.00, 0.00, 0.00, 0.00, 0.00, -0.18, 1.02
63, 0.00, 53706.70, 0.00, 0.00, 0.00, 0.00, 0.00, 0.00, 0.00, -0.18, 1.02
64, 0.00, 53676.50, 0.00, 0.00, 0.00, 0.00, 0.00, 0.00, 0.00, -0.18, 1.02
65, 0.00, 53679.01, 0.00, 0.00, 0.00, 0.00, 0.00, 0.00, 0.00, -0.18, 1.02
66, 0.00, 53706.19, 0.00, 0.00, 0.00, 0.00, 0.00, 0.00, 0.00, -0.18, 1.02
67, 0.00, 53697.94, 0.00, 0.00, 0.00, 0.00, 0.00, 0.00, 0.00, -0.18, 1.02
68, 0.00, 53662.00, 0.00, 0.00, 0.00, 0.00, 0.00, 0.00, 0.00, -0.18, 1.02
69, 0.00, 53665.31, 0.00, 0.00, 0.00, 0.00, 0.00, 0.00, 0.00, -0.18, 1.02
70, 0.00, 53696.11, 0.00, 0.00, 0.00, 0.00, 0.00, 0.00, 0.00, -0.18, 1.02
71, 0.00, 53708.89, 0.00, 0.00, 0.00, 0.00, 0.00, 0.00, 0.00, -0.18, 1.02
72, 0.00, 53692.49, 0.00, 0.00, 0.00, 0.00, 0.00, 0.00, -0.00, -0.19, 1.02
73, 0.00, 53682.32, 0.00, 0.00, 0.00, 0.00, 0.00, 0.00, -0.00, -0.19, 1.02
74, 0.00, 53704.45, 0.00, 0.00, 0.00, 0.00, 0.00, 0.00, -0.00, -0.19, 1.02
75, 0.00, 53731.85, 0.00, 0.00, 0.00, 0.00, 0.00, 0.00, -0.00, -0.19, 1.02
76, 0.00, 53714.48, 0.00, 0.00, 0.00, 0.00, 0.00, 0.00, -0.00, -0.19, 1.02
77, 0.00, 53686.83, 0.00, 0.00, 0.00, 0.00, 0.00, 0.00, 0.00, -0.18, 1.01
78, 0.00, 53699.57, 0.00, 0.00, 0.00, 0.00, 0.00, 0.00, 0.00, -0.18, 1.01
79, 0.00, 53727.54, 0.00, 0.00, 0.00, 0.00, 0.00, 0.00, 0.00, -0.18, 1.01
80, 0.00, 53723.45, 0.00, 0.00, 0.00, 0.00, 0.00, 0.00, 0.00, -0.18, 1.01
81, 0.00, 53701.32, 0.00, 0.00, 0.00, 0.00, 0.00, 0.00, 0.00, -0.18, 1.01
82, 0.00, 53706.05, 0.00, 0.00, 0.00, 0.00, 0.00, 0.00, 0.00, -0.18, 1.02
83, 0.00, 53741.23, 0.00, 0.00, 0.00, 0.00, 0.00, 0.00, 0.00, -0.18, 1.02
84, 0.00, 53741.32, 0.00, 0.00, 0.00, 0.00, 0.00, 0.00, 0.00, -0.18, 1.02
85, 0.00, 53710.82, 0.00, 0.00, 0.00, 0.00, 0.00, 0.00, 0.00, -0.18, 1.02
86, 0.00, 53709.81, 0.00, 0.00, 0.00, 0.00, 0.00, 0.00, 0.00, -0.18, 1.02
87, 0.00, 53739.05, 0.00, 0.00, 0.00, 0.00, 0.00, 0.00, 0.01, -0.18, 1.02
88, 0.00, 53749.62, 0.00, 0.00, 0.00, 0.00, 0.00, 0.00, 0.01, -0.18, 1.02
89, 0.00, 53714.66, 0.00, 0.00, 0.00, 0.00, 0.00, 0.00, 0.01, -0.18, 1.02
90, 0.00, 53706.46, 0.00, 0.00, 0.00, 0.00, 0.00, 0.00, 0.01, -0.18, 1.02
91, 0.00, 53730.30, 0.00, 0.00, 0.00, 0.00, 0.00, 0.00, 0.01, -0.18, 1.02
92, 0.00, 53734.13, 0.00, 0.00, 0.00, 0.00, 0.00, 0.00, 0.00, -0.17, 1.01
93, 0.00, 53707.93, 0.00, 0.00, 0.00, 0.00, 0.00, 0.00, 0.00, -0.17, 1.01
94, 0.00, 53689.98, 0.00, 0.00, 0.00, 0.00, 0.00, 0.00, 0.00, -0.17, 1.01
95, 0.00, 53704.80, 0.00, 0.00, 0.00, 0.00, 0.00, 0.00, 0.00, -0.17, 1.01
96, 0.00, 53721.07, 0.00, 0.00, 0.00, 0.00, 0.00, 0.00, 0.00, -0.17, 1.01
97, 0.00, 53695.32, 0.00, 0.00, 0.00, 0.00, 0.00, 0.00, 0.01, -0.17, 1.01
98, 0.00, 53677.06, 0.00, 0.00, 0.00, 0.00, 0.00, 0.00, 0.01, -0.17, 1.01
99, 0.00, 53696.44, 0.00, 0.00, 0.00, 0.00, 0.00, 0.00, 0.01, -0.17, 1.01
100, 0.00, 53713.21, 0.00, 0.00, 0.00, 0.00, 0.00, 0.00, 0.01, -0.17, 1.01
101, 0.00, 53696.96, 0.00, 0.00, 0.00, 0.00, 0.00, 0.00, 0.01, -0.17, 1.01
102, 0.00, 53672.26, 0.00, 0.00, 0.00, 0.00, 0.00, 0.00, 0.01, -0.18, 1.02
103, 0.00, 53686.90, 0.00, 0.00, 0.00, 0.00, 0.00, 0.00, 0.01, -0.18, 1.02
104, 0.00, 53727.04, 0.00, 0.00, 0.00, 0.00, 0.00, 0.00, 0.01, -0.18, 1.02
105, 0.00, 53736.03, 0.00, 0.00, 0.00, 0.00, 0.00, 0.00, 0.01, -0.18, 1.02
106, 0.00, 53714.10, 0.00, 0.00, 0.00, 0.00, 0.00, 0.00, 0.01, -0.18, 1.02
107, 0.00, 53714.35, 0.00, 0.00, 0.00, 0.00, 0.00, 0.00, 0.01, -0.19, 1.01
108, 0.00, 53742.11, 0.00, 0.00, 0.00, 0.00, 0.00, 0.00, 0.01, -0.19, 1.01
109, 0.00, 53739.18, 0.00, 0.00, 0.00, 0.00, 0.00, 0.00, 0.01, -0.19, 1.01
110, 0.00, 53710.48, 0.00, 0.00, 0.00, 0.00, 0.00, 0.00, 0.01, -0.19, 1.01
111, 0.00, 53711.89, 0.00, 0.00, 0.00, 0.00, 0.00, 0.00, 0.01, -0.19, 1.01
112, 0.00, 53742.36, 0.00, 0.00, 0.00, 0.00, 0.00, 0.00, 0.01, -0.19, 1.02
113, 0.00, 53755.79, 0.00, 0.00, 0.00, 0.00, 0.00, 0.00, 0.01, -0.19, 1.02
114, 0.00, 53736.12, 0.00, 0.00, 0.00, 0.00, 0.00, 0.00, 0.01, -0.19, 1.02
115, 0.00, 53729.05, 0.00, 0.00, 0.00, 0.00, 0.00, 0.00, 0.01, -0.19, 1.02
116, 0.00, 53748.01, 0.00, 0.00, 0.00, 0.00, 0.00, 0.00, 0.01, -0.19, 1.02
117, 0.00, 53760.50, 0.00, 0.00, 0.00, 0.00, 0.00, 0.00, 0.01, -0.19, 1.01
118, 0.00, 53738.62, 0.00, 0.00, 0.00, 0.00, 0.00, 0.00, 0.01, -0.19, 1.01
119, 0.00, 53723.33, 0.00, 0.00, 0.00, 0.00, 0.00, 0.00, 0.01, -0.19, 1.01
120, 0.00, 53740.03, 0.00, 0.00, 0.00, 0.00, 0.00, 0.00, 0.01, -0.19, 1.01
121, 0.00, 53749.95, 0.00, 0.00, 0.00, 0.00, 0.00, 0.00, 0.01, -0.19, 1.01
122, 0.00, 53722.98, 0.00, 0.00, 0.00, 0.00, 0.00, 0.00, 0.01, -0.18, 1.01
123, 0.00, 53703.06, 0.00, 0.00, 0.00, 0.00, 0.00, 0.00, 0.01, -0.18, 1.01
124, 0.00, 53727.20, 0.00, 0.00, 0.00, 0.00, 0.00, 0.00, 0.01, -0.18, 1.01
125, 0.00, 53743.63, 0.00, 0.00, 0.00, 0.00, 0.00, 0.00, 0.01, -0.18, 1.01
126, 0.00, 53712.76, 0.00, 0.00, 0.00, 0.00, 0.00, 0.00, 0.01, -0.18, 1.01
127, 0.00, 53685.71, 0.00, 0.00, 0.00, 0.00, 0.00, 0.00, 0.01, -0.18, 1.02
128, 0.00, 53691.48, 0.00, 0.00, 0.00, 0.00, 0.00, 0.00, 0.01, -0.18, 1.02
129, 0.00, 53726.75, 0.00, 0.00, 0.00, 0.00, 0.00, 0.00, 0.01, -0.18, 1.02
130, 0.00, 53723.33, 0.00, 0.00, 0.00, 0.00, 0.00, 0.00, 0.01, -0.18, 1.02
131, 0.00, 53696.62, 0.00, 0.00, 0.00, 0.00, 0.00, 0.00, 0.01, -0.18, 1.02
132, 0.00, 53705.61, 0.00, 0.00, 0.00, 0.00, 0.00, 0.00, 0.01, -0.18, 1.01
133, 0.00, 53730.95, 0.00, 0.00, 0.00, 0.00, 0.00, 0.00, 0.01, -0.18, 1.01
134, 0.00, 53739.80, 0.00, 0.00, 0.00, 0.00, 0.00, 0.00, 0.01, -0.18, 1.01
135, 0.00, 53717.25, 0.00, 0.00, 0.00, 0.00, 0.00, 0.00, 0.01, -0.18, 1.01
136, 0.00, 53712.92, 0.00, 0.00, 0.00, 0.00, 0.00, 0.00, 0.01, -0.18, 1.01
137, 0.00, 53742.06, 0.00, 0.00, 0.00, 0.00, 0.00, 0.00, 0.01, -0.17, 1.01
138, 0.00, 53749.53, 0.00, 0.00, 0.00, 0.00, 0.00, 0.00, 0.01, -0.17, 1.01
139, 0.00, 53719.98, 0.00, 0.00, 0.00, 0.00, 0.00, 0.00, 0.01, -0.17, 1.01
140, 0.00, 53713.45, 0.00, 0.00, 0.00, 0.00, 0.00, 0.00, 0.01, -0.17, 1.01
141, 0.00, 53739.98, 0.00, 0.00, 0.00, 0.00, 0.00, 0.00, 0.01, -0.17, 1.01
142, 0.00, 53760.66, 0.00, 0.00, 0.00, 0.00, 0.00, 0.00, 0.01, -0.17, 1.01
143, 0.00, 53729.37, 0.00, 0.00, 0.00, 0.00, 0.00, 0.00, 0.00, -0.17, 1.02
144, 0.00, 53708.69, 0.00, 0.00, 0.00, 0.00, 0.00, 0.00, 0.00, -0.17, 1.02
145, 0.00, 53723.49, 0.00, 0.00, 0.00, 0.00, 0.00, 0.00, 0.00, -0.17, 1.02
146, 0.00, 53744.45, 0.00, 0.00, 0.00, 0.00, 0.00, 0.00, 0.00, -0.17, 1.02
147, 0.00, 53728.29, 0.00, 0.00, 0.00, 0.00, 0.00, 0.00, 0.00, -0.17, 1.02
148, 0.00, 53707.42, 0.00, 0.00, 0.00, 0.00, 0.00, 0.00, 0.01, -0.18, 1.01
149, 0.00, 53718.68, 0.00, 0.00, 0.00, 0.00, 0.00, 0.00, 0.01, -0.18, 1.01
150, 0.00, 53743.11, 0.00, 0.00, 0.00, 0.00, 0.00, 0.00, 0.01, -0.18, 1.01
151, 0.00, 53730.80, 0.00, 0.00, 0.00, 0.00, 0.00, 0.00, 0.01, -0.18, 1.01
152, 0.00, 53696.44, 0.00, 0.00, 0.00, 0.00, 0.00, 0.00, 0.01, -0.18, 1.01
153, 0.00, 53710.26, 0.00, 0.00, 0.00, 0.00, 0.00, 0.00, 0.01, -0.18, 1.02
154, 0.00, 53735.09, 0.00, 0.00, 0.00, 0.00, 0.00, 0.00, 0.01, -0.18, 1.02
155, 0.00, 53729.95, 0.00, 0.00, 0.00, 0.00, 0.00, 0.00, 0.01, -0.18, 1.02
156, 0.00, 53697.98, 0.00, 0.00, 0.00, 0.00, 0.00, 0.00, 0.01, -0.18, 1.02
157, 0.00, 53703.93, 0.00, 0.00, 0.00, 0.00, 0.00, 0.00, 0.01, -0.18, 1.02
158, 0.00, 53733.86, 0.00, 0.00, 0.00, 0.00, 0.00, 0.00, 0.01, -0.18, 1.02
159, 0.00, 53734.39, 0.00, 0.00, 0.00, 0.00, 0.00, 0.00, 0.01, -0.18, 1.02
160, 0.00, 53710.12, 0.00, 0.00, 0.00, 0.00, 0.00, 0.00, 0.01, -0.18, 1.02
161, 0.00, 53700.04, 0.00, 0.00, 0.00, 0.00, 0.00, 0.00, 0.01, -0.18, 1.02
162, 0.00, 53726.95, 0.00, 0.00, 0.00, 0.00, 0.00, 0.00, 0.01, -0.18, 1.02
163, 0.00, 53740.92, 0.00, 0.00, 0.00, 0.00, 0.00, 0.00, 0.01, -0.18, 1.02
164, 0.00, 53714.46, 0.00, 0.00, 0.00, 0.00, 0.00, 0.00, 0.01, -0.18, 1.02
165, 0.00, 53700.64, 0.00, 0.00, 0.00, 0.00, 0.00, 0.00, 0.01, -0.18, 1.02
166, 0.00, 53724.74, 0.00, 0.00, 0.00, 0.00, 0.00, 0.00, 0.01, -0.18, 1.02
167, 0.00, 53741.06, 0.00, 0.00, 0.00, 0.00, 0.00, 0.00, 0.01, -0.18, 1.02
168, 0.00, 53720.27, 0.00, 0.00, 0.00, 0.00, 0.00, 0.00, 0.01, -0.18, 1.02
169, 0.00, 53703.89, 0.00, 0.00, 0.00, 0.00, 0.00, 0.00, 0.01, -0.18, 1.02
170, 0.00, 53725.43, 0.00, 0.00, 0.00, 0.00, 0.00, 0.00, 0.01, -0.18, 1.02
171, 0.00, 53741.57, 0.00, 0.00, 0.00, 0.00, 0.00, 0.00, 0.01, -0.18, 1.02
172, 0.00, 53728.79, 0.00, 0.00, 0.00, 0.00, 0.00, 0.00, 0.01, -0.18, 1.02
173, 0.00, 53702.77, 0.00, 0.00, 0.00, 0.00, 0.00, 0.00, 0.00, -0.18, 1.01
174, 0.00, 53706.01, 0.00, 0.00, 0.00, 0.00, 0.00, 0.00, 0.00, -0.18, 1.01
175, 0.00, 53728.63, 0.00, 0.00, 0.00, 0.00, 0.00, 0.00, 0.00, -0.18, 1.01
176, 0.00, 53724.92, 0.00, 0.00, 0.00, 0.00, 0.00, 0.00, 0.00, -0.18, 1.01
177, 0.00, 53700.09, 0.00, 0.00, 0.00, 0.00, 0.00, 0.00, 0.00, -0.18, 1.01
178, 0.00, 53701.96, 0.00, 0.00, 0.00, 0.00, 0.00, 0.00, 0.00, -0.19, 1.02
179, 0.00, 53734.17, 0.00, 0.00, 0.00, 0.00, 0.00, 0.00, 0.00, -0.19, 1.02
180, 0.00, 53731.00, 0.00, 0.00, 0.00, 0.00, 0.00, 0.00, 0.00, -0.19, 1.02
181, 0.00, 53708.34, 0.00, 0.00, 0.00, 0.00, 0.00, 0.00, 0.00, -0.19, 1.02
182, 0.00, 53704.29, 0.00, 0.00, 0.00, 0.00, 0.00, 0.00, 0.00, -0.19, 1.02
183, 0.00, 53730.51, 0.00, 0.00, 0.00, 0.00, 0.00, 0.00, 0.00, -0.19, 1.01
184, 0.00, 53739.00, 0.00, 0.00, 0.00, 0.00, 0.00, 0.00, 0.00, -0.19, 1.01
185, 0.00, 53705.52, 0.00, 0.00, 0.00, 0.00, 0.00, 0.00, 0.00, -0.19, 1.01
186, 0.00, 53690.74, 0.00, 0.00, 0.00, 0.00, 0.00, 0.00, 0.00, -0.19, 1.01
187, 0.00, 53717.97, 0.00, 0.00, 0.00, 0.00, 0.00, 0.00, 0.00, -0.19, 1.01
188, 0.00, 53738.33, 0.00, 0.00, 0.00, 0.00, 0.00, 0.00, 0.00, -0.18, 1.01
189, 0.00, 53713.43, 0.00, 0.00, 0.00, 0.00, 0.00, 0.00, 0.00, -0.18, 1.01
190, 0.00, 53693.09, 0.00, 0.00, 0.00, 0.00, 0.00, 0.00, 0.00, -0.18, 1.01
191, 0.00, 53718.35, 0.00, 0.00, 0.00, 0.00, 0.00, 0.00, 0.00, -0.18, 1.01
192, 0.00, 53737.55, 0.00, 0.00, 0.00, 0.00, 0.00, 0.00, 0.00, -0.18, 1.01
193, 0.00, 53716.22, 0.00, 0.00, 0.00, 0.00, 0.00, 0.00, 0.00, -0.19, 1.01
194, 0.00, 53693.34, 0.00, 0.00, 0.00, 0.00, 0.00, 0.00, 0.00, -0.19, 1.01
195, 0.00, 53705.09, 0.00, 0.00, 0.00, 0.00, 0.00, 0.00, 0.00, -0.19, 1.01
196, 0.00, 53729.64, 0.00, 0.00, 0.00, 0.00, 0.00, 0.00, 0.00, -0.19, 1.01
197, 0.00, 53712.20, 0.00, 0.00, 0.00, 0.00, 0.00, 0.00, 0.00, -0.19, 1.01
198, 0.00, 53684.48, 0.00, 0.00, 0.00, 0.00, 0.00, 0.00, 0.01, -0.18, 1.00
199, 0.00, 53710.21, 0.00, 0.00, 0.00, 0.00, 0.00, 0.00, 0.01, -0.18, 1.00
200, 0.00, 53735.00, 0.00, 0.00, 0.00, 0.00, 0.00, 0.00, 0.01, -0.18, 1.00
201, 0.00, 53729.17, 0.00, 0.00, 0.00, 0.00, 0.00, 0.00, 0.01, -0.18, 1.00
202, 0.00, 53702.84, 0.00, 0.00, 0.00, 0.00, 0.00, 0.00, 0.01, -0.18, 1.00
203, 0.00, 53703.51, 0.00, 0.00, 0.00, 0.00, 0.00, 0.00, 0.01, -0.19, 1.01
204, 0.00, 53736.21, 0.00, 0.00, 0.00, 0.00, 0.00, 0.00, 0.01, -0.19, 1.01
205, 0.00, 53728.50, 0.00, 0.00, 0.00, 0.00, 0.00, 0.00, 0.01, -0.19, 1.01
206, 0.00, 53696.38, 0.00, 0.00, 0.00, 0.00, 0.00, 0.00, 0.01, -0.19, 1.01
207, 0.00, 53686.65, 0.00, 0.00, 0.00, 0.00, 0.00, 0.00, 0.01, -0.19, 1.01
208, 0.00, 53709.81, 0.00, 0.00, 0.00, 0.00, 0.00, 0.00, 0.01, -0.19, 1.01
209, 0.00, 53723.60, 0.00, 0.00, 0.00, 0.00, 0.00, 0.00, 0.01, -0.19, 1.01
210, 0.00, 53696.80, 0.00, 0.00, 0.00, 0.00, 0.00, 0.00, 0.01, -0.19, 1.01
211, 0.00, 53682.61, 0.00, 0.00, 0.00, 0.00, 0.00, 0.00, 0.01, -0.19, 1.01
212, 0.00, 53703.59, 0.00, 0.00, 0.00, 0.00, 0.00, 0.00, 0.01, -0.19, 1.01
213, 0.00, 53718.86, 0.00, 0.00, 0.00, 0.00, 0.00, 0.00, 0.01, -0.19, 1.02
214, 0.00, 53696.27, 0.00, 0.00, 0.00, 0.00, 0.00, 0.00, 0.01, -0.19, 1.02
215, 0.00, 53679.01, 0.00, 0.00, 0.00, 0.00, 0.00, 0.00, 0.01, -0.19, 1.02
216, 0.00, 53698.75, 0.00, 0.00, 0.00, 0.00, 0.00, 0.00, 0.01, -0.19, 1.02
217, 0.00, 53716.92, 0.00, 0.00, 0.00, 0.00, 0.00, 0.00, 0.01, -0.19, 1.02
218, 0.00, 53704.02, 0.00, 0.00, 0.00, 0.00, 0.00, 0.00, 0.01, -0.19, 1.01
219, 0.00, 53679.86, 0.00, 0.00, 0.00, 0.00, 0.00, 0.00, 0.01, -0.19, 1.01
220, 0.00, 53698.12, 0.00, 0.00, 0.00, 0.00, 0.00, 0.00, 0.01, -0.19, 1.01
221, 0.00, 53718.97, 0.00, 0.00, 0.00, 0.00, 0.00, 0.00, 0.01, -0.19, 1.01
222, 0.00, 53704.51, 0.00, 0.00, 0.00, 0.00, 0.00, 0.00, 0.01, -0.19, 1.01
223, 0.00, 53683.84, 0.00, 0.00, 0.00, 0.00, 0.00, 0.00, 0.01, -0.19, 1.02
224, 0.00, 53691.48, 0.00, 0.00, 0.00, 0.00, 0.00, 0.00, 0.01, -0.19, 1.02
225, 0.00, 53717.39, 0.00, 0.00, 0.00, 0.00, 0.00, 0.00, 0.01, -0.19, 1.02
226, 0.00, 53718.84, 0.00, 0.00, 0.00, 0.00, 0.00, 0.00, 0.01, -0.19, 1.02
227, 0.00, 53694.83, 0.00, 0.00, 0.00, 0.00, 0.00, 0.00, 0.01, -0.19, 1.02
228, 0.00, 53703.71, 0.00, 0.00, 0.00, 0.00, 0.00, 0.00, 0.01, -0.18, 1.01
229, 0.00, 53730.60, 0.00, 0.00, 0.00, 0.00, 0.00, 0.00, 0.01, -0.18, 1.01
230, 0.00, 53733.55, 0.00, 0.00, 0.00, 0.00, 0.00, 0.00, 0.01, -0.18, 1.01
231, 0.00, 53702.01, 0.00, 0.00, 0.00, 0.00, 0.00, 0.00, 0.01, -0.18, 1.01
232, 0.00, 53698.37, 0.00, 0.00, 0.00, 0.00, 0.00, 0.00, 0.01, -0.18, 1.01
233, 0.00, 53729.97, 0.00, 0.00, 0.00, 0.00, 0.00, 0.00, 0.01, -0.18, 1.02
234, 0.00, 53746.20, 0.00, 0.00, 0.00, 0.00, 0.00, 0.00, 0.01, -0.18, 1.02
235, 0.00, 53721.03, 0.00, 0.00, 0.00, 0.00, 0.00, 0.00, 0.01, -0.18, 1.02
236, 0.00, 53705.45, 0.00, 0.00, 0.00, 0.00, 0.00, 0.00, 0.01, -0.18, 1.02
237, 0.00, 53732.34, 0.00, 0.00, 0.00, 0.00, 0.00, 0.00, 0.01, -0.18, 1.02
238, 0.00, 53751.23, 0.00, 0.00, 0.00, 0.00, 0.00, 0.00, 0.01, -0.18, 1.01
239, 0.00, 53729.93, 0.00, 0.00, 0.00, 0.00, 0.00, 0.00, 0.01, -0.18, 1.01
240, 0.00, 53705.96, 0.00, 0.00, 0.00, 0.00, 0.00, 0.00, 0.01, -0.18, 1.01
241, 0.00, 53723.40, 0.00, 0.00, 0.00, 0.00, 0.00, 0.00, 0.01, -0.18, 1.01
242, 0.00, 53744.63, 0.00, 0.00, 0.00, 0.00, 0.00, 0.00, 0.01, -0.18, 1.01
243, 0.00, 53726.95, 0.00, 0.00, 0.00, 0.00, 0.00, 0.00, 0.01, -0.19, 1.01
244, 0.00, 53702.63, 0.00, 0.00, 0.00, 0.00, 0.00, 0.00, 0.01, -0.19, 1.01
245, 0.00, 53710.46, 0.00, 0.00, 0.00, 0.00, 0.00, 0.00, 0.01, -0.19, 1.01
246, 0.00, 53735.94, 0.00, 0.00, 0.00, 0.00, 0.00, 0.00, 0.01, -0.19, 1.01
247, 0.00, 53733.21, 0.00, 0.00, 0.00, 0.00, 0.00, 0.00, 0.01, -0.19, 1.01
248, 0.00, 53701.92, 0.00, 0.00, 0.00, 0.00, 0.00, 0.00, 0.01, -0.19, 1.01
249, 0.00, 53702.48, 0.00, 0.00, 0.00, 0.00, 0.00, 0.00, 0.01, -0.19, 1.01
250, 0.00, 53730.75, 0.00, 0.00, 0.00, 0.00, 0.00, 0.00, 0.01, -0.19, 1.01
251, 0.00, 53737.39, 0.00, 0.00, 0.00, 0.00, 0.00, 0.00, 0.01, -0.19, 1.01
252, 0.00, 53719.62, 0.00, 0.00, 0.00, 0.00, 0.00, 0.00, 0.01, -0.19, 1.01
253, 0.00, 53729.73, 0.00, 0.00, 0.00, 0.00, 0.00, 0.00, 0.01, -0.19, 1.01
254, 0.00, 53736.41, 0.00, 0.00, 0.00, 0.00, 0.00, 0.00, 0.01, -0.19, 1.01
255, 0.00, 53736.03, 0.00, 0.00, 0.00, 0.00, 0.00, 0.00, 0.01, -0.19, 1.01
0, 0.00, 53724.72, 0.00, 0.00, 0.00, 0.00, 0.00, 0.00, 0.01, -0.19, 1.01
1, 0.00, 53720.25, 0.00, 0.00, 0.00, 0.00, 0.00, 0.00, 0.01, -0.19, 1.01
2, 0.00, 53747.56, 0.00, 0.00, 0.00, 0.00, 0.00, 0.00, 0.01, -0.18, 1.01
3, 0.00, 53756.93, 0.00, 0.00, 0.00, 0.00, 0.00, 0.00, 0.01, -0.18, 1.01
4, 0.00, 53731.78, 0.00, 0.00, 0.00, 0.00, 0.00, 0.00, 0.01, -0.18, 1.01
5, 0.00, 53715.84, 0.00, 0.00, 0.00, 0.00, 0.00, 0.00, 0.01, -0.18, 1.01
6, 0.00, 53733.10, 0.00, 0.00, 0.00, 0.00, 0.00, 0.00, 0.01, -0.18, 1.01
7, 0.00, 53755.25, 0.00, 0.00, 0.00, 0.00, 0.00, 0.00, 0.00, -0.18, 1.02
8, 0.00, 53737.53, 0.00, 0.00, 0.00, 0.00, 0.00, 0.00, 0.00, -0.18, 1.02
9, 0.00, 53712.29, 0.00, 0.00, 0.00, 0.00, 0.00, 0.00, 0.00, -0.18, 1.02
10, 0.00, 53724.76, 0.00, 0.00, 0.00, 0.00, 0.00, 0.00, 0.00, -0.18, 1.02
11, 0.00, 53749.21, 0.00, 0.00, 0.00, 0.00, 0.00, 0.00, 0.00, -0.18, 1.02
12, 0.00, 53740.95, 0.00, 0.00, 0.00, 0.00, 0.00, 0.00, 0.01, -0.18, 1.01
13, 0.00, 53709.95, 0.00, 0.00, 0.00, 0.00, 0.00, 0.00, 0.01, -0.18, 1.01
14, 0.00, 53720.02, 0.00, 0.00, 0.00, 0.00, 0.00, 0.00, 0.01, -0.18, 1.01
15, 0.00, 53751.52, 0.00, 0.00, 0.00, 0.00, 0.00, 0.00, 0.01, -0.18, 1.01
16, 0.00, 53746.64, 0.00, 0.00, 0.00, 0.00, 0.00, 0.00, 0.01, -0.18, 1.01
17, 0.00, 53716.45, 0.00, 0.00, 0.00, 0.00, 0.00, 0.00, 0.01, -0.18, 1.01
18, 0.00, 53721.61, 0.00, 0.00, 0.00, 0.00, 0.00, 0.00, 0.01, -0.18, 1.01
19, 0.00, 53749.93, 0.00, 0.00, 0.00, 0.00, 0.00, 0.00, 0.01, -0.18, 1.01
20, 0.00, 53753.24, 0.00, 0.00, 0.00, 0.00, 0.00, 0.00, 0.01, -0.18, 1.01
21, 0.00, 53724.70, 0.00, 0.00, 0.00, 0.00, 0.00, 0.00, 0.01, -0.18, 1.01
22, 0.00, 53724.72, 0.00, 0.00, 0.00, 0.00, 0.00, 0.00, 0.01, -0.18, 1.01
23, 0.00, 53747.02, 0.00, 0.00, 0.00, 0.00, 0.00, 0.00, 0.01, -0.18, 1.01
24, 0.00, 53751.79, 0.00, 0.00, 0.00, 0.00, 0.00, 0.00, 0.01, -0.18, 1.01
25, 0.00, 53732.18, 0.00, 0.00, 0.00, 0.00, 0.00, 0.00, 0.01, -0.18, 1.01
26, 0.00, 53711.71, 0.00, 0.00, 0.00, 0.00, 0.00, 0.00, 0.01, -0.18, 1.01
27, 0.00, 53734.02, 0.00, 0.00, 0.00, 0.00, 0.00, 0.00, 0.01, -0.19, 1.01
28, 0.00, 53748.99, 0.00, 0.00, 0.00, 0.00, 0.00, 0.00, 0.01, -0.19, 1.01
29, 0.00, 53724.70, 0.00, 0.00, 0.00, 0.00, 0.00, 0.00, 0.01, -0.19, 1.01
30, 0.00, 53707.20, 0.00, 0.00, 0.00, 0.00, 0.00, 0.00, 0.01, -0.19, 1.01
31, 0.00, 53720.49, 0.00, 0.00, 0.00, 0.00, 0.00, 0.00, 0.01, -0.19, 1.01
32, 0.00, 53740.05, 0.00, 0.00, 0.00, 0.00, 0.00, 0.00, 0.01, -0.19, 1.02
33, 0.00, 53727.45, 0.00, 0.00, 0.00, 0.00, 0.00, 0.00, 0.01, -0.19, 1.02
34, 0.00, 53703.48, 0.00, 0.00, 0.00, 0.00, 0.00, 0.00, 0.01, -0.19, 1.02
35, 0.00, 53714.73, 0.00, 0.00, 0.00, 0.00, 0.00, 0.00, 0.01, -0.19, 1.02
36, 0.00, 53739.49, 0.00, 0.00, 0.00, 0.00, 0.00, 0.00, 0.01, -0.19, 1.02
37, 0.00, 53725.95, 0.00, 0.00, 0.00, 0.00, 0.00, 0.00, 0.01, -0.19, 1.01
38, 0.00, 53703.17, 0.00, 0.00, 0.00, 0.00, 0.00, 0.00, 0.01, -0.19, 1.01
39, 0.00, 53716.49, 0.00, 0.00, 0.00, 0.00, 0.00, 0.00, 0.01, -0.19, 1.01
40, 0.00, 53749.17, 0.00, 0.00, 0.00, 0.00, 0.00, 0.00, 0.01, -0.19, 1.01
41, 0.00, 53749.55, 0.00, 0.00, 0.00, 0.00, 0.00, 0.00, 0.01, -0.19, 1.01
42, 0.00, 53719.15, 0.00, 0.00, 0.00, 0.00, 0.00, 0.00, 0.01, -0.19, 1.02
43, 0.00, 53718.93, 0.00, 0.00, 0.00, 0.00, 0.00, 0.00, 0.01, -0.19, 1.02
44, 0.00, 53748.41, 0.00, 0.00, 0.00, 0.00, 0.00, 0.00, 0.01, -0.19, 1.02
45, 0.00, 53749.59, 0.00, 0.00, 0.00, 0.00, 0.00, 0.00, 0.01, -0.19, 1.02
46, 0.00, 53718.71, 0.00, 0.00, 0.00, 0.00, 0.00, 0.00, 0.01, -0.19, 1.02
47, 0.00, 53708.80, 0.00, 0.00, 0.00, 0.00, 0.00, 0.00, 0.00, -0.19, 1.02
48, 0.00, 53738.24, 0.00, 0.00, 0.00, 0.00, 0.00, 0.00, 0.00, -0.19, 1.02
49, 0.00, 53744.75, 0.00, 0.00, 0.00, 0.00, 0.00, 0.00, 0.00, -0.19, 1.02
50, 0.00, 53720.32, 0.00, 0.00, 0.00, 0.00, 0.00, 0.00, 0.00, -0.19, 1.02
51, 0.00, 53712.38, 0.00, 0.00, 0.00, 0.00, 0.00, 0.00, 0.00, -0.19, 1.02
52, 0.00, 53732.32, 0.00, 0.00, 0.00, 0.00, 0.00, 0.00, 0.00, -0.18, 1.01
53, 0.00, 53748.03, 0.00, 0.00, 0.00, 0.00, 0.00, 0.00, 0.00, -0.18, 1.01
54, 0.00, 53726.62, 0.00, 0.00, 0.00, 0.00, 0.00, 0.00, 0.00, -0.18, 1.01
55, 0.00, 53704.22, 0.00, 0.00, 0.00, 0.00, 0.00, 0.00, 0.00, -0.18, 1.01
56, 0.00, 53729.03, 0.00, 0.00, 0.00, 0.00, 0.00, 0.00, 0.00, -0.18, 1.01
57, 0.00, 53746.13, 0.00, 0.00, 0.00, 0.00, 0.00, 0.00, 0.00, -0.19, 1.01
58, 0.00, 53721.32, 0.00, 0.00, 0.00, 0.00, 0.00, 0.00, 0.00, -0.19, 1.01
59, 0.00, 53696.71, 0.00, 0.00, 0.00, 0.00, 0.00, 0.00, 0.00, -0.19, 1.01
60, 0.00, 53714.44, 0.00, 0.00, 0.00, 0.00, 0.00, 0.00, 0.00, -0.19, 1.01
61, 0.00, 53739.43, 0.00, 0.00, 0.00, 0.00, 0.00, 0.00, 0.00, -0.19, 1.01
62, 0.00, 53731.71, 0.00, 0.00, 0.00, 0.00, 0.00, 0.00, 0.01, -0.18, 1.01
63, 0.00, 53704.29, 0.00, 0.00, 0.00, 0.00, 0.00, 0.00, 0.01, -0.18, 1.01
64, 0.00, 53713.72, 0.00, 0.00, 0.00, 0.00, 0.00, 0.00, 0.01, -0.18, 1.01
65, 0.00, 53747.18, 0.00, 0.00, 0.00, 0.00, 0.00, 0.00, 0.01, -0.18, 1.01
66, 0.00, 53742.93, 0.00, 0.00, 0.00, 0.00, 0.00, 0.00, 0.01, -0.18, 1.01
67, 0.00, 53720.27, 0.00, 0.00, 0.00, 0.00, 0.00, 0.00, 0.01, -0.19, 1.01
68, 0.00, 53717.32, 0.00, 0.00, 0.00, 0.00, 0.00, 0.00, 0.01, -0.19, 1.01
69, 0.00, 53738.02, 0.00, 0.00, 0.00, 0.00, 0.00, 0.00, 0.01, -0.19, 1.01
70, 0.00, 53743.11, 0.00, 0.00, 0.00, 0.00, 0.00, 0.00, 0.01, -0.19, 1.01
71, 0.00, 53714.73, 0.00, 0.00, 0.00, 0.00, 0.00, 0.00, 0.01, -0.19, 1.01
72, 0.00, 53712.20, 0.00, 0.00, 0.00, 0.00, 0.00, 0.00, 0.01, -0.18, 1.01
73, 0.00, 53733.05, 0.00, 0.00, 0.00, 0.00, 0.00, 0.00, 0.01, -0.18, 1.01
74, 0.00, 53746.69, 0.00, 0.00, 0.00, 0.00, 0.00, 0.00, 0.01, -0.18, 1.01
75, 0.00, 53724.74, 0.00, 0.00, 0.00, 0.00, 0.00, 0.00, 0.01, -0.18, 1.01
76, 0.00, 53714.13, 0.00, 0.00, 0.00, 0.00, 0.00, 0.00, 0.01, -0.18, 1.01
77, 0.00, 53731.67, 0.00, 0.00, 0.00, 0.00, 0.00, 0.00, 0.01, -0.18, 1.01
78, 0.00, 53746.51, 0.00, 0.00, 0.00, 0.00, 0.00, 0.00, 0.00, -0.17, 1.01
79, 0.00, 53729.88, 0.00, 0.00, 0.00, 0.00, 0.00, 0.00, 0.00, -0.17, 1.01
80, 0.00, 53717.36, 0.00, 0.00, 0.00, 0.00, 0.00, 0.00, 0.00, -0.17, 1.01
81, 0.00, 53736.16, 0.00, 0.00, 0.00, 0.00, 0.00, 0.00, 0.00, -0.17, 1.01
82, 0.00, 53757.75, 0.00, 0.00, 0.00, 0.00, 0.00, 0.00, 0.00, -0.17, 1.01
83, 0.00, 53739.36, 0.00, 0.00, 0.00, 0.00, 0.00, 0.00, 0.00, -0.17, 1.00
84, 0.00, 53713.00, 0.00, 0.00, 0.00, 0.00, 0.00, 0.00, 0.00, -0.17, 1.00
85, 0.00, 53739.34, 0.00, 0.00, 0.00, 0.00, 0.00, 0.00, 0.00, -0.17, 1.00
86, 0.00, 53765.27, 0.00, 0.00, 0.00, 0.00, 0.00, 0.00, 0.00, -0.17, 1.00
87, 0.00, 53726.30, 0.00, 0.00, 0.00, 0.00, 0.00, 0.00, 0.00, -0.17, 1.00
88, 0.00, 53690.16, 0.00, 0.00, 0.00, 0.00, 0.00, 0.00, 0.00, -0.19, 1.00
89, 0.00, 53692.98, 0.00, 0.00, 0.00, 0.00, 0.00, 0.00, 0.00, -0.19, 1.00
90, 0.00, 53712.43, 0.00, 0.00, 0.00, 0.00, 0.00, 0.00, 0.00, -0.19, 1.00
91, 0.00, 53715.02, 0.00, 0.00, 0.00, 0.00, 0.00, 0.00, 0.00, -0.19, 1.00
92, 0.00, 53685.89, 0.00, 0.00, 0.00, 0.00, 0.00, 0.00, 0.00, -0.19, 1.00
93, 0.00, 53676.64, 0.00, 0.00, 0.00, 0.00, 0.00, 0.00, 0.00, -0.18, 1.01
94, 0.00, 53702.77, 0.00, 0.00, 0.00, 0.00, 0.00, 0.00, 0.00, -0.18, 1.01
95, 0.00, 53711.82, 0.00, 0.00, 0.00, 0.00, 0.00, 0.00, 0.00, -0.18, 1.01
96, 0.00, 53685.71, 0.00, 0.00, 0.00, 0.00, 0.00, 0.00, 0.00, -0.18, 1.01
97, 0.00, 53678.02, 0.00, 0.00, 0.00, 0.00, 0.00, 0.00, 0.00, -0.18, 1.01
98, 0.00, 53702.77, 0.00, 0.00, 0.00, 0.00, 0.00, 0.00, 0.01, -0.18, 1.02
99, 0.00, 53730.55, 0.00, 0.00, 0.00, 0.00, 0.00, 0.00, 0.01, -0.18, 1.02
100, 0.00, 53710.21, 0.00, 0.00, 0.00, 0.00, 0.00, 0.00, 0.01, -0.18, 1.02
101, 0.00, 53696.46, 0.00, 0.00, 0.00, 0.00, 0.00, 0.00, 0.01, -0.18, 1.02
102, 0.00, 53716.25, 0.00, 0.00, 0.00, 0.00, 0.00, 0.00, 0.01, -0.18, 1.02
103, 0.00, 53736.52, 0.00, 0.00, 0.00, 0.00, 0.00, 0.00, 0.01, -0.19, 1.02
104, 0.00, 53715.84, 0.00, 0.00, 0.00, 0.00, 0.00, 0.00, 0.01, -0.19, 1.02
105, 0.00, 53693.22, 0.00, 0.00, 0.00, 0.00, 0.00, 0.00, 0.01, -0.19, 1.02
106, 0.00, 53710.77, 0.00, 0.00, 0.00, 0.00, 0.00, 0.00, 0.01, -0.19, 1.02
107, 0.00, 53732.41, 0.00, 0.00, 0.00, 0.00, 0.00, 0.00, 0.01, -0.19, 1.02
108, 0.00, 53712.63, 0.00, 0.00, 0.00, 0.00, 0.00, 0.00, 0.00, -0.19, 1.02
109, 0.00, 53687.46, 0.00, 0.00, 0.00, 0.00, 0.00, 0.00, 0.00, -0.19, 1.02
110, 0.00, 53695.84, 0.00, 0.00, 0.00, 0.00, 0.00, 0.00, 0.00, -0.19, 1.02
111, 0.00, 53716.34, 0.00, 0.00, 0.00, 0.00, 0.00, 0.00, 0.00, -0.19, 1.02
112, 0.00, 53713.61, 0.00, 0.00, 0.00, 0.00, 0.00, 0.00, 0.00, -0.19, 1.02
113, 0.00, 53691.91, 0.00, 0.00, 0.00, 0.00, 0.00, 0.00, 0.01, -0.18, 1.02
114, 0.00, 53697.23, 0.00, 0.00, 0.00, 0.00, 0.00, 0.00, 0.01, -0.18, 1.02
115, 0.00, 53729.41, 0.00, 0.00, 0.00, 0.00, 0.00, 0.00, 0.01, -0.18, 1.02
116, 0.00, 53731.94, 0.00, 0.00, 0.00, 0.00, 0.00, 0.00, 0.01, -0.18, 1.02
117, 0.00, 53711.22, 0.00, 0.00, 0.00, 0.00, 0.00, 0.00, 0.01, -0.18, 1.02
118, 0.00, 53701.05, 0.00, 0.00, 0.00, 0.00, 0.00, 0.00, 0.00, -0.18, 1.02
119, 0.00, 53724.27, 0.00, 0.00, 0.00, 0.00, 0.00, 0.00, 0.00, -0.18, 1.02
120, 0.00, 53738.89, 0.00, 0.00, 0.00, 0.00, 0.00, 0.00, 0.00, -0.18, 1.02
121, 0.00, 53708.13, 0.00, 0.00, 0.00, 0.00, 0.00, 0.00, 0.00, -0.18, 1.02
122, 0.00, 53696.78, 0.00, 0.00, 0.00, 0.00, 0.00, 0.00, 0.00, -0.18, 1.02
123, 0.00, 53727.49, 0.00, 0.00, 0.00, 0.00, 0.00, 0.00, 0.00, -0.18, 1.01
124, 0.00, 53743.47, 0.00, 0.00, 0.00, 0.00, 0.00, 0.00, 0.00, -0.18, 1.01
125, 0.00, 53725.61, 0.00, 0.00, 0.00, 0.00, 0.00, 0.00, 0.00, -0.18, 1.01
126, 0.00, 53699.46, 0.00, 0.00, 0.00, 0.00, 0.00, 0.00, 0.00, -0.18, 1.01
127, 0.00, 53717.45, 0.00, 0.00, 0.00, 0.00, 0.00, 0.00, 0.00, -0.18, 1.01
128, 0.00, 53738.73, 0.00, 0.00, 0.00, 0.00, 0.00, 0.00, 0.00, -0.18, 1.02
129, 0.00, 53722.62, 0.00, 0.00, 0.00, 0.00, 0.00, 0.00, 0.00, -0.18, 1.02
130, 0.00, 53696.24, 0.00, 0.00, 0.00, 0.00, 0.00, 0.00, 0.00, -0.18, 1.02
131, 0.00, 53707.08, 0.00, 0.00, 0.00, 0.00, 0.00, 0.00, 0.00, -0.18, 1.02
132, 0.00, 53733.23, 0.00, 0.00, 0.00, 0.00, 0.00, 0.00, 0.00, -0.18, 1.02
133, 0.00, 53720.20, 0.00, 0.00, 0.00, 0.00, 0.00, 0.00, 0.00, -0.19, 1.02
134, 0.00, 53687.41, 0.00, 0.00, 0.00, 0.00, 0.00, 0.00, 0.00, -0.19, 1.02
135, 0.00, 53697.72, 0.00, 0.00, 0.00, 0.00, 0.00, 0.00, 0.00, -0.19, 1.02
136, 0.00, 53721.50, 0.00, 0.00, 0.00, 0.00, 0.00, 0.00, 0.00, -0.19, 1.02
137, 0.00, 53719.76, 0.00, 0.00, 0.00, 0.00, 0.00, 0.00, 0.00, -0.19, 1.02
138, 0.00, 53692.53, 0.00, 0.00, 0.00, 0.00, 0.00, 0.00, 0.00, -0.18, 1.01
139, 0.00, 53696.11, 0.00, 0.00, 0.00, 0.00, 0.00, 0.00, 0.00, -0.18, 1.01
140, 0.00, 53724.65, 0.00, 0.00, 0.00, 0.00, 0.00, 0.00, 0.00, -0.18, 1.01
141, 0.00, 53725.50, 0.00, 0.00, 0.00, 0.00, 0.00, 0.00, 0.00, -0.18, 1.01
142, 0.00, 53698.59, 0.00, 0.00, 0.00, 0.00, 0.00, 0.00, 0.00, -0.18, 1.01
143, 0.00, 53692.04, 0.00, 0.00, 0.00, 0.00, 0.00, 0.00, 0.00, -0.18, 1.01
144, 0.00, 53722.62, 0.00, 0.00, 0.00, 0.00, 0.00, 0.00, 0.00, -0.18, 1.01
145, 0.00, 53739.63, 0.00, 0.00, 0.00, 0.00, 0.00, 0.00, 0.00, -0.18, 1.01
146, 0.00, 53712.31, 0.00, 0.00, 0.00, 0.00, 0.00, 0.00, 0.00, -0.18, 1.01
147, 0.00, 53694.90, 0.00, 0.00, 0.00, 0.00, 0.00, 0.00, 0.00, -0.18, 1.01
148, 0.00, 53712.49, 0.00, 0.00, 0.00, 0.00, 0.00, 0.00, 0.00, -0.18, 1.01
149, 0.00, 53736.86, 0.00, 0.00, 0.00, 0.00, 0.00, 0.00, 0.00, -0.18, 1.01
150, 0.00, 53723.45, 0.00, 0.00, 0.00, 0.00, 0.00, 0.00, 0.00, -0.18, 1.01
151, 0.00, 53701.43, 0.00, 0.00, 0.00, 0.00, 0.00, 0.00, 0.00, -0.18, 1.01
152, 0.00, 53720.32, 0.00, 0.00, 0.00, 0.00, 0.00, 0.00, 0.00, -0.18, 1.01
153, 0.00, 53741.04, 0.00, 0.00, 0.00, 0.00, 0.00, 0.00, 0.01, -0.19, 1.01
154, 0.00, 53723.60, 0.00, 0.00, 0.00, 0.00, 0.00, 0.00, 0.01, -0.19, 1.01
155, 0.00, 53702.19, 0.00, 0.00, 0.00, 0.00, 0.00, 0.00, 0.01, -0.19, 1.01
156, 0.00, 53710.43, 0.00, 0.00, 0.00, 0.00, 0.00, 0.00, 0.01, -0.19, 1.01
157, 0.00, 53734.62, 0.00, 0.00, 0.00, 0.00, 0.00, 0.00, 0.01, -0.19, 1.01
158, 0.00, 53728.16, 0.00, 0.00, 0.00, 0.00, 0.00, 0.00, 0.01, -0.18, 1.01
159, 0.00, 53706.75, 0.00, 0.00, 0.00, 0.00, 0.00, 0.00, 0.01, -0.18, 1.01
160, 0.00, 53708.25, 0.00, 0.00, 0.00, 0.00, 0.00, 0.00, 0.01, -0.18, 1.01
161, 0.00, 53733.66, 0.00, 0.00, 0.00, 0.00, 0.00, 0.00, 0.01, -0.18, 1.01
162, 0.00, 53741.84, 0.00, 0.00, 0.00, 0.00, 0.00, 0.00, 0.01, -0.18, 1.01
163, 0.00, 53714.77, 0.00, 0.00, 0.00, 0.00, 0.00, 0.00, 0.00, -0.18, 1.01
164, 0.00, 53705.16, 0.00, 0.00, 0.00, 0.00, 0.00, 0.00, 0.00, -0.18, 1.01
165, 0.00, 53731.96, 0.00, 0.00, 0.00, 0.00, 0.00, 0.00, 0.00, -0.18, 1.01
166, 0.00, 53741.50, 0.00, 0.00, 0.00, 0.00, 0.00, 0.00, 0.00, -0.18, 1.01
167, 0.00, 53708.96, 0.00, 0.00, 0.00, 0.00, 0.00, 0.00, 0.00, -0.18, 1.01
168, 0.00, 53697.80, 0.00, 0.00, 0.00, 0.00, 0.00, 0.00, 0.00, -0.18, 1.02
169, 0.00, 53722.55, 0.00, 0.00, 0.00, 0.00, 0.00, 0.00, 0.00, -0.18, 1.02
170, 0.00, 53741.95, 0.00, 0.00, 0.00, 0.00, 0.00, 0.00, 0.00, -0.18, 1.02
171, 0.00, 53721.03, 0.00, 0.00, 0.00, 0.00, 0.00, 0.00, 0.00, -0.18, 1.02
172, 0.00, 53708.09, 0.00, 0.00, 0.00, 0.00, 0.00, 0.00, 0.00, -0.18, 1.02
173, 0.00, 53722.06, 0.00, 0.00, 0.00, 0.00, 0.00, 0.00, 0.00, -0.18, 1.01
174, 0.00, 53739.80, 0.00, 0.00, 0.00, 0.00, 0.00, 0.00, 0.00, -0.18, 1.01
175, 0.00, 53726.53, 0.00, 0.00, 0.00, 0.00, 0.00, 0.00, 0.00, -0.18, 1.01
176, 0.00, 53712.04, 0.00, 0.00, 0.00, 0.00, 0.00, 0.00, 0.00, -0.18, 1.01
177, 0.00, 53724.29, 0.00, 0.00, 0.00, 0.00, 0.00, 0.00, 0.00, -0.18, 1.01
178, 0.00, 53743.96, 0.00, 0.00, 0.00, 0.00, 0.00, 0.00, 0.00, -0.18, 1.02
179, 0.00, 53738.22, 0.00, 0.00, 0.00, 0.00, 0.00, 0.00, 0.00, -0.18, 1.02
180, 0.00, 53708.58, 0.00, 0.00, 0.00, 0.00, 0.00, 0.00, 0.00, -0.18, 1.02
181, 0.00, 53715.51, 0.00, 0.00, 0.00, 0.00, 0.00, 0.00, 0.00, -0.18, 1.02
182, 0.00, 53746.58, 0.00, 0.00, 0.00, 0.00, 0.00, 0.00, 0.00, -0.18, 1.02
183, 0.00, 53738.15, 0.00, 0.00, 0.00, 0.00, 0.00, 0.00, 0.00, -0.18, 1.02
184, 0.00, 53713.48, 0.00, 0.00, 0.00, 0.00, 0.00, 0.00, 0.00, -0.18, 1.02
185, 0.00, 53716.79, 0.00, 0.00, 0.00, 0.00, 0.00, 0.00, 0.00, -0.18, 1.02
186, 0.00, 53743.23, 0.00, 0.00, 0.00, 0.00, 0.00, 0.00, 0.00, -0.18, 1.02
187, 0.00, 53750.24, 0.00, 0.00, 0.00, 0.00, 0.00, 0.00, 0.00, -0.18, 1.02
188, 0.00, 53720.58, 0.00, 0.00, 0.00, 0.00, 0.00, 0.00, 0.00, -0.18, 1.02
189, 0.00, 53719.46, 0.00, 0.00, 0.00, 0.00, 0.00, 0.00, 0.00, -0.18, 1.02
190, 0.00, 53748.86, 0.00, 0.00, 0.00, 0.00, 0.00, 0.00, 0.00, -0.18, 1.02
191, 0.00, 53761.55, 0.00, 0.00, 0.00, 0.00, 0.00, 0.00, 0.00, -0.18, 1.02
192, 0.00, 53735.60, 0.00, 0.00, 0.00, 0.00, 0.00, 0.00, 0.00, -0.18, 1.02
193, 0.00, 53723.89, 0.00, 0.00, 0.00, 0.00, 0.00, 0.00, 0.00, -0.19, 1.01
194, 0.00, 53748.10, 0.00, 0.00, 0.00, 0.00, 0.00, 0.00, 0.00, -0.19, 1.01
195, 0.00, 53773.02, 0.00, 0.00, 0.00, 0.00, 0.00, 0.00, 0.00, -0.19, 1.01
196, 0.00, 53755.90, 0.00, 0.00, 0.00, 0.00, 0.00, 0.00, 0.00, -0.19, 1.01
197, 0.00, 53731.38, 0.00, 0.00, 0.00, 0.00, 0.00, 0.00, 0.00, -0.19, 1.01
198, 0.00, 53747.54, 0.00, 0.00, 0.00, 0.00, 0.00, 0.00, 0.00, -0.18, 1.01
199, 0.00, 53774.14, 0.00, 0.00, 0.00, 0.00, 0.00, 0.00, 0.00, -0.18, 1.01
200, 0.00, 53755.92, 0.00, 0.00, 0.00, 0.00, 0.00, 0.00, 0.00, -0.18, 1.01
201, 0.00, 53726.62, 0.00, 0.00, 0.00, 0.00, 0.00, 0.00, 0.00, -0.18, 1.01
202, 0.00, 53738.02, 0.00, 0.00, 0.00, 0.00, 0.00, 0.00, 0.00, -0.18, 1.01
203, 0.00, 53766.20, 0.00, 0.00, 0.00, 0.00, 0.00, 0.00, 0.01, -0.18, 1.01
204, 0.00, 53754.13, 0.00, 0.00, 0.00, 0.00, 0.00, 0.00, 0.01, -0.18, 1.01
205, 0.00, 53726.86, 0.00, 0.00, 0.00, 0.00, 0.00, 0.00, 0.01, -0.18, 1.01
206, 0.00, 53735.34, 0.00, 0.00, 0.00, 0.00, 0.00, 0.00, 0.01, -0.18, 1.01
207, 0.00, 53769.04, 0.00, 0.00, 0.00, 0.00, 0.00, 0.00, 0.01, -0.18, 1.01
208, 0.00, 53766.79, 0.00, 0.00, 0.00, 0.00, 0.00, 0.00, 0.01, -0.18, 1.01
209, 0.00, 53738.09, 0.00, 0.00, 0.00, 0.00, 0.00, 0.00, 0.01, -0.18, 1.01
210, 0.00, 53740.72, 0.00, 0.00, 0.00, 0.00, 0.00, 0.00, 0.01, -0.18, 1.01
211, 0.00, 53766.36, 0.00, 0.00, 0.00, 0.00, 0.00, 0.00, 0.01, -0.18, 1.01
212, 0.00, 53772.28, 0.00, 0.00, 0.00, 0.00, 0.00, 0.00, 0.01, -0.18, 1.01
213, 0.00, 53747.14, 0.00, 0.00, 0.00, 0.00, 0.00, 0.00, 0.01, -0.18, 1.00
214, 0.00, 53737.46, 0.00, 0.00, 0.00, 0.00, 0.00, 0.00, 0.01, -0.18, 1.00
215, 0.00, 53782.68, 0.00, 0.00, 0.00, 0.00, 0.00, 0.00, 0.01, -0.18, 1.00
216, 0.00, 53800.27, 0.00, 0.00, 0.00, 0.00, 0.00, 0.00, 0.01, -0.18, 1.00
217, 0.00, 53737.08, 0.00, 0.00, 0.00, 0.00, 0.00, 0.00, 0.01, -0.18, 1.00
218, 0.00, 53712.09, 0.00, 0.00, 0.00, 0.00, 0.00, 0.00, 0.01, -0.18, 1.01
219, 0.00, 53735.02, 0.00, 0.00, 0.00, 0.00, 0.00, 0.00, 0.01, -0.18, 1.01
220, 0.00, 53742.93, 0.00, 0.00, 0.00, 0.00, 0.00, 0.00, 0.01, -0.18, 1.01
221, 0.00, 53711.46, 0.00, 0.00, 0.00, 0.00, 0.00, 0.00, 0.01, -0.18, 1.01
222, 0.00, 53676.01, 0.00, 0.00, 0.00, 0.00, 0.00, 0.00, 0.01, -0.18, 1.01
223, 0.00, 53680.04, 0.00, 0.00, 0.00, 0.00, 0.00, 0.00, 0.00, -0.19, 1.01
224, 0.00, 53701.45, 0.00, 0.00, 0.00, 0.00, 0.00, 0.00, 0.00, -0.19, 1.01
225, 0.00, 53676.37, 0.00, 0.00, 0.00, 0.00, 0.00, 0.00, 0.00, -0.19, 1.01
226, 0.00, 53653.86, 0.00, 0.00, 0.00, 0.00, 0.00, 0.00, 0.00, -0.19, 1.01
227, 0.00, 53672.41, 0.00, 0.00, 0.00, 0.00, 0.00, 0.00, 0.00, -0.19, 1.01
228, 0.00, 53700.18, 0.00, 0.00, 0.00, 0.00, 0.00, 0.00, 0.00, -0.19, 1.01
229, 0.00, 53696.89, 0.00, 0.00, 0.00, 0.00, 0.00, 0.00, 0.00, -0.19, 1.01
230, 0.00, 53670.63, 0.00, 0.00, 0.00, 0.00, 0.00, 0.00, 0.00, -0.19, 1.01
231, 0.00, 53677.89, 0.00, 0.00, 0.00, 0.00, 0.00, 0.00, 0.00, -0.19, 1.01
232, 0.00, 53709.27, 0.00, 0.00, 0.00, 0.00, 0.00, 0.00, 0.00, -0.19, 1.01
233, 0.00, 53709.70, 0.00, 0.00, 0.00, 0.00, 0.00, 0.00, 0.00, -0.19, 1.01
234, 0.00, 53677.91, 0.00, 0.00, 0.00, 0.00, 0.00, 0.00, 0.00, -0.19, 1.01
235, 0.00, 53675.32, 0.00, 0.00, 0.00, 0.00, 0.00, 0.00, 0.00, -0.19, 1.01
236, 0.00, 53700.64, 0.00, 0.00, 0.00, 0.00, 0.00, 0.00, 0.00, -0.19, 1.01
237, 0.00, 53721.50, 0.00, 0.00, 0.00, 0.00, 0.00, 0.00, 0.00, -0.19, 1.01
238, 0.00, 53684.24, 0.00, 0.00, 0.00, 0.00, 0.00, 0.00, 0.00, -0.19, 1.01
239, 0.00, 53676.80, 0.00, 0.00, 0.00, 0.00, 0.00, 0.00, 0.00, -0.19, 1.01
240, 0.00, 53696.60, 0.00, 0.00, 0.00, 0.00, 0.00, 0.00, 0.00, -0.19, 1.01
241, 0.00, 53703.93, 0.00, 0.00, 0.00, 0.00, 0.00, 0.00, 0.00, -0.19, 1.01
242, 0.00, 53682.47, 0.00, 0.00, 0.00, 0.00, 0.00, 0.00, 0.00, -0.19, 1.01
243, 0.00, 53665.71, 0.00, 0.00, 0.00, 0.00, 0.00, 0.00, 0.00, -0.18, 1.01
244, 0.00, 53684.08, 0.00, 0.00, 0.00, 0.00, 0.00, 0.00, 0.00, -0.18, 1.01
245, 0.00, 53710.50, 0.00, 0.00, 0.00, 0.00, 0.00, 0.00, 0.00, -0.18, 1.01
246, 0.00, 53693.20, 0.00, 0.00, 0.00, 0.00, 0.00, 0.00, 0.00, -0.18, 1.01
247, 0.00, 53664.03, 0.00, 0.00, 0.00, 0.00, 0.00, 0.00, 0.00, -0.18, 1.01
248, 0.00, 53682.70, 0.00, 0.00, 0.00, 0.00, 0.00, 0.00, 0.00, -0.18, 1.01
249, 0.00, 53725.34, 0.00, 0.00, 0.00, 0.00, 0.00, 0.00, 0.00, -0.18, 1.01
250, 0.00, 53716.89, 0.00, 0.00, 0.00, 0.00, 0.00, 0.00, 0.00, -0.18, 1.01
251, 0.00, 53671.83, 0.00, 0.00, 0.00, 0.00, 0.00, 0.00, 0.00, -0.18, 1.01
252, 0.00, 53676.35, 0.00, 0.00, 0.00, 0.00, 0.00, 0.00, 0.00, -0.18, 1.01
253, 0.00, 53721.03, 0.00, 0.00, 0.00, 0.00, 0.00, 0.00, 0.00, -0.18, 1.01
254, 0.00, 53725.57, 0.00, 0.00, 0.00, 0.00, 0.00, 0.00, 0.00, -0.18, 1.01
255, 0.00, 53675.66, 0.00, 0.00, 0.00, 0.00, 0.00, 0.00, 0.00, -0.18, 1.01
0, 0.00, 53667.39, 0.00, 0.00, 0.00, 0.00, 0.00, 0.00, 0.00, -0.18, 1.01
1, 0.00, 53710.08, 0.00, 0.00, 0.00, 0.00, 0.00, 0.00, 0.00, -0.18, 1.01
2, 0.00, 53724.23, 0.00, 0.00, 0.00, 0.00, 0.00, 0.00, 0.00, -0.19, 1.01
3, 0.00, 53681.16, 0.00, 0.00, 0.00, 0.00, 0.00, 0.00, 0.00, -0.19, 1.01
4, 0.00, 53658.04, 0.00, 0.00, 0.00, 0.00, 0.00, 0.00, 0.00, -0.19, 1.01
5, 0.00, 53700.73, 0.00, 0.00, 0.00, 0.00, 0.00, 0.00, 0.00, -0.19, 1.01
6, 0.00, 53735.22, 0.00, 0.00, 0.00, 0.00, 0.00, 0.00, 0.00, -0.19, 1.01
7, 0.00, 53700.06, 0.00, 0.00, 0.00, 0.00, 0.00, 0.00, 0.00, -0.19, 1.02
8, 0.00, 53656.41, 0.00, 0.00, 0.00, 0.00, 0.00, 0.00, 0.00, -0.19, 1.02
9, 0.00, 53691.59, 0.00, 0.00, 0.00, 0.00, 0.00, 0.00, 0.00, -0.19, 1.02
10, 0.00, 53740.10, 0.00, 0.00, 0.00, 0.00, 0.00, 0.00, 0.00, -0.19, 1.02
11, 0.00, 53704.13, 0.00, 0.00, 0.00, 0.00, 0.00, 0.00, 0.00, -0.19, 1.02
12, 0.00, 53648.45, 0.00, 0.00, 0.00, 0.00, 0.00, 0.00, 0.00, -0.19, 1.02
13, 0.00, 53682.03, 0.00, 0.00, 0.00, 0.00, 0.00, 0.00, 0.00, -0.18, 1.01
14, 0.00, 53743.20, 0.00, 0.00, 0.00, 0.00, 0.00, 0.00, 0.00, -0.18, 1.01
15, 0.00, 53718.46, 0.00, 0.00, 0.00, 0.00, 0.00, 0.00, 0.00, -0.18, 1.01
16, 0.00, 53657.44, 0.00, 0.00, 0.00, 0.00, 0.00, 0.00, 0.00, -0.18, 1.01
17, 0.00, 53678.99, 0.00, 0.00, 0.00, 0.00, 0.00, 0.00, 0.00, -0.18, 1.01
18, 0.00, 53744.79, 0.00, 0.00, 0.00, 0.00, 0.00, 0.00, 0.01, -0.18, 1.02
19, 0.00, 53732.12, 0.00, 0.00, 0.00, 0.00, 0.00, 0.00, 0.01, -0.18, 1.02
20, 0.00, 53672.64, 0.00, 0.00, 0.00, 0.00, 0.00, 0.00, 0.01, -0.18, 1.02
21, 0.00, 53674.27, 0.00, 0.00, 0.00, 0.00, 0.00, 0.00, 0.01, -0.18, 1.02
22, 0.00, 53741.50, 0.00, 0.00, 0.00, 0.00, 0.00, 0.00, 0.01, -0.18, 1.02
23, 0.00, 53746.38, 0.00, 0.00, 0.00, 0.00, 0.00, 0.00, 0.01, -0.18, 1.01
24, 0.00, 53677.45, 0.00, 0.00, 0.00, 0.00, 0.00, 0.00, 0.01, -0.18, 1.01
25, 0.00, 53666.22, 0.00, 0.00, 0.00, 0.00, 0.00, 0.00, 0.01, -0.18, 1.01
26, 0.00, 53726.30, 0.00, 0.00, 0.00, 0.00, 0.00, 0.00, 0.01, -0.18, 1.01
27, 0.00, 53746.09, 0.00, 0.00, 0.00, 0.00, 0.00, 0.00, 0.01, -0.18, 1.01
28, 0.00, 53684.39, 0.00, 0.00, 0.00, 0.00, 0.00, 0.00, 0.01, -0.18, 1.02
29, 0.00, 53651.45, 0.00, 0.00, 0.00, 0.00, 0.00, 0.00, 0.01, -0.18, 1.02
30, 0.00, 53705.18, 0.00, 0.00, 0.00, 0.00, 0.00, 0.00, 0.01, -0.18, 1.02
31, 0.00, 53747.54, 0.00, 0.00, 0.00, 0.00, 0.00, 0.00, 0.01, -0.18, 1.02
32, 0.00, 53697.18, 0.00, 0.00, 0.00, 0.00, 0.00, 0.00, 0.01, -0.18, 1.02
33, 0.00, 53651.72, 0.00, 0.00, 0.00, 0.00, 0.00, 0.00, 0.01, -0.18, 1.02
34, 0.00, 53699.48, 0.00, 0.00, 0.00, 0.00, 0.00, 0.00, 0.01, -0.18, 1.02
35, 0.00, 53754.11, 0.00, 0.00, 0.00, 0.00, 0.00, 0.00, 0.01, -0.18, 1.02
36, 0.00, 53713.54, 0.00, 0.00, 0.00, 0.00, 0.00, 0.00, 0.01, -0.18, 1.02
37, 0.00, 53657.51, 0.00, 0.00, 0.00, 0.00, 0.00, 0.00, 0.01, -0.18, 1.02
38, 0.00, 53688.55, 0.00, 0.00, 0.00, 0.00, 0.00, 0.00, 0.00, -0.19, 1.02
39, 0.00, 53746.54, 0.00, 0.00, 0.00, 0.00, 0.00, 0.00, 0.00, -0.19, 1.02
40, 0.00, 53728.63, 0.00, 0.00, 0.00, 0.00, 0.00, 0.00, 0.00, -0.19, 1.02
41, 0.00, 53658.24, 0.00, 0.00, 0.00, 0.00, 0.00, 0.00, 0.00, -0.19, 1.02
42, 0.00, 53667.79, 0.00, 0.00, 0.00, 0.00, 0.00, 0.00, 0.00, -0.19, 1.02
43, 0.00, 53729.81, 0.00, 0.00, 0.00, 0.00, 0.00, 0.00, 0.01, -0.19, 1.02
44, 0.00, 53725.25, 0.00, 0.00, 0.00, 0.00, 0.00, 0.00, 0.01, -0.19, 1.02
45, 0.00, 53658.63, 0.00, 0.00, 0.00, 0.00, 0.00, 0.00, 0.01, -0.19, 1.02
46, 0.00, 53653.53, 0.00, 0.00, 0.00, 0.00, 0.00, 0.00, 0.01, -0.19, 1.02
47, 0.00, 53719.64, 0.00, 0.00, 0.00, 0.00, 0.00, 0.00, 0.01, -0.19, 1.02
48, 0.00, 53734.73, 0.00, 0.00, 0.00, 0.00, 0.00, 0.00, 0.01, -0.19, 1.02
49, 0.00, 53670.80, 0.00, 0.00, 0.00, 0.00, 0.00, 0.00, 0.01, -0.19, 1.02
50, 0.00, 53658.29, 0.00, 0.00, 0.00, 0.00, 0.00, 0.00, 0.01, -0.19, 1.02
51, 0.00, 53717.21, 0.00, 0.00, 0.00, 0.00, 0.00, 0.00, 0.01, -0.19, 1.02
52, 0.00, 53746.60, 0.00, 0.00, 0.00, 0.00, 0.00, 0.00, 0.01, -0.19, 1.02
53, 0.00, 53692.80, 0.00, 0.00, 0.00, 0.00, 0.00, 0.00, 0.01, -0.19, 1.01
54, 0.00, 53656.28, 0.00, 0.00, 0.00, 0.00, 0.00, 0.00, 0.01, -0.19, 1.01
55, 0.00, 53708.47, 0.00, 0.00, 0.00, 0.00, 0.00, 0.00, 0.01, -0.19, 1.01
56, 0.00, 53754.82, 0.00, 0.00, 0.00, 0.00, 0.00, 0.00, 0.01, -0.19, 1.01
57, 0.00, 53704.11, 0.00, 0.00, 0.00, 0.00, 0.00, 0.00, 0.01, -0.19, 1.01
58, 0.00, 53653.15, 0.00, 0.00, 0.00, 0.00, 0.00, 0.00, 0.01, -0.19, 1.01
59, 0.00, 53697.58, 0.00, 0.00, 0.00, 0.00, 0.00, 0.00, 0.01, -0.19, 1.01
60, 0.00, 53748.99, 0.00, 0.00, 0.00, 0.00, 0.00, 0.00, 0.01, -0.19, 1.01
61, 0.00, 53716.11, 0.00, 0.00, 0.00, 0.00, 0.00, 0.00, 0.01, -0.19, 1.01
62, 0.00, 53661.15, 0.00, 0.00, 0.00, 0.00, 0.00, 0.00, 0.01, -0.19, 1.01
63, 0.00, 53681.40, 0.00, 0.00, 0.00, 0.00, 0.00, 0.00, 0.00, -0.18, 1.01
64, 0.00, 53743.07, 0.00, 0.00, 0.00, 0.00, 0.00, 0.00, 0.00, -0.18, 1.01
65, 0.00, 53723.71, 0.00, 0.00, 0.00, 0.00, 0.00, 0.00, 0.00, -0.18, 1.01
66, 0.00, 53665.02, 0.00, 0.00, 0.00, 0.00, 0.00, 0.00, 0.00, -0.18, 1.01
67, 0.00, 53679.25, 0.00, 0.00, 0.00, 0.00, 0.00, 0.00, 0.00, -0.18, 1.01
68, 0.00, 53743.27, 0.00, 0.00, 0.00, 0.00, 0.00, 0.00, -0.00, -0.18, 1.01
69, 0.00, 53749.89, 0.00, 0.00, 0.00, 0.00, 0.00, 0.00, -0.00, -0.18, 1.01
70, 0.00, 53685.49, 0.00, 0.00, 0.00, 0.00, 0.00, 0.00, -0.00, -0.18, 1.01
71, 0.00, 53668.50, 0.00, 0.00, 0.00, 0.00, 0.00, 0.00, -0.00, -0.18, 1.01
72, 0.00, 53737.01, 0.00, 0.00, 0.00, 0.00, 0.00, 0.00, -0.00, -0.18, 1.01
73, 0.00, 53754.60, 0.00, 0.00, 0.00, 0.00, 0.00, 0.00, 0.00, -0.19, 1.01
74, 0.00, 53691.19, 0.00, 0.00, 0.00, 0.00, 0.00, 0.00, 0.00, -0.19, 1.01
75, 0.00, 53665.40, 0.00, 0.00, 0.00, 0.00, 0.00, 0.00, 0.00, -0.19, 1.01
76, 0.00, 53720.76, 0.00, 0.00, 0.00, 0.00, 0.00, 0.00, 0.00, -0.19, 1.01
77, 0.00, 53752.12, 0.00, 0.00, 0.00, 0.00, 0.00, 0.00, 0.00, -0.19, 1.01
78, 0.00, 53693.87, 0.00, 0.00, 0.00, 0.00, 0.00, 0.00, 0.01, -0.18, 1.02
79, 0.00, 53653.53, 0.00, 0.00, 0.00, 0.00, 0.00, 0.00, 0.01, -0.18, 1.02
80, 0.00, 53708.69, 0.00, 0.00, 0.00, 0.00, 0.00, 0.00, 0.01, -0.18, 1.02
81, 0.00, 53751.45, 0.00, 0.00, 0.00, 0.00, 0.00, 0.00, 0.01, -0.18, 1.02
82, 0.00, 53707.33, 0.00, 0.00, 0.00, 0.00, 0.00, 0.00, 0.01, -0.18, 1.02
83, 0.00, 53661.91, 0.00, 0.00, 0.00, 0.00, 0.00, 0.00, 0.00, -0.18, 1.02
84, 0.00, 53700.40, 0.00, 0.00, 0.00, 0.00, 0.00, 0.00, 0.00, -0.18, 1.02
85, 0.00, 53753.75, 0.00, 0.00, 0.00, 0.00, 0.00, 0.00, 0.00, -0.18, 1.02
86, 0.00, 53727.76, 0.00, 0.00, 0.00, 0.00, 0.00, 0.00, 0.00, -0.18, 1.02
87, 0.00, 53667.61, 0.00, 0.00, 0.00, 0.00, 0.00, 0.00, 0.00, -0.18, 1.02
88, 0.00, 53688.51, 0.00, 0.00, 0.00, 0.00, 0.00, 0.00, 0.00, -0.18, 1.01
89, 0.00, 53745.62, 0.00, 0.00, 0.00, 0.00, 0.00, 0.00, 0.00, -0.18, 1.01
90, 0.00, 53725.46, 0.00, 0.00, 0.00, 0.00, 0.00, 0.00, 0.00, -0.18, 1.01
91, 0.00, 53662.18, 0.00, 0.00, 0.00, 0.00, 0.00, 0.00, 0.00, -0.18, 1.01
92, 0.00, 53664.55, 0.00, 0.00, 0.00, 0.00, 0.00, 0.00, 0.00, -0.18, 1.01
93, 0.00, 53732.14, 0.00, 0.00, 0.00, 0.00, 0.00, 0.00, 0.00, -0.18, 1.01
94, 0.00, 53743.14, 0.00, 0.00, 0.00, 0.00, 0.00, 0.00, 0.00, -0.18, 1.01
95, 0.00, 53678.38, 0.00, 0.00, 0.00, 0.00, 0.00, 0.00, 0.00, -0.18, 1.01
96, 0.00, 53668.41, 0.00, 0.00, 0.00, 0.00, 0.00, 0.00, 0.00, -0.18, 1.01
97, 0.00, 53732.92, 0.00, 0.00, 0.00, 0.00, 0.00, 0.00, 0.00, -0.18, 1.01
98, 0.00, 53758.87, 0.00, 0.00, 0.00, 0.00, 0.00, 0.00, 0.01, -0.18, 1.01
99, 0.00, 53703.55, 0.00, 0.00, 0.00, 0.00, 0.00, 0.00, 0.01, -0.18, 1.01
100, 0.00, 53668.41, 0.00, 0.00, 0.00, 0.00, 0.00, 0.00, 0.01, -0.18, 1.01
101, 0.00, 53721.97, 0.00, 0.00, 0.00, 0.00, 0.00, 0.00, 0.01, -0.18, 1.01
102, 0.00, 53761.60, 0.00, 0.00, 0.00, 0.00, 0.00, 0.00, 0.01, -0.18, 1.01
103, 0.00, 53708.18, 0.00, 0.00, 0.00, 0.00, 0.00, 0.00, 0.01, -0.18, 1.01
104, 0.00, 53655.38, 0.00, 0.00, 0.00, 0.00, 0.00, 0.00, 0.01, -0.18, 1.01
105, 0.00, 53705.14, 0.00, 0.00, 0.00, 0.00, 0.00, 0.00, 0.01, -0.18, 1.01
106, 0.00, 53758.49, 0.00, 0.00, 0.00, 0.00, 0.00, 0.00, 0.01, -0.18, 1.01
107, 0.00, 53713.27, 0.00, 0.00, 0.00, 0.00, 0.00, 0.00, 0.01, -0.18, 1.01
108, 0.00, 53656.21, 0.00, 0.00, 0.00, 0.00, 0.00, 0.00, 0.00, -0.18, 1.00
109, 0.00, 53689.11, 0.00, 0.00, 0.00, 0.00, 0.00, 0.00, 0.00, -0.18, 1.00
110, 0.00, 53749.33, 0.00, 0.00, 0.00, 0.00, 0.00, 0.00, 0.00, -0.18, 1.00
111, 0.00, 53726.86, 0.00, 0.00, 0.00, 0.00, 0.00, 0.00, 0.00, -0.18, 1.00
112, 0.00, 53659.54, 0.00, 0.00, 0.00, 0.00, 0.00, 0.00, 0.00, -0.18, 1.00
113, 0.00, 53681.96, 0.00, 0.00, 0.00, 0.00, 0.00, 0.00, 0.01, -0.18, 1.01
114, 0.00, 53745.17, 0.00, 0.00, 0.00, 0.00, 0.00, 0.00, 0.01, -0.18, 1.01
115, 0.00, 53737.82, 0.00, 0.00, 0.00, 0.00, 0.00, 0.00, 0.01, -0.18, 1.01
116, 0.00, 53677.80, 0.00, 0.00, 0.00, 0.00, 0.00, 0.00, 0.01, -0.18, 1.01
117, 0.00, 53679.14, 0.00, 0.00, 0.00, 0.00, 0.00, 0.00, 0.01, -0.18, 1.01
118, 0.00, 53741.86, 0.00, 0.00, 0.00, 0.00, 0.00, 0.00, 0.00, -0.18, 1.02
119, 0.00, 53750.47, 0.00, 0.00, 0.00, 0.00, 0.00, 0.00, 0.00, -0.18, 1.02
120, 0.00, 53690.74, 0.00, 0.00, 0.00, 0.00, 0.00, 0.00, 0.00, -0.18, 1.02
121, 0.00, 53674.38, 0.00, 0.00, 0.00, 0.00, 0.00, 0.00, 0.00, -0.18, 1.02
122, 0.00, 53737.70, 0.00, 0.00, 0.00, 0.00, 0.00, 0.00, 0.00, -0.18, 1.02
123, 0.00, 53765.02, 0.00, 0.00, 0.00, 0.00, 0.00, 0.00, 0.01, -0.18, 1.02
124, 0.00, 53703.57, 0.00, 0.00, 0.00, 0.00, 0.00, 0.00, 0.01, -0.18, 1.02
125, 0.00, 53670.14, 0.00, 0.00, 0.00, 0.00, 0.00, 0.00, 0.01, -0.18, 1.02
126, 0.00, 53727.42, 0.00, 0.00, 0.00, 0.00, 0.00, 0.00, 0.01, -0.18, 1.02
127, 0.00, 53762.45, 0.00, 0.00, 0.00, 0.00, 0.00, 0.00, 0.01, -0.18, 1.02
128, 0.00, 53716.02, 0.00, 0.00, 0.00, 0.00, 0.00, 0.00, 0.01, -0.18, 1.01
129, 0.00, 53668.84, 0.00, 0.00, 0.00, 0.00, 0.00, 0.00, 0.01, -0.18, 1.01
130, 0.00, 53715.00, 0.00, 0.00, 0.00, 0.00, 0.00, 0.00, 0.01, -0.18, 1.01
131, 0.00, 53762.74, 0.00, 0.00, 0.00, 0.00, 0.00, 0.00, 0.01, -0.18, 1.01
132, 0.00, 53734.02, 0.00, 0.00, 0.00, 0.00, 0.00, 0.00, 0.01, -0.18, 1.01
133, 0.00, 53674.88, 0.00, 0.00, 0.00, 0.00, 0.00, 0.00, 0.01, -0.18, 1.02
134, 0.00, 53697.52, 0.00, 0.00, 0.00, 0.00, 0.00, 0.00, 0.01, -0.18, 1.02
135, 0.00, 53761.29, 0.00, 0.00, 0.00, 0.00, 0.00, 0.00, 0.01, -0.18, 1.02
136, 0.00, 53743.29, 0.00, 0.00, 0.00, 0.00, 0.00, 0.00, 0.01, -0.18, 1.02
137, 0.00, 53675.68, 0.00, 0.00, 0.00, 0.00, 0.00, 0.00, 0.01, -0.18, 1.02
138, 0.00, 53686.09, 0.00, 0.00, 0.00, 0.00, 0.00, 0.00, 0.00, -0.19, 1.02
139, 0.00, 53756.75, 0.00, 0.00, 0.00, 0.00, 0.00, 0.00, 0.00, -0.19, 1.02
140, 0.00, 53753.91, 0.00, 0.00, 0.00, 0.00, 0.00, 0.00, 0.00, -0.19, 1.02
141, 0.00, 53689.52, 0.00, 0.00, 0.00, 0.00, 0.00, 0.00, 0.00, -0.19, 1.02
142, 0.00, 53679.75, 0.00, 0.00, 0.00, 0.00, 0.00, 0.00, 0.00, -0.19, 1.02
143, 0.00, 53753.77, 0.00, 0.00, 0.00, 0.00, 0.00, 0.00, 0.00, -0.19, 1.01
144, 0.00, 53765.42, 0.00, 0.00, 0.00, 0.00, 0.00, 0.00, 0.00, -0.19, 1.01
145, 0.00, 53695.97, 0.00, 0.00, 0.00, 0.00, 0.00, 0.00, 0.00, -0.19, 1.01
146, 0.00, 53675.75, 0.00, 0.00, 0.00, 0.00, 0.00, 0.00, 0.00, -0.19, 1.01
147, 0.00, 53733.19, 0.00, 0.00, 0.00, 0.00, 0.00, 0.00, 0.00, -0.19, 1.01
148, 0.00, 53761.26, 0.00, 0.00, 0.00, 0.00, 0.00, 0.00, -0.00, -0.18, 1.01
149, 0.00, 53715.44, 0.00, 0.00, 0.00, 0.00, 0.00, 0.00, -0.00, -0.18, 1.01
150, 0.00, 53677.06, 0.00, 0.00, 0.00, 0.00, 0.00, 0.00, -0.00, -0.18, 1.01
151, 0.00, 53725.95, 0.00, 0.00, 0.00, 0.00, 0.00, 0.00, -0.00, -0.18, 1.01
152, 0.00, 53768.82, 0.00, 0.00, 0.00, 0.00, 0.00, 0.00, -0.00, -0.18, 1.01
153, 0.00, 53722.71, 0.00, 0.00, 0.00, 0.00, 0.00, 0.00, 0.01, -0.18, 1.01
154, 0.00, 53674.88, 0.00, 0.00, 0.00, 0.00, 0.00, 0.00, 0.01, -0.18, 1.01
155, 0.00, 53715.46, 0.00, 0.00, 0.00, 0.00, 0.00, 0.00, 0.01, -0.18, 1.01
156, 0.00, 53771.81, 0.00, 0.00, 0.00, 0.00, 0.00, 0.00, 0.01, -0.18, 1.01
157, 0.00, 53740.25, 0.00, 0.00, 0.00, 0.00, 0.00, 0.00, 0.01, -0.18, 1.01
158, 0.00, 53678.11, 0.00, 0.00, 0.00, 0.00, 0.00, 0.00, 0.01, -0.18, 1.02
159, 0.00, 53699.82, 0.00, 0.00, 0.00, 0.00, 0.00, 0.00, 0.01, -0.18, 1.02
160, 0.00, 53765.46, 0.00, 0.00, 0.00, 0.00, 0.00, 0.00, 0.01, -0.18, 1.02
161, 0.00, 53744.86, 0.00, 0.00, 0.00, 0.00, 0.00, 0.00, 0.01, -0.18, 1.02
162, 0.00, 53679.75, 0.00, 0.00, 0.00, 0.00, 0.00, 0.00, 0.01, -0.18, 1.02
163, 0.00, 53679.86, 0.00, 0.00, 0.00, 0.00, 0.00, 0.00, 0.01, -0.18, 1.01
164, 0.00, 53750.47, 0.00, 0.00, 0.00, 0.00, 0.00, 0.00, 0.01, -0.18, 1.01
165, 0.00, 53751.94, 0.00, 0.00, 0.00, 0.00, 0.00, 0.00, 0.01, -0.18, 1.01
166, 0.00, 53690.03, 0.00, 0.00, 0.00, 0.00, 0.00, 0.00, 0.01, -0.18, 1.01
167, 0.00, 53678.07, 0.00, 0.00, 0.00, 0.00, 0.00, 0.00, 0.01, -0.18, 1.01
168, 0.00, 53739.47, 0.00, 0.00, 0.00, 0.00, 0.00, 0.00, 0.00, -0.18, 1.02
169, 0.00, 53759.50, 0.00, 0.00, 0.00, 0.00, 0.00, 0.00, 0.00, -0.18, 1.02
170, 0.00, 53699.04, 0.00, 0.00, 0.00, 0.00, 0.00, 0.00, 0.00, -0.18, 1.02
171, 0.00, 53671.12, 0.00, 0.00, 0.00, 0.00, 0.00, 0.00, 0.00, -0.18, 1.02
172, 0.00, 53726.57, 0.00, 0.00, 0.00, 0.00, 0.00, 0.00, 0.00, -0.18, 1.02
173, 0.00, 53762.40, 0.00, 0.00, 0.00, 0.00, 0.00, 0.00, 0.00, -0.18, 1.01
174, 0.00, 53711.42, 0.00, 0.00, 0.00, 0.00, 0.00, 0.00, 0.00, -0.18, 1.01
175, 0.00, 53675.01, 0.00, 0.00, 0.00, 0.00, 0.00, 0.00, 0.00, -0.18, 1.01
176, 0.00, 53712.80, 0.00, 0.00, 0.00, 0.00, 0.00, 0.00, 0.00, -0.18, 1.01
177, 0.00, 53763.18, 0.00, 0.00, 0.00, 0.00, 0.00, 0.00, 0.00, -0.18, 1.01
178, 0.00, 53723.18, 0.00, 0.00, 0.00, 0.00, 0.00, 0.00, 0.00, -0.18, 1.02
179, 0.00, 53664.73, 0.00, 0.00, 0.00, 0.00, 0.00, 0.00, 0.00, -0.18, 1.02
180, 0.00, 53695.53, 0.00, 0.00, 0.00, 0.00, 0.00, 0.00, 0.00, -0.18, 1.02
181, 0.00, 53752.90, 0.00, 0.00, 0.00, 0.00, 0.00, 0.00, 0.00, -0.18, 1.02
182, 0.00, 53730.42, 0.00, 0.00, 0.00, 0.00, 0.00, 0.00, 0.00, -0.18, 1.02
183, 0.00, 53672.55, 0.00, 0.00, 0.00, 0.00, 0.00, 0.00, 0.00, -0.18, 1.02
184, 0.00, 53688.20, 0.00, 0.00, 0.00, 0.00, 0.00, 0.00, 0.00, -0.18, 1.02
185, 0.00, 53745.84, 0.00, 0.00, 0.00, 0.00, 0.00, 0.00, 0.00, -0.18, 1.02
186, 0.00, 53741.75, 0.00, 0.00, 0.00, 0.00, 0.00, 0.00, 0.00, -0.18, 1.02
187, 0.00, 53673.53, 0.00, 0.00, 0.00, 0.00, 0.00, 0.00, 0.00, -0.18, 1.02
188, 0.00, 53668.59, 0.00, 0.00, 0.00, 0.00, 0.00, 0.00, 0.01, -0.18, 1.02
189, 0.00, 53741.41, 0.00, 0.00, 0.00, 0.00, 0.00, 0.00, 0.01, -0.18, 1.02
190, 0.00, 53756.12, 0.00, 0.00, 0.00, 0.00, 0.00, 0.00, 0.01, -0.18, 1.02
191, 0.00, 53693.14, 0.00, 0.00, 0.00, 0.00, 0.00, 0.00, 0.01, -0.18, 1.02
192, 0.00, 53675.32, 0.00, 0.00, 0.00, 0.00, 0.00, 0.00, 0.01, -0.18, 1.02
193, 0.00, 53735.96, 0.00, 0.00, 0.00, 0.00, 0.00, 0.00, 0.01, -0.19, 1.02
194, 0.00, 53758.09, 0.00, 0.00, 0.00, 0.00, 0.00, 0.00, 0.01, -0.19, 1.02
195, 0.00, 53700.76, 0.00, 0.00, 0.00, 0.00, 0.00, 0.00, 0.01, -0.19, 1.02
196, 0.00, 53662.71, 0.00, 0.00, 0.00, 0.00, 0.00, 0.00, 0.01, -0.19, 1.02
197, 0.00, 53711.42, 0.00, 0.00, 0.00, 0.00, 0.00, 0.00, 0.01, -0.19, 1.02
198, 0.00, 53755.96, 0.00, 0.00, 0.00, 0.00, 0.00, 0.00, 0.01, -0.19, 1.02
199, 0.00, 53711.91, 0.00, 0.00, 0.00, 0.00, 0.00, 0.00, 0.01, -0.18, 1.01
200, 0.00, 53654.11, 0.00, 0.00, 0.00, 0.00, 0.00, 0.00, 0.01, -0.18, 1.01
201, 0.00, 53697.36, 0.00, 0.00, 0.00, 0.00, 0.00, 0.00, 0.01, -0.18, 1.01
202, 0.00, 53754.11, 0.00, 0.00, 0.00, 0.00, 0.00, 0.00, 0.01, -0.18, 1.01
203, 0.00, 53724.90, 0.00, 0.00, 0.00, 0.00, 0.00, 0.00, 0.01, -0.18, 1.01
204, 0.00, 53671.07, 0.00, 0.00, 0.00, 0.00, 0.00, 0.00, 0.01, -0.18, 1.02
205, 0.00, 53695.71, 0.00, 0.00, 0.00, 0.00, 0.00, 0.00, 0.01, -0.18, 1.02
206, 0.00, 53761.20, 0.00, 0.00, 0.00, 0.00, 0.00, 0.00, 0.01, -0.18, 1.02
207, 0.00, 53744.57, 0.00, 0.00, 0.00, 0.00, 0.00, 0.00, 0.01, -0.18, 1.02
208, 0.00, 53679.75, 0.00, 0.00, 0.00, 0.00, 0.00, 0.00, 0.01, -0.18, 1.02
209, 0.00, 53688.62, 0.00, 0.00, 0.00, 0.00, 0.00, 0.00, 0.01, -0.18, 1.01
210, 0.00, 53745.30, 0.00, 0.00, 0.00, 0.00, 0.00, 0.00, 0.01, -0.18, 1.01
211, 0.00, 53745.84, 0.00, 0.00, 0.00, 0.00, 0.00, 0.00, 0.01, -0.18, 1.01
212, 0.00, 53679.14, 0.00, 0.00, 0.00, 0.00, 0.00, 0.00, 0.01, -0.18, 1.01
213, 0.00, 53677.04, 0.00, 0.00, 0.00, 0.00, 0.00, 0.00, 0.01, -0.18, 1.01
214, 0.00, 53741.21, 0.00, 0.00, 0.00, 0.00, 0.00, 0.00, 0.01, -0.18, 1.01
215, 0.00, 53754.47, 0.00, 0.00, 0.00, 0.00, 0.00, 0.00, 0.01, -0.18, 1.01
216, 0.00, 53689.13, 0.00, 0.00, 0.00, 0.00, 0.00, 0.00, 0.01, -0.18, 1.01
217, 0.00, 53662.34, 0.00, 0.00, 0.00, 0.00, 0.00, 0.00, 0.01, -0.18, 1.01
218, 0.00, 53719.27, 0.00, 0.00, 0.00, 0.00, 0.00, 0.00, 0.01, -0.18, 1.01
219, 0.00, 53759.88, 0.00, 0.00, 0.00, 0.00, 0.00, 0.00, 0.01, -0.18, 1.01
220, 0.00, 53705.88, 0.00, 0.00, 0.00, 0.00, 0.00, 0.00, 0.01, -0.18, 1.01
221, 0.00, 53664.48, 0.00, 0.00, 0.00, 0.00, 0.00, 0.00, 0.01, -0.18, 1.01
222, 0.00, 53711.60, 0.00, 0.00, 0.00, 0.00, 0.00, 0.00, 0.01, -0.18, 1.01
223, 0.00, 53758.22, 0.00, 0.00, 0.00, 0.00, 0.00, 0.00, 0.01, -0.18, 1.01
224, 0.00, 53708.40, 0.00, 0.00, 0.00, 0.00, 0.00, 0.00, 0.00, -0.19, 1.01
225, 0.00, 53659.25, 0.00, 0.00, 0.00, 0.00, 0.00, 0.00, 0.00, -0.19, 1.01
226, 0.00, 53702.95, 0.00, 0.00, 0.00, 0.00, 0.00, 0.00, 0.00, -0.19, 1.01
227, 0.00, 53753.06, 0.00, 0.00, 0.00, 0.00, 0.00, 0.00, 0.00, -0.19, 1.01
228, 0.00, 53721.25, 0.00, 0.00, 0.00, 0.00, 0.00, 0.00, 0.00, -0.19, 1.01
229, 0.00, 53659.56, 0.00, 0.00, 0.00, 0.00, 0.00, 0.00, 0.00, -0.18, 1.01
230, 0.00, 53685.51, 0.00, 0.00, 0.00, 0.00, 0.00, 0.00, 0.00, -0.18, 1.01
231, 0.00, 53746.09, 0.00, 0.00, 0.00, 0.00, 0.00, 0.00, 0.00, -0.18, 1.01
232, 0.00, 53733.30, 0.00, 0.00, 0.00, 0.00, 0.00, 0.00, 0.00, -0.18, 1.01
233, 0.00, 53671.10, 0.00, 0.00, 0.00, 0.00, 0.00, 0.00, 0.00, -0.18, 1.01
234, 0.00, 53681.58, 0.00, 0.00, 0.00, 0.00, 0.00, 0.00, 0.00, -0.19, 1.01
235, 0.00, 53742.82, 0.00, 0.00, 0.00, 0.00, 0.00, 0.00, 0.00, -0.19, 1.01
236, 0.00, 53749.11, 0.00, 0.00, 0.00, 0.00, 0.00, 0.00, 0.00, -0.19, 1.01
237, 0.00, 53687.57, 0.00, 0.00, 0.00, 0.00, 0.00, 0.00, 0.00, -0.19, 1.01
238, 0.00, 53671.90, 0.00, 0.00, 0.00, 0.00, 0.00, 0.00, 0.00, -0.19, 1.01
239, 0.00, 53735.09, 0.00, 0.00, 0.00, 0.00, 0.00, 0.00, 0.01, -0.19, 1.01
240, 0.00, 53744.50, 0.00, 0.00, 0.00, 0.00, 0.00, 0.00, 0.01, -0.19, 1.01
241, 0.00, 53683.39, 0.00, 0.00, 0.00, 0.00, 0.00, 0.00, 0.01, -0.19, 1.01
242, 0.00, 53656.01, 0.00, 0.00, 0.00, 0.00, 0.00, 0.00, 0.01, -0.19, 1.01
243, 0.00, 53715.53, 0.00, 0.00, 0.00, 0.00, 0.00, 0.00, 0.01, -0.19, 1.01
244, 0.00, 53754.25, 0.00, 0.00, 0.00, 0.00, 0.00, 0.00, 0.00, -0.19, 1.01
245, 0.00, 53705.68, 0.00, 0.00, 0.00, 0.00, 0.00, 0.00, 0.00, -0.19, 1.01
246, 0.00, 53665.64, 0.00, 0.00, 0.00, 0.00, 0.00, 0.00, 0.00, -0.19, 1.01
247, 0.00, 53709.99, 0.00, 0.00, 0.00, 0.00, 0.00, 0.00, 0.00, -0.19, 1.01
248, 0.00, 53757.38, 0.00, 0.00, 0.00, 0.00, 0.00, 0.00, 0.00, -0.19, 1.01
249, 0.00, 53713.23, 0.00, 0.00, 0.00, 0.00, 0.00, 0.00, 0.00, -0.19, 1.02
250, 0.00, 53657.26, 0.00, 0.00, 0.00, 0.00, 0.00, 0.00, 0.00, -0.19, 1.02
251, 0.00, 53695.91, 0.00, 0.00, 0.00, 0.00, 0.00, 0.00, 0.00, -0.19, 1.02
252, 0.00, 53746.40, 0.00, 0.00, 0.00, 0.00, 0.00, 0.00, 0.00, -0.19, 1.02
253, 0.00, 53718.19, 0.00, 0.00, 0.00, 0.00, 0.00, 0.00, 0.00, -0.19, 1.02
254, 0.00, 53655.83, 0.00, 0.00, 0.00, 0.00, 0.00, 0.00, 0.00, -0.18, 1.02
255, 0.00, 53679.21, 0.00, 0.00, 0.00, 0.00, 0.00, 0.00, 0.00, -0.18, 1.02
0, 0.00, 53741.86, 0.00, 0.00, 0.00, 0.00, 0.00, 0.00, 0.00, -0.18, 1.02
1, 0.00, 53729.52, 0.00, 0.00, 0.00, 0.00, 0.00, 0.00, 0.00, -0.18, 1.02
2, 0.00, 53664.48, 0.00, 0.00, 0.00, 0.00, 0.00, 0.00, 0.00, -0.18, 1.02
3, 0.00, 53668.44, 0.00, 0.00, 0.00, 0.00, 0.00, 0.00, 0.00, -0.18, 1.01
4, 0.00, 53728.65, 0.00, 0.00, 0.00, 0.00, 0.00, 0.00, 0.00, -0.18, 1.01
5, 0.00, 53735.09, 0.00, 0.00, 0.00, 0.00, 0.00, 0.00, 0.00, -0.18, 1.01
6, 0.00, 53676.28, 0.00, 0.00, 0.00, 0.00, 0.00, 0.00, 0.00, -0.18, 1.01
7, 0.00, 53659.21, 0.00, 0.00, 0.00, 0.00, 0.00, 0.00, 0.00, -0.18, 1.01
8, 0.00, 53722.77, 0.00, 0.00, 0.00, 0.00, 0.00, 0.00, -0.00, -0.19, 1.01
9, 0.00, 53751.09, 0.00, 0.00, 0.00, 0.00, 0.00, 0.00, -0.00, -0.19, 1.01
10, 0.00, 53690.95, 0.00, 0.00, 0.00, 0.00, 0.00, 0.00, -0.00, -0.19, 1.01
11, 0.00, 53660.14, 0.00, 0.00, 0.00, 0.00, 0.00, 0.00, -0.00, -0.19, 1.01
12, 0.00, 53714.66, 0.00, 0.00, 0.00, 0.00, 0.00, 0.00, -0.00, -0.19, 1.01
13, 0.00, 53759.14, 0.00, 0.00, 0.00, 0.00, 0.00, 0.00, 0.00, -0.18, 1.01
14, 0.00, 53716.85, 0.00, 0.00, 0.00, 0.00, 0.00, 0.00, 0.00, -0.18, 1.01
15, 0.00, 53660.95, 0.00, 0.00, 0.00, 0.00, 0.00, 0.00, 0.00, -0.18, 1.01
16, 0.00, 53702.43, 0.00, 0.00, 0.00, 0.00, 0.00, 0.00, 0.00, -0.18, 1.01
17, 0.00, 53752.10, 0.00, 0.00, 0.00, 0.00, 0.00, 0.00, 0.00, -0.18, 1.01
18, 0.00, 53717.16, 0.00, 0.00, 0.00, 0.00, 0.00, 0.00, 0.00, -0.17, 1.01
19, 0.00, 53656.72, 0.00, 0.00, 0.00, 0.00, 0.00, 0.00, 0.00, -0.17, 1.01
20, 0.00, 53687.70, 0.00, 0.00, 0.00, 0.00, 0.00, 0.00, 0.00, -0.17, 1.01
21, 0.00, 53751.74, 0.00, 0.00, 0.00, 0.00, 0.00, 0.00, 0.00, -0.17, 1.01
22, 0.00, 53729.19, 0.00, 0.00, 0.00, 0.00, 0.00, 0.00, 0.00, -0.17, 1.01
23, 0.00, 53667.01, 0.00, 0.00, 0.00, 0.00, 0.00, 0.00, 0.00, -0.18, 1.02
24, 0.00, 53683.86, 0.00, 0.00, 0.00, 0.00, 0.00, 0.00, 0.00, -0.18, 1.02
25, 0.00, 53741.62, 0.00, 0.00, 0.00, 0.00, 0.00, 0.00, 0.00, -0.18, 1.02
26, 0.00, 53749.39, 0.00, 0.00, 0.00, 0.00, 0.00, 0.00, 0.00, -0.18, 1.02
27, 0.00, 53684.93, 0.00, 0.00, 0.00, 0.00, 0.00, 0.00, 0.00, -0.18, 1.02
28, 0.00, 53672.21, 0.00, 0.00, 0.00, 0.00, 0.00, 0.00, 0.00, -0.18, 1.01
29, 0.00, 53735.83, 0.00, 0.00, 0.00, 0.00, 0.00, 0.00, 0.00, -0.18, 1.01
30, 0.00, 53745.57, 0.00, 0.00, 0.00, 0.00, 0.00, 0.00, 0.00, -0.18, 1.01
31, 0.00, 53681.89, 0.00, 0.00, 0.00, 0.00, 0.00, 0.00, 0.00, -0.18, 1.01
32, 0.00, 53661.69, 0.00, 0.00, 0.00, 0.00, 0.00, 0.00, 0.00, -0.18, 1.01
33, 0.00, 53722.95, 0.00, 0.00, 0.00, 0.00, 0.00, 0.00, 0.00, -0.18, 1.01
34, 0.00, 53754.09, 0.00, 0.00, 0.00, 0.00, 0.00, 0.00, 0.00, -0.18, 1.01
35, 0.00, 53701.59, 0.00, 0.00, 0.00, 0.00, 0.00, 0.00, 0.00, -0.18, 1.01
36, 0.00, 53662.31, 0.00, 0.00, 0.00, 0.00, 0.00, 0.00, 0.00, -0.18, 1.01
37, 0.00, 53716.29, 0.00, 0.00, 0.00, 0.00, 0.00, 0.00, 0.00, -0.18, 1.01
38, 0.00, 53765.89, 0.00, 0.00, 0.00, 0.00, 0.00, 0.00, 0.01, -0.18, 1.01
39, 0.00, 53719.15, 0.00, 0.00, 0.00, 0.00, 0.00, 0.00, 0.01, -0.18, 1.01
40, 0.00, 53670.67, 0.00, 0.00, 0.00, 0.00, 0.00, 0.00, 0.01, -0.18, 1.01
41, 0.00, 53707.55, 0.00, 0.00, 0.00, 0.00, 0.00, 0.00, 0.01, -0.18, 1.01
42, 0.00, 53765.06, 0.00, 0.00, 0.00, 0.00, 0.00, 0.00, 0.01, -0.18, 1.01
43, 0.00, 53725.95, 0.00, 0.00, 0.00, 0.00, 0.00, 0.00, 0.01, -0.18, 1.01
44, 0.00, 53669.73, 0.00, 0.00, 0.00, 0.00, 0.00, 0.00, 0.01, -0.18, 1.01
45, 0.00, 53698.48, 0.00, 0.00, 0.00, 0.00, 0.00, 0.00, 0.01, -0.18, 1.01
46, 0.00, 53760.59, 0.00, 0.00, 0.00, 0.00, 0.00, 0.00, 0.01, -0.18, 1.01
47, 0.00, 53739.89, 0.00, 0.00, 0.00, 0.00, 0.00, 0.00, 0.01, -0.18, 1.01
48, 0.00, 53677.58, 0.00, 0.00, 0.00, 0.00, 0.00, 0.00, 0.01, -0.18, 1.00
49, 0.00, 53688.84, 0.00, 0.00, 0.00, 0.00, 0.00, 0.00, 0.01, -0.18, 1.00
50, 0.00, 53750.00, 0.00, 0.00, 0.00, 0.00, 0.00, 0.00, 0.01, -0.18, 1.00
51, 0.00, 53756.32, 0.00, 0.00, 0.00, 0.00, 0.00, 0.00, 0.01, -0.18, 1.00
52, 0.00, 53691.88, 0.00, 0.00, 0.00, 0.00, 0.00, 0.00, 0.01, -0.18, 1.00
53, 0.00, 53683.17, 0.00, 0.00, 0.00, 0.00, 0.00, 0.00, 0.01, -0.18, 1.00
54, 0.00, 53749.15, 0.00, 0.00, 0.00, 0.00, 0.00, 0.00, 0.01, -0.18, 1.00
55, 0.00, 53762.11, 0.00, 0.00, 0.00, 0.00, 0.00, 0.00, 0.01, -0.18, 1.00
56, 0.00, 53698.93, 0.00, 0.00, 0.00, 0.00, 0.00, 0.00, 0.01, -0.18, 1.00
57, 0.00, 53675.25, 0.00, 0.00, 0.00, 0.00, 0.00, 0.00, 0.01, -0.18, 1.00
58, 0.00, 53732.63, 0.00, 0.00, 0.00, 0.00, 0.00, 0.00, 0.00, -0.18, 1.01
59, 0.00, 53768.04, 0.00, 0.00, 0.00, 0.00, 0.00, 0.00, 0.00, -0.18, 1.01
60, 0.00, 53710.21, 0.00, 0.00, 0.00, 0.00, 0.00, 0.00, 0.00, -0.18, 1.01
61, 0.00, 53680.48, 0.00, 0.00, 0.00, 0.00, 0.00, 0.00, 0.00, -0.18, 1.01
62, 0.00, 53729.10, 0.00, 0.00, 0.00, 0.00, 0.00, 0.00, 0.00, -0.18, 1.01
63, 0.00, 53771.12, 0.00, 0.00, 0.00, 0.00, 0.00, 0.00, 0.00, -0.18, 1.01
64, 0.00, 53729.97, 0.00, 0.00, 0.00, 0.00, 0.00, 0.00, 0.00, -0.18, 1.01
65, 0.00, 53678.72, 0.00, 0.00, 0.00, 0.00, 0.00, 0.00, 0.00, -0.18, 1.01
66, 0.00, 53716.40, 0.00, 0.00, 0.00, 0.00, 0.00, 0.00, 0.00, -0.18, 1.01
67, 0.00, 53777.29, 0.00, 0.00, 0.00, 0.00, 0.00, 0.00, 0.00, -0.18, 1.01
68, 0.00, 53756.41, 0.00, 0.00, 0.00, 0.00, 0.00, 0.00, 0.01, -0.18, 1.01
69, 0.00, 53693.89, 0.00, 0.00, 0.00, 0.00, 0.00, 0.00, 0.01, -0.18, 1.01
70, 0.00, 53707.20, 0.00, 0.00, 0.00, 0.00, 0.00, 0.00, 0.01, -0.18, 1.01
71, 0.00, 53780.33, 0.00, 0.00, 0.00, 0.00, 0.00, 0.00, 0.01, -0.18, 1.01
72, 0.00, 53773.82, 0.00, 0.00, 0.00, 0.00, 0.00, 0.00, 0.01, -0.18, 1.01
73, 0.00, 53698.37, 0.00, 0.00, 0.00, 0.00, 0.00, 0.00, 0.01, -0.19, 1.02
74, 0.00, 53702.07, 0.00, 0.00, 0.00, 0.00, 0.00, 0.00, 0.01, -0.19, 1.02
75, 0.00, 53760.84, 0.00, 0.00, 0.00, 0.00, 0.00, 0.00, 0.01, -0.19, 1.02
76, 0.00, 53771.46, 0.00, 0.00, 0.00, 0.00, 0.00, 0.00, 0.01, -0.19, 1.02
77, 0.00, 53710.55, 0.00, 0.00, 0.00, 0.00, 0.00, 0.00, 0.01, -0.19, 1.02
78, 0.00, 53694.66, 0.00, 0.00, 0.00, 0.00, 0.00, 0.00, 0.01, -0.19, 1.02
79, 0.00, 53757.44, 0.00, 0.00, 0.00, 0.00, 0.00, 0.00, 0.01, -0.19, 1.02
80, 0.00, 53784.09, 0.00, 0.00, 0.00, 0.00, 0.00, 0.00, 0.01, -0.19, 1.02
81, 0.00, 53726.06, 0.00, 0.00, 0.00, 0.00, 0.00, 0.00, 0.01, -0.19, 1.02
82, 0.00, 53695.95, 0.00, 0.00, 0.00, 0.00, 0.00, 0.00, 0.01, -0.19, 1.02
83, 0.00, 53746.89, 0.00, 0.00, 0.00, 0.00, 0.00, 0.00, 0.01, -0.19, 1.01
84, 0.00, 53783.37, 0.00, 0.00, 0.00, 0.00, 0.00, 0.00, 0.01, -0.19, 1.01
85, 0.00, 53735.92, 0.00, 0.00, 0.00, 0.00, 0.00, 0.00, 0.01, -0.19, 1.01
86, 0.00, 53694.68, 0.00, 0.00, 0.00, 0.00, 0.00, 0.00, 0.01, -0.19, 1.01
87, 0.00, 53738.18, 0.00, 0.00, 0.00, 0.00, 0.00, 0.00, 0.01, -0.19, 1.01
88, 0.00, 53784.13, 0.00, 0.00, 0.00, 0.00, 0.00, 0.00, 0.01, -0.19, 1.00
89, 0.00, 53751.74, 0.00, 0.00, 0.00, 0.00, 0.00, 0.00, 0.01, -0.19, 1.00
90, 0.00, 53695.84, 0.00, 0.00, 0.00, 0.00, 0.00, 0.00, 0.01, -0.19, 1.00
91, 0.00, 53720.98, 0.00, 0.00, 0.00, 0.00, 0.00, 0.00, 0.01, -0.19, 1.00
92, 0.00, 53790.66, 0.00, 0.00, 0.00, 0.00, 0.00, 0.00, 0.01, -0.19, 1.00
93, 0.00, 53768.15, 0.00, 0.00, 0.00, 0.00, 0.00, 0.00, 0.00, -0.19, 1.01
94, 0.00, 53702.93, 0.00, 0.00, 0.00, 0.00, 0.00, 0.00, 0.00, -0.19, 1.01
95, 0.00, 53712.16, 0.00, 0.00, 0.00, 0.00, 0.00, 0.00, 0.00, -0.19, 1.01
96, 0.00, 53770.63, 0.00, 0.00, 0.00, 0.00, 0.00, 0.00, 0.00, -0.19, 1.01
97, 0.00, 53775.08, 0.00, 0.00, 0.00, 0.00, 0.00, 0.00, 0.00, -0.19, 1.01
98, 0.00, 53709.16, 0.00, 0.00, 0.00, 0.00, 0.00, 0.00, 0.01, -0.19, 1.01
99, 0.00, 53698.19, 0.00, 0.00, 0.00, 0.00, 0.00, 0.00, 0.01, -0.19, 1.01
100, 0.00, 53763.12, 0.00, 0.00, 0.00, 0.00, 0.00, 0.00, 0.01, -0.19, 1.01
101, 0.00, 53780.38, 0.00, 0.00, 0.00, 0.00, 0.00, 0.00, 0.01, -0.19, 1.01
102, 0.00, 53721.10, 0.00, 0.00, 0.00, 0.00, 0.00, 0.00, 0.01, -0.19, 1.01
103, 0.00, 53698.90, 0.00, 0.00, 0.00, 0.00, 0.00, 0.00, 0.00, -0.19, 1.01
104, 0.00, 53756.91, 0.00, 0.00, 0.00, 0.00, 0.00, 0.00, 0.00, -0.19, 1.01
105, 0.00, 53795.48, 0.00, 0.00, 0.00, 0.00, 0.00, 0.00, 0.00, -0.19, 1.01
106, 0.00, 53736.14, 0.00, 0.00, 0.00, 0.00, 0.00, 0.00, 0.00, -0.19, 1.01
107, 0.00, 53694.72, 0.00, 0.00, 0.00, 0.00, 0.00, 0.00, 0.00, -0.19, 1.01
108, 0.00, 53748.66, 0.00, 0.00, 0.00, 0.00, 0.00, 0.00, 0.00, -0.18, 1.02
109, 0.00, 53799.57, 0.00, 0.00, 0.00, 0.00, 0.00, 0.00, 0.00, -0.18, 1.02
110, 0.00, 53748.90, 0.00, 0.00, 0.00, 0.00, 0.00, 0.00, 0.00, -0.18, 1.02
111, 0.00, 53700.18, 0.00, 0.00, 0.00, 0.00, 0.00, 0.00, 0.00, -0.18, 1.02
112, 0.00, 53732.88, 0.00, 0.00, 0.00, 0.00, 0.00, 0.00, 0.00, -0.18, 1.02
113, 0.00, 53793.32, 0.00, 0.00, 0.00, 0.00, 0.00, 0.00, 0.00, -0.19, 1.02
114, 0.00, 53763.61, 0.00, 0.00, 0.00, 0.00, 0.00, 0.00, 0.00, -0.19, 1.02
115, 0.00, 53707.93, 0.00, 0.00, 0.00, 0.00, 0.00, 0.00, 0.00, -0.19, 1.02
116, 0.00, 53733.32, 0.00, 0.00, 0.00, 0.00, 0.00, 0.00, 0.00, -0.19, 1.02
117, 0.00, 53794.84, 0.00, 0.00, 0.00, 0.00, 0.00, 0.00, 0.00, -0.19, 1.02
118, 0.00, 53781.16, 0.00, 0.00, 0.00, 0.00, 0.00, 0.00, 0.00, -0.18, 1.02
119, 0.00, 53717.75, 0.00, 0.00, 0.00, 0.00, 0.00, 0.00, 0.00, -0.18, 1.02
120, 0.00, 53717.77, 0.00, 0.00, 0.00, 0.00, 0.00, 0.00, 0.00, -0.18, 1.02
121, 0.00, 53780.66, 0.00, 0.00, 0.00, 0.00, 0.00, 0.00, 0.00, -0.18, 1.02
122, 0.00, 53784.22, 0.00, 0.00, 0.00, 0.00, 0.00, 0.00, 0.00, -0.18, 1.02
123, 0.00, 53718.84, 0.00, 0.00, 0.00, 0.00, 0.00, 0.00, 0.00, -0.18, 1.02
124, 0.00, 53709.99, 0.00, 0.00, 0.00, 0.00, 0.00, 0.00, 0.00, -0.19, 1.01
125, 0.00, 53774.59, 0.00, 0.00, 0.00, 0.00, 0.00, 0.00, 0.00, -0.19, 1.01
126, 0.00, 53800.07, 0.00, 0.00, 0.00, 0.00, 0.00, 0.00, 0.00, -0.19, 1.01
127, 0.00, 53736.00, 0.00, 0.00, 0.00, 0.00, 0.00, 0.00, 0.00, -0.19, 1.01
128, 0.00, 53713.97, 0.00, 0.00, 0.00, 0.00, 0.00, 0.00, 0.00, -0.19, 1.01
129, 0.00, 53774.36, 0.00, 0.00, 0.00, 0.00, 0.00, 0.00, 0.01, -0.19, 1.02
130, 0.00, 53810.79, 0.00, 0.00, 0.00, 0.00, 0.00, 0.00, 0.01, -0.19, 1.02
131, 0.00, 53757.24, 0.00, 0.00, 0.00, 0.00, 0.00, 0.00, 0.01, -0.19, 1.02
132, 0.00, 53712.89, 0.00, 0.00, 0.00, 0.00, 0.00, 0.00, 0.01, -0.19, 1.02
133, 0.00, 53759.21, 0.00, 0.00, 0.00, 0.00, 0.00, 0.00, 0.01, -0.19, 1.02
134, 0.00, 53804.78, 0.00, 0.00, 0.00, 0.00, 0.00, 0.00, 0.01, -0.19, 1.01
135, 0.00, 53768.26, 0.00, 0.00, 0.00, 0.00, 0.00, 0.00, 0.01, -0.19, 1.01
136, 0.00, 53706.97, 0.00, 0.00, 0.00, 0.00, 0.00, 0.00, 0.01, -0.19, 1.01
137, 0.00, 53736.79, 0.00, 0.00, 0.00, 0.00, 0.00, 0.00, 0.01, -0.19, 1.01
138, 0.00, 53801.07, 0.00, 0.00, 0.00, 0.00, 0.00, 0.00, 0.01, -0.19, 1.01
139, 0.00, 53777.80, 0.00, 0.00, 0.00, 0.00, 0.00, 0.00, 0.01, -0.19, 1.01
140, 0.00, 53719.02, 0.00, 0.00, 0.00, 0.00, 0.00, 0.00, 0.01, -0.19, 1.01
141, 0.00, 53740.27, 0.00, 0.00, 0.00, 0.00, 0.00, 0.00, 0.01, -0.19, 1.01
142, 0.00, 53803.42, 0.00, 0.00, 0.00, 0.00, 0.00, 0.00, 0.01, -0.19, 1.01
143, 0.00, 53793.54, 0.00, 0.00, 0.00, 0.00, 0.00, 0.00, 0.01, -0.19, 1.01
144, 0.00, 53724.11, 0.00, 0.00, 0.00, 0.00, 0.00, 0.00, 0.01, -0.18, 1.01
145, 0.00, 53726.68, 0.00, 0.00, 0.00, 0.00, 0.00, 0.00, 0.01, -0.18, 1.01
146, 0.00, 53793.43, 0.00, 0.00, 0.00, 0.00, 0.00, 0.00, 0.01, -0.18, 1.01
147, 0.00, 53808.52, 0.00, 0.00, 0.00, 0.00, 0.00, 0.00, 0.01, -0.18, 1.01
148, 0.00, 53742.42, 0.00, 0.00, 0.00, 0.00, 0.00, 0.00, 0.01, -0.18, 1.01
149, 0.00, 53717.21, 0.00, 0.00, 0.00, 0.00, 0.00, 0.00, 0.01, -0.18, 1.01
150, 0.00, 53781.45, 0.00, 0.00, 0.00, 0.00, 0.00, 0.00, 0.01, -0.18, 1.01
151, 0.00, 53808.70, 0.00, 0.00, 0.00, 0.00, 0.00, 0.00, 0.01, -0.18, 1.01
152, 0.00, 53750.20, 0.00, 0.00, 0.00, 0.00, 0.00, 0.00, 0.01, -0.18, 1.01
153, 0.00, 53720.52, 0.00, 0.00, 0.00, 0.00, 0.00, 0.00, 0.01, -0.18, 1.01
154, 0.00, 53776.89, 0.00, 0.00, 0.00, 0.00, 0.00, 0.00, 0.01, -0.18, 1.01
155, 0.00, 53821.41, 0.00, 0.00, 0.00, 0.00, 0.00, 0.00, 0.01, -0.18, 1.01
156, 0.00, 53773.89, 0.00, 0.00, 0.00, 0.00, 0.00, 0.00, 0.01, -0.18, 1.01
157, 0.00, 53721.43, 0.00, 0.00, 0.00, 0.00, 0.00, 0.00, 0.01, -0.18, 1.01
158, 0.00, 53763.79, 0.00, 0.00, 0.00, 0.00, 0.00, 0.00, 0.01, -0.18, 1.01
159, 0.00, 53816.81, 0.00, 0.00, 0.00, 0.00, 0.00, 0.00, 0.01, -0.18, 1.02
160, 0.00, 53775.64, 0.00, 0.00, 0.00, 0.00, 0.00, 0.00, 0.01, -0.18, 1.02
161, 0.00, 53724.72, 0.00, 0.00, 0.00, 0.00, 0.00, 0.00, 0.01, -0.18, 1.02
162, 0.00, 53753.57, 0.00, 0.00, 0.00, 0.00, 0.00, 0.00, 0.01, -0.18, 1.02
163, 0.00, 53812.34, 0.00, 0.00, 0.00, 0.00, 0.00, 0.00, 0.01, -0.18, 1.02
164, 0.00, 53793.34, 0.00, 0.00, 0.00, 0.00, 0.00, 0.00, 0.01, -0.18, 1.02
165, 0.00, 53726.53, 0.00, 0.00, 0.00, 0.00, 0.00, 0.00, 0.01, -0.18, 1.02
166, 0.00, 53734.96, 0.00, 0.00, 0.00, 0.00, 0.00, 0.00, 0.01, -0.18, 1.02
167, 0.00, 53798.95, 0.00, 0.00, 0.00, 0.00, 0.00, 0.00, 0.01, -0.18, 1.02
168, 0.00, 53795.86, 0.00, 0.00, 0.00, 0.00, 0.00, 0.00, 0.01, -0.18, 1.02
169, 0.00, 53735.58, 0.00, 0.00, 0.00, 0.00, 0.00, 0.00, 0.00, -0.18, 1.01
170, 0.00, 53728.05, 0.00, 0.00, 0.00, 0.00, 0.00, 0.00, 0.00, -0.18, 1.01
171, 0.00, 53797.99, 0.00, 0.00, 0.00, 0.00, 0.00, 0.00, 0.00, -0.18, 1.01
172, 0.00, 53812.63, 0.00, 0.00, 0.00, 0.00, 0.00, 0.00, 0.00, -0.18, 1.01
173, 0.00, 53745.64, 0.00, 0.00, 0.00, 0.00, 0.00, 0.00, 0.00, -0.18, 1.01
174, 0.00, 53724.59, 0.00, 0.00, 0.00, 0.00, 0.00, 0.00, 0.01, -0.18, 1.02
175, 0.00, 53787.71, 0.00, 0.00, 0.00, 0.00, 0.00, 0.00, 0.01, -0.18, 1.02
176, 0.00, 53816.98, 0.00, 0.00, 0.00, 0.00, 0.00, 0.00, 0.01, -0.18, 1.02
177, 0.00, 53767.30, 0.00, 0.00, 0.00, 0.00, 0.00, 0.00, 0.01, -0.18, 1.02
178, 0.00, 53731.11, 0.00, 0.00, 0.00, 0.00, 0.00, 0.00, 0.01, -0.18, 1.02
179, 0.00, 53777.16, 0.00, 0.00, 0.00, 0.00, 0.00, 0.00, 0.01, -0.18, 1.02
180, 0.00, 53831.40, 0.00, 0.00, 0.00, 0.00, 0.00, 0.00, 0.01, -0.18, 1.02
181, 0.00, 53787.37, 0.00, 0.00, 0.00, 0.00, 0.00, 0.00, 0.01, -0.18, 1.02
182, 0.00, 53732.56, 0.00, 0.00, 0.00, 0.00, 0.00, 0.00, 0.01, -0.18, 1.02
183, 0.00, 53771.95, 0.00, 0.00, 0.00, 0.00, 0.00, 0.00, 0.01, -0.18, 1.02
184, 0.00, 53822.91, 0.00, 0.00, 0.00, 0.00, 0.00, 0.00, 0.00, -0.18, 1.02
185, 0.00, 53795.93, 0.00, 0.00, 0.00, 0.00, 0.00, 0.00, 0.00, -0.18, 1.02
186, 0.00, 53739.43, 0.00, 0.00, 0.00, 0.00, 0.00, 0.00, 0.00, -0.18, 1.02
187, 0.00, 53761.04, 0.00, 0.00, 0.00, 0.00, 0.00, 0.00, 0.00, -0.18, 1.02
188, 0.00, 53822.95, 0.00, 0.00, 0.00, 0.00, 0.00, 0.00, 0.00, -0.18, 1.02
189, 0.00, 53810.13, 0.00, 0.00, 0.00, 0.00, 0.00, 0.00, 0.00, -0.19, 1.02
190, 0.00, 53747.56, 0.00, 0.00, 0.00, 0.00, 0.00, 0.00, 0.00, -0.19, 1.02
191, 0.00, 53754.22, 0.00, 0.00, 0.00, 0.00, 0.00, 0.00, 0.00, -0.19, 1.02
192, 0.00, 53818.37, 0.00, 0.00, 0.00, 0.00, 0.00, 0.00, 0.00, -0.19, 1.02
193, 0.00, 53821.37, 0.00, 0.00, 0.00, 0.00, 0.00, 0.00, 0.00, -0.19, 1.02
194, 0.00, 53754.02, 0.00, 0.00, 0.00, 0.00, 0.00, 0.00, 0.00, -0.19, 1.03
195, 0.00, 53735.49, 0.00, 0.00, 0.00, 0.00, 0.00, 0.00, 0.00, -0.19, 1.03
196, 0.00, 53796.13, 0.00, 0.00, 0.00, 0.00, 0.00, 0.00, 0.00, -0.19, 1.03
197, 0.00, 53824.50, 0.00, 0.00, 0.00, 0.00, 0.00, 0.00, 0.00, -0.19, 1.03
198, 0.00, 53765.96, 0.00, 0.00, 0.00, 0.00, 0.00, 0.00, 0.00, -0.19, 1.03
199, 0.00, 53742.91, 0.00, 0.00, 0.00, 0.00, 0.00, 0.00, 0.00, -0.18, 1.02
200, 0.00, 53792.76, 0.00, 0.00, 0.00, 0.00, 0.00, 0.00, 0.00, -0.18, 1.02
201, 0.00, 53829.01, 0.00, 0.00, 0.00, 0.00, 0.00, 0.00, 0.00, -0.18, 1.02
202, 0.00, 53778.32, 0.00, 0.00, 0.00, 0.00, 0.00, 0.00, 0.00, -0.18, 1.02
203, 0.00, 53737.68, 0.00, 0.00, 0.00, 0.00, 0.00, 0.00, 0.00, -0.18, 1.02
204, 0.00, 53782.92, 0.00, 0.00, 0.00, 0.00, 0.00, 0.00, 0.01, -0.18, 1.02
205, 0.00, 53832.83, 0.00, 0.00, 0.00, 0.00, 0.00, 0.00, 0.01, -0.18, 1.02
206, 0.00, 53798.55, 0.00, 0.00, 0.00, 0.00, 0.00, 0.00, 0.01, -0.18, 1.02
207, 0.00, 53739.70, 0.00, 0.00, 0.00, 0.00, 0.00, 0.00, 0.01, -0.18, 1.02
208, 0.00, 53773.04, 0.00, 0.00, 0.00, 0.00, 0.00, 0.00, 0.01, -0.18, 1.02
209, 0.00, 53837.66, 0.00, 0.00, 0.00, 0.00, 0.00, 0.00, 0.01, -0.19, 1.02
210, 0.00, 53811.11, 0.00, 0.00, 0.00, 0.00, 0.00, 0.00, 0.01, -0.19, 1.02
211, 0.00, 53745.71, 0.00, 0.00, 0.00, 0.00, 0.00, 0.00, 0.01, -0.19, 1.02
212, 0.00, 53763.52, 0.00, 0.00, 0.00, 0.00, 0.00, 0.00, 0.01, -0.19, 1.02
213, 0.00, 53828.96, 0.00, 0.00, 0.00, 0.00, 0.00, 0.00, 0.01, -0.19, 1.02
214, 0.00, 53817.77, 0.00, 0.00, 0.00, 0.00, 0.00, 0.00, 0.01, -0.19, 1.02
215, 0.00, 53757.51, 0.00, 0.00, 0.00, 0.00, 0.00, 0.00, 0.01, -0.19, 1.02
216, 0.00, 53757.13, 0.00, 0.00, 0.00, 0.00, 0.00, 0.00, 0.01, -0.19, 1.02
217, 0.00, 53822.91, 0.00, 0.00, 0.00, 0.00, 0.00, 0.00, 0.01, -0.19, 1.02
218, 0.00, 53829.70, 0.00, 0.00, 0.00, 0.00, 0.00, 0.00, 0.01, -0.19, 1.02
219, 0.00, 53765.40, 0.00, 0.00, 0.00, 0.00, 0.00, 0.00, 0.01, -0.18, 1.02
220, 0.00, 53742.06, 0.00, 0.00, 0.00, 0.00, 0.00, 0.00, 0.01, -0.18, 1.02
221, 0.00, 53814.15, 0.00, 0.00, 0.00, 0.00, 0.00, 0.00, 0.01, -0.18, 1.02
222, 0.00, 53839.85, 0.00, 0.00, 0.00, 0.00, 0.00, 0.00, 0.01, -0.18, 1.02
223, 0.00, 53778.23, 0.00, 0.00, 0.00, 0.00, 0.00, 0.00, 0.01, -0.18, 1.02
224, 0.00, 53744.99, 0.00, 0.00, 0.00, 0.00, 0.00, 0.00, 0.01, -0.18, 1.02
225, 0.00, 53806.14, 0.00, 0.00, 0.00, 0.00, 0.00, 0.00, 0.01, -0.18, 1.02
226, 0.00, 53838.38, 0.00, 0.00, 0.00, 0.00, 0.00, 0.00, 0.01, -0.18, 1.02
227, 0.00, 53792.45, 0.00, 0.00, 0.00, 0.00, 0.00, 0.00, 0.01, -0.18, 1.02
228, 0.00, 53744.90, 0.00, 0.00, 0.00, 0.00, 0.00, 0.00, 0.01, -0.18, 1.02
229, 0.00, 53788.98, 0.00, 0.00, 0.00, 0.00, 0.00, 0.00, 0.01, -0.19, 1.01
230, 0.00, 53839.41, 0.00, 0.00, 0.00, 0.00, 0.00, 0.00, 0.01, -0.19, 1.01
231, 0.00, 53806.37, 0.00, 0.00, 0.00, 0.00, 0.00, 0.00, 0.01, -0.19, 1.01
232, 0.00, 53744.39, 0.00, 0.00, 0.00, 0.00, 0.00, 0.00, 0.01, -0.19, 1.01
233, 0.00, 53763.10, 0.00, 0.00, 0.00, 0.00, 0.00, 0.00, 0.01, -0.19, 1.01
234, 0.00, 53827.38, 0.00, 0.00, 0.00, 0.00, 0.00, 0.00, 0.01, -0.18, 1.01
235, 0.00, 53819.78, 0.00, 0.00, 0.00, 0.00, 0.00, 0.00, 0.01, -0.18, 1.01
236, 0.00, 53753.33, 0.00, 0.00, 0.00, 0.00, 0.00, 0.00, 0.01, -0.18, 1.01
237, 0.00, 53761.51, 0.00, 0.00, 0.00, 0.00, 0.00, 0.00, 0.01, -0.18, 1.01
238, 0.00, 53828.45, 0.00, 0.00, 0.00, 0.00, 0.00, 0.00, 0.01, -0.18, 1.01
239, 0.00, 53829.21, 0.00, 0.00, 0.00, 0.00, 0.00, 0.00, 0.01, -0.18, 1.01
240, 0.00, 53763.70, 0.00, 0.00, 0.00, 0.00, 0.00, 0.00, 0.01, -0.18, 1.01
241, 0.00, 53756.75, 0.00, 0.00, 0.00, 0.00, 0.00, 0.00, 0.01, -0.18, 1.01
242, 0.00, 53822.82, 0.00, 0.00, 0.00, 0.00, 0.00, 0.00, 0.01, -0.18, 1.01
243, 0.00, 53832.90, 0.00, 0.00, 0.00, 0.00, 0.00, 0.00, 0.01, -0.18, 1.01
244, 0.00, 53772.39, 0.00, 0.00, 0.00, 0.00, 0.00, 0.00, 0.01, -0.18, 1.01
245, 0.00, 53749.77, 0.00, 0.00, 0.00, 0.00, 0.00, 0.00, 0.01, -0.18, 1.01
246, 0.00, 53812.70, 0.00, 0.00, 0.00, 0.00, 0.00, 0.00, 0.01, -0.18, 1.01
247, 0.00, 53840.34, 0.00, 0.00, 0.00, 0.00, 0.00, 0.00, 0.01, -0.18, 1.01
248, 0.00, 53785.36, 0.00, 0.00, 0.00, 0.00, 0.00, 0.00, 0.01, -0.18, 1.01
249, 0.00, 53744.93, 0.00, 0.00, 0.00, 0.00, 0.00, 0.00, 0.01, -0.19, 1.01
250, 0.00, 53789.88, 0.00, 0.00, 0.00, 0.00, 0.00, 0.00, 0.01, -0.19, 1.01
251, 0.00, 53837.15, 0.00, 0.00, 0.00, 0.00, 0.00, 0.00, 0.01, -0.19, 1.01
252, 0.00, 53799.77, 0.00, 0.00, 0.00, 0.00, 0.00, 0.00, 0.01, -0.19, 1.01
253, 0.00, 53740.88, 0.00, 0.00, 0.00, 0.00, 0.00, 0.00, 0.01, -0.19, 1.01
254, 0.00, 53777.18, 0.00, 0.00, 0.00, 0.00, 0.00, 0.00, 0.00, -0.19, 1.01
255, 0.00, 53843.63, 0.00, 0.00, 0.00, 0.00, 0.00, 0.00, 0.00, -0.19, 1.01
0, 0.00, 53812.38, 0.00, 0.00, 0.00, 0.00, 0.00, 0.00, 0.00, -0.19, 1.01
1, 0.00, 53748.23, 0.00, 0.00, 0.00, 0.00, 0.00, 0.00, 0.00, -0.19, 1.01
2, 0.00, 53773.67, 0.00, 0.00, 0.00, 0.00, 0.00, 0.00, 0.00, -0.19, 1.01
3, 0.00, 53831.47, 0.00, 0.00, 0.00, 0.00, 0.00, 0.00, 0.00, -0.19, 1.02
4, 0.00, 53813.43, 0.00, 0.00, 0.00, 0.00, 0.00, 0.00, 0.00, -0.19, 1.02
5, 0.00, 53746.76, 0.00, 0.00, 0.00, 0.00, 0.00, 0.00, 0.00, -0.19, 1.02
6, 0.00, 53757.80, 0.00, 0.00, 0.00, 0.00, 0.00, 0.00, 0.00, -0.19, 1.02
7, 0.00, 53824.72, 0.00, 0.00, 0.00, 0.00, 0.00, 0.00, 0.00, -0.19, 1.02
8, 0.00, 53823.82, 0.00, 0.00, 0.00, 0.00, 0.00, 0.00, 0.00, -0.19, 1.02
9, 0.00, 53754.25, 0.00, 0.00, 0.00, 0.00, 0.00, 0.00, 0.00, -0.19, 1.02
10, 0.00, 53744.12, 0.00, 0.00, 0.00, 0.00, 0.00, 0.00, 0.00, -0.19, 1.02
11, 0.00, 53818.93, 0.00, 0.00, 0.00, 0.00, 0.00, 0.00, 0.00, -0.19, 1.02
12, 0.00, 53835.92, 0.00, 0.00, 0.00, 0.00, 0.00, 0.00, 0.00, -0.19, 1.02
13, 0.00, 53776.82, 0.00, 0.00, 0.00, 0.00, 0.00, 0.00, 0.01, -0.19, 1.01
14, 0.00, 53746.58, 0.00, 0.00, 0.00, 0.00, 0.00, 0.00, 0.01, -0.19, 1.01
15, 0.00, 53798.19, 0.00, 0.00, 0.00, 0.00, 0.00, 0.00, 0.01, -0.19, 1.01
16, 0.00, 53840.63, 0.00, 0.00, 0.00, 0.00, 0.00, 0.00, 0.01, -0.19, 1.01
17, 0.00, 53791.24, 0.00, 0.00, 0.00, 0.00, 0.00, 0.00, 0.01, -0.19, 1.01
18, 0.00, 53740.27, 0.00, 0.00, 0.00, 0.00, 0.00, 0.00, 0.01, -0.19, 1.02
19, 0.00, 53786.63, 0.00, 0.00, 0.00, 0.00, 0.00, 0.00, 0.01, -0.19, 1.02
20, 0.00, 53841.06, 0.00, 0.00, 0.00, 0.00, 0.00, 0.00, 0.01, -0.19, 1.02
21, 0.00, 53807.51, 0.00, 0.00, 0.00, 0.00, 0.00, 0.00, 0.01, -0.19, 1.02
22, 0.00, 53747.58, 0.00, 0.00, 0.00, 0.00, 0.00, 0.00, 0.01, -0.19, 1.02
23, 0.00, 53783.46, 0.00, 0.00, 0.00, 0.00, 0.00, 0.00, 0.01, -0.19, 1.01
24, 0.00, 53835.61, 0.00, 0.00, 0.00, 0.00, 0.00, 0.00, 0.01, -0.19, 1.01
25, 0.00, 53811.84, 0.00, 0.00, 0.00, 0.00, 0.00, 0.00, 0.01, -0.19, 1.01
26, 0.00, 53755.16, 0.00, 0.00, 0.00, 0.00, 0.00, 0.00, 0.01, -0.19, 1.01
27, 0.00, 53774.65, 0.00, 0.00, 0.00, 0.00, 0.00, 0.00, 0.01, -0.19, 1.01
28, 0.00, 53835.47, 0.00, 0.00, 0.00, 0.00, 0.00, 0.00, 0.01, -0.19, 1.01
29, 0.00, 53823.58, 0.00, 0.00, 0.00, 0.00, 0.00, 0.00, 0.01, -0.19, 1.01
30, 0.00, 53755.59, 0.00, 0.00, 0.00, 0.00, 0.00, 0.00, 0.01, -0.19, 1.01
31, 0.00, 53753.57, 0.00, 0.00, 0.00, 0.00, 0.00, 0.00, 0.01, -0.19, 1.01
32, 0.00, 53817.25, 0.00, 0.00, 0.00, 0.00, 0.00, 0.00, 0.01, -0.19, 1.01
33, 0.00, 53823.80, 0.00, 0.00, 0.00, 0.00, 0.00, 0.00, 0.01, -0.19, 1.01
34, 0.00, 53757.35, 0.00, 0.00, 0.00, 0.00, 0.00, 0.00, 0.01, -0.19, 1.01
35, 0.00, 53745.33, 0.00, 0.00, 0.00, 0.00, 0.00, 0.00, 0.01, -0.19, 1.01
36, 0.00, 53813.72, 0.00, 0.00, 0.00, 0.00, 0.00, 0.00, 0.01, -0.19, 1.01
37, 0.00, 53830.69, 0.00, 0.00, 0.00, 0.00, 0.00, 0.00, 0.01, -0.19, 1.01
38, 0.00, 53782.18, 0.00, 0.00, 0.00, 0.00, 0.00, 0.00, 0.00, -0.19, 1.01
39, 0.00, 53758.31, 0.00, 0.00, 0.00, 0.00, 0.00, 0.00, 0.00, -0.19, 1.01
40, 0.00, 53810.93, 0.00, 0.00, 0.00, 0.00, 0.00, 0.00, 0.00, -0.19, 1.01
41, 0.00, 53850.36, 0.00, 0.00, 0.00, 0.00, 0.00, 0.00, 0.00, -0.19, 1.01
42, 0.00, 53801.68, 0.00, 0.00, 0.00, 0.00, 0.00, 0.00, 0.00, -0.19, 1.01
43, 0.00, 53753.24, 0.00, 0.00, 0.00, 0.00, 0.00, 0.00, 0.01, -0.18, 1.02
44, 0.00, 53788.55, 0.00, 0.00, 0.00, 0.00, 0.00, 0.00, 0.01, -0.18, 1.02
45, 0.00, 53844.10, 0.00, 0.00, 0.00, 0.00, 0.00, 0.00, 0.01, -0.18, 1.02
46, 0.00, 53810.39, 0.00, 0.00, 0.00, 0.00, 0.00, 0.00, 0.01, -0.18, 1.02
47, 0.00, 53747.65, 0.00, 0.00, 0.00, 0.00, 0.00, 0.00, 0.01, -0.18, 1.02
48, 0.00, 53776.24, 0.00, 0.00, 0.00, 0.00, 0.00, 0.00, 0.01, -0.18, 1.02
49, 0.00, 53846.87, 0.00, 0.00, 0.00, 0.00, 0.00, 0.00, 0.01, -0.19, 1.01
50, 0.00, 53832.70, 0.00, 0.00, 0.00, 0.00, 0.00, 0.00, 0.01, -0.19, 1.01
51, 0.00, 53762.83, 0.00, 0.00, 0.00, 0.00, 0.00, 0.00, 0.01, -0.19, 1.01
52, 0.00, 53771.07, 0.00, 0.00, 0.00, 0.00, 0.00, 0.00, 0.01, -0.19, 1.01
53, 0.00, 53843.54, 0.00, 0.00, 0.00, 0.00, 0.00, 0.00, 0.01, -0.19, 1.01
54, 0.00, 53844.52, 0.00, 0.00, 0.00, 0.00, 0.00, 0.00, 0.00, -0.18, 1.01
55, 0.00, 53780.93, 0.00, 0.00, 0.00, 0.00, 0.00, 0.00, 0.00, -0.18, 1.01
56, 0.00, 53769.89, 0.00, 0.00, 0.00, 0.00, 0.00, 0.00, 0.00, -0.18, 1.01
57, 0.00, 53828.79, 0.00, 0.00, 0.00, 0.00, 0.00, 0.00, 0.00, -0.18, 1.01
58, 0.00, 53849.51, 0.00, 0.00, 0.00, 0.00, 0.00, 0.00, 0.00, -0.18, 1.01
59, 0.00, 53784.31, 0.00, 0.00, 0.00, 0.00, 0.00, 0.00, 0.00, -0.19, 1.01
60, 0.00, 53753.33, 0.00, 0.00, 0.00, 0.00, 0.00, 0.00, 0.00, -0.19, 1.01
61, 0.00, 53820.85, 0.00, 0.00, 0.00, 0.00, 0.00, 0.00, 0.00, -0.19, 1.01
62, 0.00, 53853.91, 0.00, 0.00, 0.00, 0.00, 0.00, 0.00, 0.00, -0.19, 1.01
63, 0.00, 53799.69, 0.00, 0.00, 0.00, 0.00, 0.00, 0.00, 0.00, -0.19, 1.01
64, 0.00, 53760.86, 0.00, 0.00, 0.00, 0.00, 0.00, 0.00, 0.01, -0.18, 1.01
65, 0.00, 53805.86, 0.00, 0.00, 0.00, 0.00, 0.00, 0.00, 0.01, -0.18, 1.01
66, 0.00, 53845.62, 0.00, 0.00, 0.00, 0.00, 0.00, 0.00, 0.01, -0.18, 1.01
67, 0.00, 53805.03, 0.00, 0.00, 0.00, 0.00, 0.00, 0.00, 0.01, -0.18, 1.01
68, 0.00, 53753.17, 0.00, 0.00, 0.00, 0.00, 0.00, 0.00, 0.01, -0.18, 1.01
69, 0.00, 53794.01, 0.00, 0.00, 0.00, 0.00, 0.00, 0.00, 0.01, -0.18, 1.01
70, 0.00, 53856.26, 0.00, 0.00, 0.00, 0.00, 0.00, 0.00, 0.01, -0.18, 1.01
71, 0.00, 53821.77, 0.00, 0.00, 0.00, 0.00, 0.00, 0.00, 0.01, -0.18, 1.01
72, 0.00, 53758.74, 0.00, 0.00, 0.00, 0.00, 0.00, 0.00, 0.01, -0.18, 1.01
73, 0.00, 53782.30, 0.00, 0.00, 0.00, 0.00, 0.00, 0.00, 0.01, -0.18, 1.01
74, 0.00, 53845.11, 0.00, 0.00, 0.00, 0.00, 0.00, 0.00, 0.01, -0.18, 1.01
75, 0.00, 53828.86, 0.00, 0.00, 0.00, 0.00, 0.00, 0.00, 0.01, -0.18, 1.01
76, 0.00, 53759.12, 0.00, 0.00, 0.00, 0.00, 0.00, 0.00, 0.01, -0.18, 1.01
77, 0.00, 53760.23, 0.00, 0.00, 0.00, 0.00, 0.00, 0.00, 0.01, -0.18, 1.01
78, 0.00, 53828.07, 0.00, 0.00, 0.00, 0.00, 0.00, 0.00, 0.01, -0.18, 1.01
79, 0.00, 53845.62, 0.00, 0.00, 0.00, 0.00, 0.00, 0.00, 0.01, -0.19, 1.01
80, 0.00, 53779.19, 0.00, 0.00, 0.00, 0.00, 0.00, 0.00, 0.01, -0.19, 1.01
81, 0.00, 53764.88, 0.00, 0.00, 0.00, 0.00, 0.00, 0.00, 0.01, -0.19, 1.01
82, 0.00, 53826.73, 0.00, 0.00, 0.00, 0.00, 0.00, 0.00, 0.01, -0.19, 1.01
83, 0.00, 53836.66, 0.00, 0.00, 0.00, 0.00, 0.00, 0.00, 0.01, -0.19, 1.01
84, 0.00, 53773.33, 0.00, 0.00, 0.00, 0.00, 0.00, 0.00, 0.01, -0.18, 1.01
85, 0.00, 53750.11, 0.00, 0.00, 0.00, 0.00, 0.00, 0.00, 0.01, -0.18, 1.01
86, 0.00, 53810.86, 0.00, 0.00, 0.00, 0.00, 0.00, 0.00, 0.01, -0.18, 1.01
87, 0.00, 53846.60, 0.00, 0.00, 0.00, 0.00, 0.00, 0.00, 0.01, -0.18, 1.01
88, 0.00, 53787.37, 0.00, 0.00, 0.00, 0.00, 0.00, 0.00, 0.01, -0.18, 1.01
89, 0.00, 53745.68, 0.00, 0.00, 0.00, 0.00, 0.00, 0.00, 0.00, -0.19, 1.01
90, 0.00, 53794.61, 0.00, 0.00, 0.00, 0.00, 0.00, 0.00, 0.00, -0.19, 1.01
91, 0.00, 53850.07, 0.00, 0.00, 0.00, 0.00, 0.00, 0.00, 0.00, -0.19, 1.01
92, 0.00, 53805.77, 0.00, 0.00, 0.00, 0.00, 0.00, 0.00, 0.00, -0.19, 1.01
93, 0.00, 53751.99, 0.00, 0.00, 0.00, 0.00, 0.00, 0.00, 0.00, -0.19, 1.01
94, 0.00, 53787.39, 0.00, 0.00, 0.00, 0.00, 0.00, 0.00, 0.01, -0.18, 1.02
95, 0.00, 53848.34, 0.00, 0.00, 0.00, 0.00, 0.00, 0.00, 0.01, -0.18, 1.02
96, 0.00, 53824.12, 0.00, 0.00, 0.00, 0.00, 0.00, 0.00, 0.01, -0.18, 1.02
97, 0.00, 53765.69, 0.00, 0.00, 0.00, 0.00, 0.00, 0.00, 0.01, -0.18, 1.02
98, 0.00, 53782.56, 0.00, 0.00, 0.00, 0.00, 0.00, 0.00, 0.01, -0.18, 1.02
99, 0.00, 53844.32, 0.00, 0.00, 0.00, 0.00, 0.00, 0.00, 0.00, -0.18, 1.02
100, 0.00, 53832.50, 0.00, 0.00, 0.00, 0.00, 0.00, 0.00, 0.00, -0.18, 1.02
101, 0.00, 53772.33, 0.00, 0.00, 0.00, 0.00, 0.00, 0.00, 0.00, -0.18, 1.02
102, 0.00, 53772.55, 0.00, 0.00, 0.00, 0.00, 0.00, 0.00, 0.00, -0.18, 1.02
103, 0.00, 53840.61, 0.00, 0.00, 0.00, 0.00, 0.00, 0.00, 0.00, -0.18, 1.02
104, 0.00, 53852.59, 0.00, 0.00, 0.00, 0.00, 0.00, 0.00, 0.00, -0.18, 1.02
105, 0.00, 53775.86, 0.00, 0.00, 0.00, 0.00, 0.00, 0.00, 0.00, -0.18, 1.02
106, 0.00, 53757.39, 0.00, 0.00, 0.00, 0.00, 0.00, 0.00, 0.00, -0.18, 1.02
107, 0.00, 53825.43, 0.00, 0.00, 0.00, 0.00, 0.00, 0.00, 0.00, -0.18, 1.02
108, 0.00, 53842.20, 0.00, 0.00, 0.00, 0.00, 0.00, 0.00, 0.00, -0.18, 1.02
109, 0.00, 53784.82, 0.00, 0.00, 0.00, 0.00, 0.00, 0.00, 0.01, -0.18, 1.01
110, 0.00, 53758.07, 0.00, 0.00, 0.00, 0.00, 0.00, 0.00, 0.01, -0.18, 1.01
111, 0.00, 53809.57, 0.00, 0.00, 0.00, 0.00, 0.00, 0.00, 0.01, -0.18, 1.01
112, 0.00, 53852.97, 0.00, 0.00, 0.00, 0.00, 0.00, 0.00, 0.01, -0.18, 1.01
113, 0.00, 53803.71, 0.00, 0.00, 0.00, 0.00, 0.00, 0.00, 0.01, -0.18, 1.01
114, 0.00, 53746.02, 0.00, 0.00, 0.00, 0.00, 0.00, 0.00, 0.00, -0.18, 1.01
115, 0.00, 53796.94, 0.00, 0.00, 0.00, 0.00, 0.00, 0.00, 0.00, -0.18, 1.01
116, 0.00, 53851.48, 0.00, 0.00, 0.00, 0.00, 0.00, 0.00, 0.00, -0.18, 1.01
117, 0.00, 53811.18, 0.00, 0.00, 0.00, 0.00, 0.00, 0.00, 0.00, -0.18, 1.01
118, 0.00, 53751.54, 0.00, 0.00, 0.00, 0.00, 0.00, 0.00, 0.00, -0.18, 1.01
119, 0.00, 53787.44, 0.00, 0.00, 0.00, 0.00, 0.00, 0.00, 0.01, -0.19, 1.02
120, 0.00, 53838.78, 0.00, 0.00, 0.00, 0.00, 0.00, 0.00, 0.01, -0.19, 1.02
121, 0.00, 53813.90, 0.00, 0.00, 0.00, 0.00, 0.00, 0.00, 0.01, -0.19, 1.02
122, 0.00, 53747.88, 0.00, 0.00, 0.00, 0.00, 0.00, 0.00, 0.01, -0.19, 1.02
123, 0.00, 53759.50, 0.00, 0.00, 0.00, 0.00, 0.00, 0.00, 0.01, -0.19, 1.02
124, 0.00, 53831.58, 0.00, 0.00, 0.00, 0.00, 0.00, 0.00, 0.01, -0.19, 1.02
125, 0.00, 53828.34, 0.00, 0.00, 0.00, 0.00, 0.00, 0.00, 0.01, -0.19, 1.02
126, 0.00, 53768.08, 0.00, 0.00, 0.00, 0.00, 0.00, 0.00, 0.01, -0.19, 1.02
127, 0.00, 53759.00, 0.00, 0.00, 0.00, 0.00, 0.00, 0.00, 0.01, -0.19, 1.02
128, 0.00, 53814.50, 0.00, 0.00, 0.00, 0.00, 0.00, 0.00, 0.01, -0.19, 1.02
129, 0.00, 53835.54, 0.00, 0.00, 0.00, 0.00, 0.00, 0.00, 0.01, -0.19, 1.01
130, 0.00, 53776.02, 0.00, 0.00, 0.00, 0.00, 0.00, 0.00, 0.01, -0.19, 1.01
131, 0.00, 53749.15, 0.00, 0.00, 0.00, 0.00, 0.00, 0.00, 0.01, -0.19, 1.01
132, 0.00, 53812.98, 0.00, 0.00, 0.00, 0.00, 0.00, 0.00, 0.01, -0.19, 1.01
133, 0.00, 53839.85, 0.00, 0.00, 0.00, 0.00, 0.00, 0.00, 0.01, -0.19, 1.01
134, 0.00, 53785.65, 0.00, 0.00, 0.00, 0.00, 0.00, 0.00, 0.00, -0.19, 1.01
135, 0.00, 53743.98, 0.00, 0.00, 0.00, 0.00, 0.00, 0.00, 0.00, -0.19, 1.01
136, 0.00, 53792.73, 0.00, 0.00, 0.00, 0.00, 0.00, 0.00, 0.00, -0.19, 1.01
137, 0.00, 53835.79, 0.00, 0.00, 0.00, 0.00, 0.00, 0.00, 0.00, -0.19, 1.01
138, 0.00, 53791.28, 0.00, 0.00, 0.00, 0.00, 0.00, 0.00, 0.00, -0.19, 1.01
139, 0.00, 53742.29, 0.00, 0.00, 0.00, 0.00, 0.00, 0.00, 0.01, -0.19, 1.01
140, 0.00, 53777.60, 0.00, 0.00, 0.00, 0.00, 0.00, 0.00, 0.01, -0.19, 1.01
141, 0.00, 53836.95, 0.00, 0.00, 0.00, 0.00, 0.00, 0.00, 0.01, -0.19, 1.01
142, 0.00, 53811.06, 0.00, 0.00, 0.00, 0.00, 0.00, 0.00, 0.01, -0.19, 1.01
143, 0.00, 53744.59, 0.00, 0.00, 0.00, 0.00, 0.00, 0.00, 0.01, -0.19, 1.01
144, 0.00, 53761.78, 0.00, 0.00, 0.00, 0.00, 0.00, 0.00, 0.01, -0.19, 1.01
145, 0.00, 53835.32, 0.00, 0.00, 0.00, 0.00, 0.00, 0.00, 0.01, -0.19, 1.01
146, 0.00, 53819.02, 0.00, 0.00, 0.00, 0.00, 0.00, 0.00, 0.01, -0.19, 1.01
147, 0.00, 53752.61, 0.00, 0.00, 0.00, 0.00, 0.00, 0.00, 0.01, -0.19, 1.01
148, 0.00, 53755.18, 0.00, 0.00, 0.00, 0.00, 0.00, 0.00, 0.01, -0.19, 1.01
149, 0.00, 53820.12, 0.00, 0.00, 0.00, 0.00, 0.00, 0.00, 0.01, -0.19, 1.02
150, 0.00, 53819.96, 0.00, 0.00, 0.00, 0.00, 0.00, 0.00, 0.01, -0.19, 1.02
151, 0.00, 53750.24, 0.00, 0.00, 0.00, 0.00, 0.00, 0.00, 0.01, -0.19, 1.02
152, 0.00, 53735.85, 0.00, 0.00, 0.00, 0.00, 0.00, 0.00, 0.01, -0.19, 1.02
153, 0.00, 53811.67, 0.00, 0.00, 0.00, 0.00, 0.00, 0.00, 0.01, -0.19, 1.02
154, 0.00, 53834.49, 0.00, 0.00, 0.00, 0.00, 0.00, 0.00, 0.01, -0.18, 1.02
155, 0.00, 53771.59, 0.00, 0.00, 0.00, 0.00, 0.00, 0.00, 0.01, -0.18, 1.02
156, 0.00, 53736.86, 0.00, 0.00, 0.00, 0.00, 0.00, 0.00, 0.01, -0.18, 1.02
157, 0.00, 53793.05, 0.00, 0.00, 0.00, 0.00, 0.00, 0.00, 0.01, -0.18, 1.02
158, 0.00, 53826.38, 0.00, 0.00, 0.00, 0.00, 0.00, 0.00, 0.01, -0.18, 1.02
159, 0.00, 53781.16, 0.00, 0.00, 0.00, 0.00, 0.00, 0.00, 0.01, -0.19, 1.01
160, 0.00, 53737.01, 0.00, 0.00, 0.00, 0.00, 0.00, 0.00, 0.01, -0.19, 1.01
161, 0.00, 53792.76, 0.00, 0.00, 0.00, 0.00, 0.00, 0.00, 0.01, -0.19, 1.01
162, 0.00, 53844.81, 0.00, 0.00, 0.00, 0.00, 0.00, 0.00, 0.01, -0.19, 1.01
163, 0.00, 53788.09, 0.00, 0.00, 0.00, 0.00, 0.00, 0.00, 0.01, -0.19, 1.01
164, 0.00, 53736.12, 0.00, 0.00, 0.00, 0.00, 0.00, 0.00, 0.00, -0.19, 1.01
165, 0.00, 53775.08, 0.00, 0.00, 0.00, 0.00, 0.00, 0.00, 0.00, -0.19, 1.01
166, 0.00, 53838.67, 0.00, 0.00, 0.00, 0.00, 0.00, 0.00, 0.00, -0.19, 1.01
167, 0.00, 53807.71, 0.00, 0.00, 0.00, 0.00, 0.00, 0.00, 0.00, -0.19, 1.01
168, 0.00, 53750.09, 0.00, 0.00, 0.00, 0.00, 0.00, 0.00, 0.00, -0.19, 1.01
169, 0.00, 53774.09, 0.00, 0.00, 0.00, 0.00, 0.00, 0.00, -0.00, -0.19, 1.01
170, 0.00, 53829.95, 0.00, 0.00, 0.00, 0.00, 0.00, 0.00, -0.00, -0.19, 1.01
171, 0.00, 53820.65, 0.00, 0.00, 0.00, 0.00, 0.00, 0.00, -0.00, -0.19, 1.01
172, 0.00, 53746.42, 0.00, 0.00, 0.00, 0.00, 0.00, 0.00, -0.00, -0.19, 1.01
173, 0.00, 53750.58, 0.00, 0.00, 0.00, 0.00, 0.00, 0.00, -0.00, -0.19, 1.01
174, 0.00, 53824.74, 0.00, 0.00, 0.00, 0.00, 0.00, 0.00, 0.00, -0.18, 1.02
175, 0.00, 53831.70, 0.00, 0.00, 0.00, 0.00, 0.00, 0.00, 0.00, -0.18, 1.02
176, 0.00, 53765.82, 0.00, 0.00, 0.00, 0.00, 0.00, 0.00, 0.00, -0.18, 1.02
177, 0.00, 53752.73, 0.00, 0.00, 0.00, 0.00, 0.00, 0.00, 0.00, -0.18, 1.02
178, 0.00, 53816.20, 0.00, 0.00, 0.00, 0.00, 0.00, 0.00, 0.00, -0.18, 1.02
179, 0.00, 53841.86, 0.00, 0.00, 0.00, 0.00, 0.00, 0.00, 0.00, -0.18, 1.01
180, 0.00, 53782.81, 0.00, 0.00, 0.00, 0.00, 0.00, 0.00, 0.00, -0.18, 1.01
181, 0.00, 53749.02, 0.00, 0.00, 0.00, 0.00, 0.00, 0.00, 0.00, -0.18, 1.01
182, 0.00, 53801.09, 0.00, 0.00, 0.00, 0.00, 0.00, 0.00, 0.00, -0.18, 1.01
183, 0.00, 53835.20, 0.00, 0.00, 0.00, 0.00, 0.00, 0.00, 0.00, -0.18, 1.01
184, 0.00, 53796.58, 0.00, 0.00, 0.00, 0.00, 0.00, 0.00, 0.00, -0.18, 1.01
185, 0.00, 53751.79, 0.00, 0.00, 0.00, 0.00, 0.00, 0.00, 0.00, -0.18, 1.01
186, 0.00, 53793.07, 0.00, 0.00, 0.00, 0.00, 0.00, 0.00, 0.00, -0.18, 1.01
187, 0.00, 53844.70, 0.00, 0.00, 0.00, 0.00, 0.00, 0.00, 0.00, -0.18, 1.01
188, 0.00, 53807.53, 0.00, 0.00, 0.00, 0.00, 0.00, 0.00, 0.00, -0.18, 1.01
189, 0.00, 53749.26, 0.00, 0.00, 0.00, 0.00, 0.00, 0.00, 0.00, -0.19, 1.02
190, 0.00, 53772.15, 0.00, 0.00, 0.00, 0.00, 0.00, 0.00, 0.00, -0.19, 1.02
191, 0.00, 53836.52, 0.00, 0.00, 0.00, 0.00, 0.00, 0.00, 0.00, -0.19, 1.02
192, 0.00, 53820.38, 0.00, 0.00, 0.00, 0.00, 0.00, 0.00, 0.00, -0.19, 1.02
193, 0.00, 53741.95, 0.00, 0.00, 0.00, 0.00, 0.00, 0.00, 0.00, -0.19, 1.02
194, 0.00, 53753.73, 0.00, 0.00, 0.00, 0.00, 0.00, 0.00, 0.01, -0.19, 1.02
195, 0.00, 53821.16, 0.00, 0.00, 0.00, 0.00, 0.00, 0.00, 0.01, -0.19, 1.02
196, 0.00, 53829.88, 0.00, 0.00, 0.00, 0.00, 0.00, 0.00, 0.01, -0.19, 1.02
197, 0.00, 53764.84, 0.00, 0.00, 0.00, 0.00, 0.00, 0.00, 0.01, -0.19, 1.02
198, 0.00, 53753.89, 0.00, 0.00, 0.00, 0.00, 0.00, 0.00, 0.01, -0.19, 1.02
199, 0.00, 53817.32, 0.00, 0.00, 0.00, 0.00, 0.00, 0.00, 0.01, -0.19, 1.01
200, 0.00, 53832.10, 0.00, 0.00, 0.00, 0.00, 0.00, 0.00, 0.01, -0.19, 1.01
201, 0.00, 53764.53, 0.00, 0.00, 0.00, 0.00, 0.00, 0.00, 0.01, -0.19, 1.01
202, 0.00, 53747.58, 0.00, 0.00, 0.00, 0.00, 0.00, 0.00, 0.01, -0.19, 1.01
203, 0.00, 53816.83, 0.00, 0.00, 0.00, 0.00, 0.00, 0.00, 0.01, -0.19, 1.01
204, 0.00, 53838.98, 0.00, 0.00, 0.00, 0.00, 0.00, 0.00, 0.01, -0.18, 1.01
205, 0.00, 53788.53, 0.00, 0.00, 0.00, 0.00, 0.00, 0.00, 0.01, -0.18, 1.01
206, 0.00, 53747.18, 0.00, 0.00, 0.00, 0.00, 0.00, 0.00, 0.01, -0.18, 1.01
207, 0.00, 53789.02, 0.00, 0.00, 0.00, 0.00, 0.00, 0.00, 0.01, -0.18, 1.01
208, 0.00, 53838.38, 0.00, 0.00, 0.00, 0.00, 0.00, 0.00, 0.01, -0.18, 1.01
209, 0.00, 53794.28, 0.00, 0.00, 0.00, 0.00, 0.00, 0.00, 0.01, -0.18, 1.01
210, 0.00, 53743.79, 0.00, 0.00, 0.00, 0.00, 0.00, 0.00, 0.01, -0.18, 1.01
211, 0.00, 53781.71, 0.00, 0.00, 0.00, 0.00, 0.00, 0.00, 0.01, -0.18, 1.01
212, 0.00, 53831.78, 0.00, 0.00, 0.00, 0.00, 0.00, 0.00, 0.01, -0.18, 1.01
213, 0.00, 53807.96, 0.00, 0.00, 0.00, 0.00, 0.00, 0.00, 0.01, -0.18, 1.01
214, 0.00, 53738.11, 0.00, 0.00, 0.00, 0.00, 0.00, 0.00, 0.01, -0.18, 1.01
215, 0.00, 53757.33, 0.00, 0.00, 0.00, 0.00, 0.00, 0.00, 0.01, -0.18, 1.01
216, 0.00, 53829.41, 0.00, 0.00, 0.00, 0.00, 0.00, 0.00, 0.01, -0.18, 1.01
217, 0.00, 53818.21, 0.00, 0.00, 0.00, 0.00, 0.00, 0.00, 0.01, -0.18, 1.01
218, 0.00, 53745.97, 0.00, 0.00, 0.00, 0.00, 0.00, 0.00, 0.01, -0.18, 1.01
219, 0.00, 53751.79, 0.00, 0.00, 0.00, 0.00, 0.00, 0.00, 0.01, -0.18, 1.01
220, 0.00, 53816.52, 0.00, 0.00, 0.00, 0.00, 0.00, 0.00, 0.01, -0.18, 1.01
221, 0.00, 53811.11, 0.00, 0.00, 0.00, 0.00, 0.00, 0.00, 0.01, -0.18, 1.01
222, 0.00, 53738.82, 0.00, 0.00, 0.00, 0.00, 0.00, 0.00, 0.01, -0.18, 1.01
223, 0.00, 53731.49, 0.00, 0.00, 0.00, 0.00, 0.00, 0.00, 0.01, -0.18, 1.01
224, 0.00, 53801.14, 0.00, 0.00, 0.00, 0.00, 0.00, 0.00, 0.01, -0.18, 1.01
225, 0.00, 53809.90, 0.00, 0.00, 0.00, 0.00, 0.00, 0.00, 0.01, -0.18, 1.01
226, 0.00, 53762.09, 0.00, 0.00, 0.00, 0.00, 0.00, 0.00, 0.01, -0.18, 1.01
227, 0.00, 53734.20, 0.00, 0.00, 0.00, 0.00, 0.00, 0.00, 0.01, -0.18, 1.01
228, 0.00, 53783.48, 0.00, 0.00, 0.00, 0.00, 0.00, 0.00, 0.01, -0.18, 1.01
229, 0.00, 53826.44, 0.00, 0.00, 0.00, 0.00, 0.00, 0.00, 0.01, -0.18, 1.01
230, 0.00, 53791.66, 0.00, 0.00, 0.00, 0.00, 0.00, 0.00, 0.01, -0.18, 1.01
231, 0.00, 53750.82, 0.00, 0.00, 0.00, 0.00, 0.00, 0.00, 0.01, -0.18, 1.01
232, 0.00, 53793.34, 0.00, 0.00, 0.00, 0.00, 0.00, 0.00, 0.01, -0.18, 1.01
233, 0.00, 53836.16, 0.00, 0.00, 0.00, 0.00, 0.00, 0.00, 0.01, -0.18, 1.01
234, 0.00, 53797.70, 0.00, 0.00, 0.00, 0.00, 0.00, 0.00, 0.01, -0.18, 1.01
235, 0.00, 53739.36, 0.00, 0.00, 0.00, 0.00, 0.00, 0.00, 0.01, -0.18, 1.01
236, 0.00, 53770.09, 0.00, 0.00, 0.00, 0.00, 0.00, 0.00, 0.01, -0.18, 1.01
237, 0.00, 53823.96, 0.00, 0.00, 0.00, 0.00, 0.00, 0.00, 0.01, -0.18, 1.01
238, 0.00, 53803.20, 0.00, 0.00, 0.00, 0.00, 0.00, 0.00, 0.01, -0.18, 1.01
239, 0.00, 53742.11, 0.00, 0.00, 0.00, 0.00, 0.00, 0.00, 0.01, -0.18, 1.01
240, 0.00, 53758.54, 0.00, 0.00, 0.00, 0.00, 0.00, 0.00, -0.00, -0.18, 1.02
241, 0.00, 53826.87, 0.00, 0.00, 0.00, 0.00, 0.00, 0.00, -0.00, -0.18, 1.02
242, 0.00, 53821.05, 0.00, 0.00, 0.00, 0.00, 0.00, 0.00, -0.00, -0.18, 1.02
243, 0.00, 53737.37, 0.00, 0.00, 0.00, 0.00, 0.00, 0.00, -0.00, -0.18, 1.02
244, 0.00, 53737.70, 0.00, 0.00, 0.00, 0.00, 0.00, 0.00, -0.00, -0.18, 1.02
245, 0.00, 53812.47, 0.00, 0.00, 0.00, 0.00, 0.00, 0.00, 0.00, -0.19, 1.02
246, 0.00, 53821.81, 0.00, 0.00, 0.00, 0.00, 0.00, 0.00, 0.00, -0.19, 1.02
247, 0.00, 53756.66, 0.00, 0.00, 0.00, 0.00, 0.00, 0.00, 0.00, -0.19, 1.02
248, 0.00, 53740.25, 0.00, 0.00, 0.00, 0.00, 0.00, 0.00, 0.00, -0.19, 1.02
249, 0.00, 53803.87, 0.00, 0.00, 0.00, 0.00, 0.00, 0.00, 0.00, -0.19, 1.02
250, 0.00, 53839.45, 0.00, 0.00, 0.00, 0.00, 0.00, 0.00, 0.01, -0.18, 1.02
251, 0.00, 53782.61, 0.00, 0.00, 0.00, 0.00, 0.00, 0.00, 0.01, -0.18, 1.02
252, 0.00, 53748.14, 0.00, 0.00, 0.00, 0.00, 0.00, 0.00, 0.01, -0.18, 1.02
253, 0.00, 53807.71, 0.00, 0.00, 0.00, 0.00, 0.00, 0.00, 0.01, -0.18, 1.02
254, 0.00, 53843.92, 0.00, 0.00, 0.00, 0.00, 0.00, 0.00, 0.01, -0.18, 1.02
255, 0.00, 53790.68, 0.00, 0.00, 0.00, 0.00, 0.00, 0.00, 0.01, -0.18, 1.02
0, 0.00, 53744.61, 0.00, 0.00, 0.00, 0.00, 0.00, 0.00, 0.01, -0.18, 1.02
1, 0.00, 53782.07, 0.00, 0.00, 0.00, 0.00, 0.00, 0.00, 0.01, -0.18, 1.02
2, 0.00, 53831.07, 0.00, 0.00, 0.00, 0.00, 0.00, 0.00, 0.01, -0.18, 1.02
3, 0.00, 53795.26, 0.00, 0.00, 0.00, 0.00, 0.00, 0.00, 0.01, -0.18, 1.02
4, 0.00, 53739.65, 0.00, 0.00, 0.00, 0.00, 0.00, 0.00, 0.01, -0.19, 1.01
5, 0.00, 53766.88, 0.00, 0.00, 0.00, 0.00, 0.00, 0.00, 0.01, -0.19, 1.01
6, 0.00, 53839.72, 0.00, 0.00, 0.00, 0.00, 0.00, 0.00, 0.01, -0.19, 1.01
7, 0.00, 53820.12, 0.00, 0.00, 0.00, 0.00, 0.00, 0.00, 0.01, -0.19, 1.01
8, 0.00, 53746.51, 0.00, 0.00, 0.00, 0.00, 0.00, 0.00, 0.01, -0.19, 1.01
9, 0.00, 53761.38, 0.00, 0.00, 0.00, 0.00, 0.00, 0.00, 0.01, -0.19, 1.02
10, 0.00, 53815.06, 0.00, 0.00, 0.00, 0.00, 0.00, 0.00, 0.01, -0.19, 1.02
11, 0.00, 53809.63, 0.00, 0.00, 0.00, 0.00, 0.00, 0.00, 0.01, -0.19, 1.02
12, 0.00, 53742.06, 0.00, 0.00, 0.00, 0.00, 0.00, 0.00, 0.01, -0.19, 1.02
13, 0.00, 53731.22, 0.00, 0.00, 0.00, 0.00, 0.00, 0.00, 0.01, -0.19, 1.02
14, 0.00, 53789.34, 0.00, 0.00, 0.00, 0.00, 0.00, 0.00, 0.01, -0.19, 1.01
15, 0.00, 53800.18, 0.00, 0.00, 0.00, 0.00, 0.00, 0.00, 0.01, -0.19, 1.01
16, 0.00, 53737.57, 0.00, 0.00, 0.00, 0.00, 0.00, 0.00, 0.01, -0.19, 1.01
17, 0.00, 53720.98, 0.00, 0.00, 0.00, 0.00, 0.00, 0.00, 0.01, -0.19, 1.01
18, 0.00, 53780.38, 0.00, 0.00, 0.00, 0.00, 0.00, 0.00, 0.01, -0.19, 1.01
19, 0.00, 53804.74, 0.00, 0.00, 0.00, 0.00, 0.00, 0.00, 0.01, -0.19, 1.01
20, 0.00, 53747.11, 0.00, 0.00, 0.00, 0.00, 0.00, 0.00, 0.01, -0.19, 1.01
21, 0.00, 53697.11, 0.00, 0.00, 0.00, 0.00, 0.00, 0.00, 0.01, -0.19, 1.01
22, 0.00, 53740.70, 0.00, 0.00, 0.00, 0.00, 0.00, 0.00, 0.01, -0.19, 1.01
23, 0.00, 53792.29, 0.00, 0.00, 0.00, 0.00, 0.00, 0.00, 0.01, -0.19, 1.01
24, 0.00, 53746.85, 0.00, 0.00, 0.00, 0.00, 0.00, 0.00, 0.00, -0.19, 1.01
25, 0.00, 53692.04, 0.00, 0.00, 0.00, 0.00, 0.00, 0.00, 0.00, -0.19, 1.01
26, 0.00, 53730.44, 0.00, 0.00, 0.00, 0.00, 0.00, 0.00, 0.00, -0.19, 1.01
27, 0.00, 53785.22, 0.00, 0.00, 0.00, 0.00, 0.00, 0.00, 0.00, -0.19, 1.01
28, 0.00, 53752.10, 0.00, 0.00, 0.00, 0.00, 0.00, 0.00, 0.00, -0.19, 1.01
29, 0.00, 53685.65, 0.00, 0.00, 0.00, 0.00, 0.00, 0.00, 0.00, -0.19, 1.01
30, 0.00, 53704.63, 0.00, 0.00, 0.00, 0.00, 0.00, 0.00, 0.00, -0.19, 1.01
31, 0.00, 53765.64, 0.00, 0.00, 0.00, 0.00, 0.00, 0.00, 0.00, -0.19, 1.01
32, 0.00, 53756.93, 0.00, 0.00, 0.00, 0.00, 0.00, 0.00, 0.00, -0.19, 1.01
33, 0.00, 53693.76, 0.00, 0.00, 0.00, 0.00, 0.00, 0.00, 0.00, -0.19, 1.01
34, 0.00, 53699.26, 0.00, 0.00, 0.00, 0.00, 0.00, 0.00, -0.00, -0.19, 1.01
35, 0.00, 53760.59, 0.00, 0.00, 0.00, 0.00, 0.00, 0.00, -0.00, -0.19, 1.01
36, 0.00, 53762.56, 0.00, 0.00, 0.00, 0.00, 0.00, 0.00, -0.00, -0.19, 1.01
37, 0.00, 53696.31, 0.00, 0.00, 0.00, 0.00, 0.00, 0.00, -0.00, -0.19, 1.01
38, 0.00, 53684.39, 0.00, 0.00, 0.00, 0.00, 0.00, 0.00, -0.00, -0.19, 1.01
39, 0.00, 53749.21, 0.00, 0.00, 0.00, 0.00, 0.00, 0.00, 0.00, -0.19, 1.02
40, 0.00, 53766.89, 0.00, 0.00, 0.00, 0.00, 0.00, 0.00, 0.00, -0.19, 1.02
41, 0.00, 53707.30, 0.00, 0.00, 0.00, 0.00, 0.00, 0.00, 0.00, -0.19, 1.02
42, 0.00, 53688.15, 0.00, 0.00, 0.00, 0.00, 0.00, 0.00, 0.00, -0.19, 1.02
43, 0.00, 53740.05, 0.00, 0.00, 0.00, 0.00, 0.00, 0.00, 0.00, -0.19, 1.02
44, 0.00, 53768.86, 0.00, 0.00, 0.00, 0.00, 0.00, 0.00, 0.00, -0.18, 1.02
45, 0.00, 53721.79, 0.00, 0.00, 0.00, 0.00, 0.00, 0.00, 0.00, -0.18, 1.02
46, 0.00, 53679.37, 0.00, 0.00, 0.00, 0.00, 0.00, 0.00, 0.00, -0.18, 1.02
47, 0.00, 53723.31, 0.00, 0.00, 0.00, 0.00, 0.00, 0.00, 0.00, -0.18, 1.02
48, 0.00, 53770.61, 0.00, 0.00, 0.00, 0.00, 0.00, 0.00, 0.00, -0.18, 1.02
49, 0.00, 53744.25, 0.00, 0.00, 0.00, 0.00, 0.00, 0.00, 0.00, -0.18, 1.01
50, 0.00, 53698.41, 0.00, 0.00, 0.00, 0.00, 0.00, 0.00, 0.00, -0.18, 1.01
51, 0.00, 53724.74, 0.00, 0.00, 0.00, 0.00, 0.00, 0.00, 0.00, -0.18, 1.01
52, 0.00, 53772.37, 0.00, 0.00, 0.00, 0.00, 0.00, 0.00, 0.00, -0.18, 1.01
53, 0.00, 53748.10, 0.00, 0.00, 0.00, 0.00, 0.00, 0.00, 0.00, -0.18, 1.01
54, 0.00, 53691.46, 0.00, 0.00, 0.00, 0.00, 0.00, 0.00, 0.01, -0.18, 1.01
55, 0.00, 53713.05, 0.00, 0.00, 0.00, 0.00, 0.00, 0.00, 0.01, -0.18, 1.01
56, 0.00, 53774.45, 0.00, 0.00, 0.00, 0.00, 0.00, 0.00, 0.01, -0.18, 1.01
57, 0.00, 53767.90, 0.00, 0.00, 0.00, 0.00, 0.00, 0.00, 0.01, -0.18, 1.01
58, 0.00, 53697.49, 0.00, 0.00, 0.00, 0.00, 0.00, 0.00, 0.01, -0.18, 1.01
59, 0.00, 53689.98, 0.00, 0.00, 0.00, 0.00, 0.00, 0.00, 0.00, -0.18, 1.02
60, 0.00, 53761.40, 0.00, 0.00, 0.00, 0.00, 0.00, 0.00, 0.00, -0.18, 1.02
61, 0.00, 53769.36, 0.00, 0.00, 0.00, 0.00, 0.00, 0.00, 0.00, -0.18, 1.02
62, 0.00, 53711.20, 0.00, 0.00, 0.00, 0.00, 0.00, 0.00, 0.00, -0.18, 1.02
63, 0.00, 53691.19, 0.00, 0.00, 0.00, 0.00, 0.00, 0.00, 0.00, -0.18, 1.02
64, 0.00, 53758.49, 0.00, 0.00, 0.00, 0.00, 0.00, 0.00, 0.00, -0.18, 1.02
65, 0.00, 53784.93, 0.00, 0.00, 0.00, 0.00, 0.00, 0.00, 0.00, -0.18, 1.02
66, 0.00, 53717.70, 0.00, 0.00, 0.00, 0.00, 0.00, 0.00, 0.00, -0.18, 1.02
67, 0.00, 53680.24, 0.00, 0.00, 0.00, 0.00, 0.00, 0.00, 0.00, -0.18, 1.02
68, 0.00, 53736.25, 0.00, 0.00, 0.00, 0.00, 0.00, 0.00, 0.00, -0.18, 1.02
69, 0.00, 53774.68, 0.00, 0.00, 0.00, 0.00, 0.00, 0.00, 0.00, -0.18, 1.01
70, 0.00, 53733.93, 0.00, 0.00, 0.00, 0.00, 0.00, 0.00, 0.00, -0.18, 1.01
71, 0.00, 53687.68, 0.00, 0.00, 0.00, 0.00, 0.00, 0.00, 0.00, -0.18, 1.01
72, 0.00, 53724.63, 0.00, 0.00, 0.00, 0.00, 0.00, 0.00, 0.00, -0.18, 1.01
73, 0.00, 53778.81, 0.00, 0.00, 0.00, 0.00, 0.00, 0.00, 0.00, -0.18, 1.01
74, 0.00, 53749.08, 0.00, 0.00, 0.00, 0.00, 0.00, 0.00, 0.00, -0.18, 1.02
75, 0.00, 53687.46, 0.00, 0.00, 0.00, 0.00, 0.00, 0.00, 0.00, -0.18, 1.02
76, 0.00, 53713.83, 0.00, 0.00, 0.00, 0.00, 0.00, 0.00, 0.00, -0.18, 1.02
77, 0.00, 53782.50, 0.00, 0.00, 0.00, 0.00, 0.00, 0.00, 0.00, -0.18, 1.02
78, 0.00, 53754.25, 0.00, 0.00, 0.00, 0.00, 0.00, 0.00, 0.00, -0.18, 1.02
79, 0.00, 53693.87, 0.00, 0.00, 0.00, 0.00, 0.00, 0.00, 0.00, -0.19, 1.01
80, 0.00, 53707.26, 0.00, 0.00, 0.00, 0.00, 0.00, 0.00, 0.00, -0.19, 1.01
81, 0.00, 53769.89, 0.00, 0.00, 0.00, 0.00, 0.00, 0.00, 0.00, -0.19, 1.01
82, 0.00, 53772.55, 0.00, 0.00, 0.00, 0.00, 0.00, 0.00, 0.00, -0.19, 1.01
83, 0.00, 53704.82, 0.00, 0.00, 0.00, 0.00, 0.00, 0.00, 0.00, -0.19, 1.01
84, 0.00, 53696.11, 0.00, 0.00, 0.00, 0.00, 0.00, 0.00, 0.01, -0.18, 1.02
85, 0.00, 53762.20, 0.00, 0.00, 0.00, 0.00, 0.00, 0.00, 0.01, -0.18, 1.02
86, 0.00, 53772.98, 0.00, 0.00, 0.00, 0.00, 0.00, 0.00, 0.01, -0.18, 1.02
87, 0.00, 53717.30, 0.00, 0.00, 0.00, 0.00, 0.00, 0.00, 0.01, -0.18, 1.02
88, 0.00, 53702.57, 0.00, 0.00, 0.00, 0.00, 0.00, 0.00, 0.01, -0.18, 1.02
89, 0.00, 53765.36, 0.00, 0.00, 0.00, 0.00, 0.00, 0.00, 0.01, -0.18, 1.01
90, 0.00, 53802.66, 0.00, 0.00, 0.00, 0.00, 0.00, 0.00, 0.01, -0.18, 1.01
91, 0.00, 53740.83, 0.00, 0.00, 0.00, 0.00, 0.00, 0.00, 0.01, -0.18, 1.01
92, 0.00, 53702.88, 0.00, 0.00, 0.00, 0.00, 0.00, 0.00, 0.01, -0.18, 1.01
93, 0.00, 53756.35, 0.00, 0.00, 0.00, 0.00, 0.00, 0.00, 0.01, -0.18, 1.01
94, 0.00, 53803.60, 0.00, 0.00, 0.00, 0.00, 0.00, 0.00, 0.01, -0.19, 1.01
95, 0.00, 53754.45, 0.00, 0.00, 0.00, 0.00, 0.00, 0.00, 0.01, -0.19, 1.01
96, 0.00, 53707.91, 0.00, 0.00, 0.00, 0.00, 0.00, 0.00, 0.01, -0.19, 1.01
97, 0.00, 53752.05, 0.00, 0.00, 0.00, 0.00, 0.00, 0.00, 0.01, -0.19, 1.01
98, 0.00, 53807.11, 0.00, 0.00, 0.00, 0.00, 0.00, 0.00, 0.01, -0.19, 1.01
99, 0.00, 53774.81, 0.00, 0.00, 0.00, 0.00, 0.00, 0.00, 0.00, -0.19, 1.02
100, 0.00, 53720.80, 0.00, 0.00, 0.00, 0.00, 0.00, 0.00, 0.00, -0.19, 1.02
101, 0.00, 53745.24, 0.00, 0.00, 0.00, 0.00, 0.00, 0.00, 0.00, -0.19, 1.02
102, 0.00, 53809.50, 0.00, 0.00, 0.00, 0.00, 0.00, 0.00, 0.00, -0.19, 1.02
103, 0.00, 53800.40, 0.00, 0.00, 0.00, 0.00, 0.00, 0.00, 0.00, -0.19, 1.02
104, 0.00, 53733.79, 0.00, 0.00, 0.00, 0.00, 0.00, 0.00, 0.00, -0.19, 1.01
105, 0.00, 53740.01, 0.00, 0.00, 0.00, 0.00, 0.00, 0.00, 0.00, -0.19, 1.01
106, 0.00, 53805.43, 0.00, 0.00, 0.00, 0.00, 0.00, 0.00, 0.00, -0.19, 1.01
107, 0.00, 53798.59, 0.00, 0.00, 0.00, 0.00, 0.00, 0.00, 0.00, -0.19, 1.01
108, 0.00, 53732.52, 0.00, 0.00, 0.00, 0.00, 0.00, 0.00, 0.00, -0.19, 1.01
109, 0.00, 53715.58, 0.00, 0.00, 0.00, 0.00, 0.00, 0.00, 0.00, -0.18, 1.01
110, 0.00, 53774.94, 0.00, 0.00, 0.00, 0.00, 0.00, 0.00, 0.00, -0.18, 1.01
111, 0.00, 53797.16, 0.00, 0.00, 0.00, 0.00, 0.00, 0.00, 0.00, -0.18, 1.01
112, 0.00, 53743.47, 0.00, 0.00, 0.00, 0.00, 0.00, 0.00, 0.00, -0.18, 1.01
113, 0.00, 53709.90, 0.00, 0.00, 0.00, 0.00, 0.00, 0.00, 0.00, -0.18, 1.01
114, 0.00, 53769.49, 0.00, 0.00, 0.00, 0.00, 0.00, 0.00, 0.01, -0.18, 1.01
115, 0.00, 53811.49, 0.00, 0.00, 0.00, 0.00, 0.00, 0.00, 0.01, -0.18, 1.01
116, 0.00, 53770.94, 0.00, 0.00, 0.00, 0.00, 0.00, 0.00, 0.01, -0.18, 1.01
117, 0.00, 53716.58, 0.00, 0.00, 0.00, 0.00, 0.00, 0.00, 0.01, -0.18, 1.01
118, 0.00, 53765.20, 0.00, 0.00, 0.00, 0.00, 0.00, 0.00, 0.01, -0.18, 1.01
119, 0.00, 53814.91, 0.00, 0.00, 0.00, 0.00, 0.00, 0.00, 0.01, -0.18, 1.01
120, 0.00, 53775.79, 0.00, 0.00, 0.00, 0.00, 0.00, 0.00, 0.01, -0.18, 1.01
121, 0.00, 53719.49, 0.00, 0.00, 0.00, 0.00, 0.00, 0.00, 0.01, -0.18, 1.01
122, 0.00, 53756.97, 0.00, 0.00, 0.00, 0.00, 0.00, 0.00, 0.01, -0.18, 1.01
123, 0.00, 53822.69, 0.00, 0.00, 0.00, 0.00, 0.00, 0.00, 0.01, -0.18, 1.01
124, 0.00, 53794.59, 0.00, 0.00, 0.00, 0.00, 0.00, 0.00, 0.01, -0.18, 1.01
125, 0.00, 53730.08, 0.00, 0.00, 0.00, 0.00, 0.00, 0.00, 0.01, -0.18, 1.01
126, 0.00, 53752.17, 0.00, 0.00, 0.00, 0.00, 0.00, 0.00, 0.01, -0.18, 1.01
127, 0.00, 53816.54, 0.00, 0.00, 0.00, 0.00, 0.00, 0.00, 0.01, -0.18, 1.01
128, 0.00, 53805.59, 0.00, 0.00, 0.00, 0.00, 0.00, 0.00, 0.01, -0.18, 1.01
129, 0.00, 53737.91, 0.00, 0.00, 0.00, 0.00, 0.00, 0.00, 0.01, -0.18, 1.01
130, 0.00, 53742.33, 0.00, 0.00, 0.00, 0.00, 0.00, 0.00, 0.01, -0.18, 1.01
131, 0.00, 53806.30, 0.00, 0.00, 0.00, 0.00, 0.00, 0.00, 0.01, -0.18, 1.01
132, 0.00, 53819.91, 0.00, 0.00, 0.00, 0.00, 0.00, 0.00, 0.01, -0.18, 1.01
133, 0.00, 53749.04, 0.00, 0.00, 0.00, 0.00, 0.00, 0.00, 0.01, -0.18, 1.01
134, 0.00, 53731.49, 0.00, 0.00, 0.00, 0.00, 0.00, 0.00, 0.01, -0.18, 1.01
135, 0.00, 53797.74, 0.00, 0.00, 0.00, 0.00, 0.00, 0.00, 0.01, -0.18, 1.01
136, 0.00, 53826.31, 0.00, 0.00, 0.00, 0.00, 0.00, 0.00, 0.01, -0.18, 1.01
137, 0.00, 53778.34, 0.00, 0.00, 0.00, 0.00, 0.00, 0.00, 0.01, -0.18, 1.01
138, 0.00, 53742.67, 0.00, 0.00, 0.00, 0.00, 0.00, 0.00, 0.01, -0.18, 1.01
139, 0.00, 53793.70, 0.00, 0.00, 0.00, 0.00, 0.00, 0.00, 0.01, -0.19, 1.01
140, 0.00, 53830.66, 0.00, 0.00, 0.00, 0.00, 0.00, 0.00, 0.01, -0.19, 1.01
141, 0.00, 53781.96, 0.00, 0.00, 0.00, 0.00, 0.00, 0.00, 0.01, -0.19, 1.01
142, 0.00, 53728.54, 0.00, 0.00, 0.00, 0.00, 0.00, 0.00, 0.01, -0.19, 1.01
143, 0.00, 53766.94, 0.00, 0.00, 0.00, 0.00, 0.00, 0.00, 0.01, -0.19, 1.01
144, 0.00, 53823.96, 0.00, 0.00, 0.00, 0.00, 0.00, 0.00, 0.00, -0.18, 1.00
145, 0.00, 53792.80, 0.00, 0.00, 0.00, 0.00, 0.00, 0.00, 0.00, -0.18, 1.00
146, 0.00, 53734.51, 0.00, 0.00, 0.00, 0.00, 0.00, 0.00, 0.00, -0.18, 1.00
147, 0.00, 53762.96, 0.00, 0.00, 0.00, 0.00, 0.00, 0.00, 0.00, -0.18, 1.00
148, 0.00, 53827.43, 0.00, 0.00, 0.00, 0.00, 0.00, 0.00, 0.00, -0.18, 1.00
149, 0.00, 53801.95, 0.00, 0.00, 0.00, 0.00, 0.00, 0.00, 0.01, -0.19, 1.00
150, 0.00, 53731.34, 0.00, 0.00, 0.00, 0.00, 0.00, 0.00, 0.01, -0.19, 1.00
151, 0.00, 53747.05, 0.00, 0.00, 0.00, 0.00, 0.00, 0.00, 0.01, -0.19, 1.00
152, 0.00, 53812.36, 0.00, 0.00, 0.00, 0.00, 0.00, 0.00, 0.01, -0.19, 1.00
153, 0.00, 53805.65, 0.00, 0.00, 0.00, 0.00, 0.00, 0.00, 0.01, -0.19, 1.00
154, 0.00, 53729.55, 0.00, 0.00, 0.00, 0.00, 0.00, 0.00, 0.01, -0.19, 1.01
155, 0.00, 53728.38, 0.00, 0.00, 0.00, 0.00, 0.00, 0.00, 0.01, -0.19, 1.01
156, 0.00, 53789.09, 0.00, 0.00, 0.00, 0.00, 0.00, 0.00, 0.01, -0.19, 1.01
157, 0.00, 53799.93, 0.00, 0.00, 0.00, 0.00, 0.00, 0.00, 0.01, -0.19, 1.01
158, 0.00, 53751.27, 0.00, 0.00, 0.00, 0.00, 0.00, 0.00, 0.01, -0.19, 1.01
159, 0.00, 53728.14, 0.00, 0.00, 0.00, 0.00, 0.00, 0.00, 0.01, -0.18, 1.01
160, 0.00, 53781.69, 0.00, 0.00, 0.00, 0.00, 0.00, 0.00, 0.01, -0.18, 1.01
161, 0.00, 53819.73, 0.00, 0.00, 0.00, 0.00, 0.00, 0.00, 0.01, -0.18, 1.01
162, 0.00, 53768.35, 0.00, 0.00, 0.00, 0.00, 0.00, 0.00, 0.01, -0.18, 1.01
163, 0.00, 53730.33, 0.00, 0.00, 0.00, 0.00, 0.00, 0.00, 0.01, -0.18, 1.01
164, 0.00, 53788.80, 0.00, 0.00, 0.00, 0.00, 0.00, 0.00, 0.01, -0.18, 1.01
165, 0.00, 53835.88, 0.00, 0.00, 0.00, 0.00, 0.00, 0.00, 0.01, -0.18, 1.01
166, 0.00, 53784.51, 0.00, 0.00, 0.00, 0.00, 0.00, 0.00, 0.01, -0.18, 1.01
167, 0.00, 53730.78, 0.00, 0.00, 0.00, 0.00, 0.00, 0.00, 0.01, -0.18, 1.01
168, 0.00, 53768.64, 0.00, 0.00, 0.00, 0.00, 0.00, 0.00, 0.01, -0.18, 1.01
169, 0.00, 53826.95, 0.00, 0.00, 0.00, 0.00, 0.00, 0.00, 0.01, -0.18, 1.01
170, 0.00, 53800.85, 0.00, 0.00, 0.00, 0.00, 0.00, 0.00, 0.00, -0.18, 1.01
171, 0.00, 53740.66, 0.00, 0.00, 0.00, 0.00, 0.00, 0.00, 0.00, -0.18, 1.01
172, 0.00, 53765.53, 0.00, 0.00, 0.00, 0.00, 0.00, 0.00, 0.00, -0.18, 1.01
173, 0.00, 53828.03, 0.00, 0.00, 0.00, 0.00, 0.00, 0.00, 0.00, -0.18, 1.01
174, 0.00, 53813.19, 0.00, 0.00, 0.00, 0.00, 0.00, 0.00, 0.00, -0.18, 1.01
175, 0.00, 53748.16, 0.00, 0.00, 0.00, 0.00, 0.00, 0.00, -0.00, -0.18, 1.02
176, 0.00, 53753.04, 0.00, 0.00, 0.00, 0.00, 0.00, 0.00, -0.00, -0.18, 1.02
177, 0.00, 53821.90, 0.00, 0.00, 0.00, 0.00, 0.00, 0.00, -0.00, -0.18, 1.02
178, 0.00, 53829.70, 0.00, 0.00, 0.00, 0.00, 0.00, 0.00, -0.00, -0.18, 1.02
179, 0.00, 53754.04, 0.00, 0.00, 0.00, 0.00, 0.00, 0.00, -0.00, -0.18, 1.02
180, 0.00, 53740.39, 0.00, 0.00, 0.00, 0.00, 0.00, 0.00, 0.00, -0.19, 1.01
181, 0.00, 53805.45, 0.00, 0.00, 0.00, 0.00, 0.00, 0.00, 0.00, -0.19, 1.01
182, 0.00, 53828.83, 0.00, 0.00, 0.00, 0.00, 0.00, 0.00, 0.00, -0.19, 1.01
183, 0.00, 53767.03, 0.00, 0.00, 0.00, 0.00, 0.00, 0.00, 0.00, -0.19, 1.01
184, 0.00, 53734.62, 0.00, 0.00, 0.00, 0.00, 0.00, 0.00, 0.00, -0.19, 1.01
185, 0.00, 53795.21, 0.00, 0.00, 0.00, 0.00, 0.00, 0.00, 0.01, -0.19, 1.01
186, 0.00, 53831.36, 0.00, 0.00, 0.00, 0.00, 0.00, 0.00, 0.01, -0.19, 1.01
187, 0.00, 53773.80, 0.00, 0.00, 0.00, 0.00, 0.00, 0.00, 0.01, -0.19, 1.01
188, 0.00, 53736.18, 0.00, 0.00, 0.00, 0.00, 0.00, 0.00, 0.01, -0.19, 1.01
189, 0.00, 53786.25, 0.00, 0.00, 0.00, 0.00, 0.00, 0.00, 0.01, -0.19, 1.01
190, 0.00, 53838.24, 0.00, 0.00, 0.00, 0.00, 0.00, 0.00, 0.01, -0.19, 1.02
191, 0.00, 53796.64, 0.00, 0.00, 0.00, 0.00, 0.00, 0.00, 0.01, -0.19, 1.02
192, 0.00, 53742.33, 0.00, 0.00, 0.00, 0.00, 0.00, 0.00, 0.01, -0.19, 1.02
193, 0.00, 53770.16, 0.00, 0.00, 0.00, 0.00, 0.00, 0.00, 0.01, -0.19, 1.02
194, 0.00, 53821.79, 0.00, 0.00, 0.00, 0.00, 0.00, 0.00, 0.01, -0.19, 1.02
195, 0.00, 53802.66, 0.00, 0.00, 0.00, 0.00, 0.00, 0.00, 0.01, -0.19, 1.02
196, 0.00, 53737.68, 0.00, 0.00, 0.00, 0.00, 0.00, 0.00, 0.01, -0.19, 1.02
197, 0.00, 53749.75, 0.00, 0.00, 0.00, 0.00, 0.00, 0.00, 0.01, -0.19, 1.02
198, 0.00, 53812.18, 0.00, 0.00, 0.00, 0.00, 0.00, 0.00, 0.01, -0.19, 1.02
199, 0.00, 53814.48, 0.00, 0.00, 0.00, 0.00, 0.00, 0.00, 0.01, -0.19, 1.02
200, 0.00, 53752.12, 0.00, 0.00, 0.00, 0.00, 0.00, 0.00, 0.00, -0.18, 1.01
201, 0.00, 53748.75, 0.00, 0.00, 0.00, 0.00, 0.00, 0.00, 0.00, -0.18, 1.01
202, 0.00, 53815.46, 0.00, 0.00, 0.00, 0.00, 0.00, 0.00, 0.00, -0.18, 1.01
203, 0.00, 53832.23, 0.00, 0.00, 0.00, 0.00, 0.00, 0.00, 0.00, -0.18, 1.01
204, 0.00, 53762.34, 0.00, 0.00, 0.00, 0.00, 0.00, 0.00, 0.00, -0.18, 1.01
205, 0.00, 53745.50, 0.00, 0.00, 0.00, 0.00, 0.00, 0.00, 0.00, -0.18, 1.02
206, 0.00, 53803.84, 0.00, 0.00, 0.00, 0.00, 0.00, 0.00, 0.00, -0.18, 1.02
207, 0.00, 53832.10, 0.00, 0.00, 0.00, 0.00, 0.00, 0.00, 0.00, -0.18, 1.02
208, 0.00, 53776.02, 0.00, 0.00, 0.00, 0.00, 0.00, 0.00, 0.00, -0.18, 1.02
209, 0.00, 53737.91, 0.00, 0.00, 0.00, 0.00, 0.00, 0.00, 0.00, -0.18, 1.02
210, 0.00, 53787.44, 0.00, 0.00, 0.00, 0.00, 0.00, 0.00, 0.01, -0.18, 1.02
211, 0.00, 53829.75, 0.00, 0.00, 0.00, 0.00, 0.00, 0.00, 0.01, -0.18, 1.02
212, 0.00, 53783.95, 0.00, 0.00, 0.00, 0.00, 0.00, 0.00, 0.01, -0.18, 1.02
213, 0.00, 53744.66, 0.00, 0.00, 0.00, 0.00, 0.00, 0.00, 0.01, -0.18, 1.02
214, 0.00, 53789.38, 0.00, 0.00, 0.00, 0.00, 0.00, 0.00, 0.01, -0.18, 1.02
215, 0.00, 53842.91, 0.00, 0.00, 0.00, 0.00, 0.00, 0.00, 0.01, -0.19, 1.02
216, 0.00, 53808.05, 0.00, 0.00, 0.00, 0.00, 0.00, 0.00, 0.01, -0.19, 1.02
217, 0.00, 53745.66, 0.00, 0.00, 0.00, 0.00, 0.00, 0.00, 0.01, -0.19, 1.02
218, 0.00, 53773.85, 0.00, 0.00, 0.00, 0.00, 0.00, 0.00, 0.01, -0.19, 1.02
219, 0.00, 53841.73, 0.00, 0.00, 0.00, 0.00, 0.00, 0.00, 0.01, -0.19, 1.02
220, 0.00, 53822.20, 0.00, 0.00, 0.00, 0.00, 0.00, 0.00, 0.00, -0.19, 1.01
221, 0.00, 53759.25, 0.00, 0.00, 0.00, 0.00, 0.00, 0.00, 0.00, -0.19, 1.01
222, 0.00, 53767.45, 0.00, 0.00, 0.00, 0.00, 0.00, 0.00, 0.00, -0.19, 1.01
223, 0.00, 53829.14, 0.00, 0.00, 0.00, 0.00, 0.00, 0.00, 0.00, -0.19, 1.01
224, 0.00, 53829.77, 0.00, 0.00, 0.00, 0.00, 0.00, 0.00, 0.00, -0.19, 1.01
225, 0.00, 53763.59, 0.00, 0.00, 0.00, 0.00, 0.00, 0.00, 0.01, -0.19, 1.02
226, 0.00, 53755.81, 0.00, 0.00, 0.00, 0.00, 0.00, 0.00, 0.01, -0.19, 1.02
227, 0.00, 53825.19, 0.00, 0.00, 0.00, 0.00, 0.00, 0.00, 0.01, -0.19, 1.02
228, 0.00, 53837.06, 0.00, 0.00, 0.00, 0.00, 0.00, 0.00, 0.01, -0.19, 1.02
229, 0.00, 53772.93, 0.00, 0.00, 0.00, 0.00, 0.00, 0.00, 0.01, -0.19, 1.02
230, 0.00, 53749.53, 0.00, 0.00, 0.00, 0.00, 0.00, 0.00, 0.00, -0.18, 1.01
231, 0.00, 53809.50, 0.00, 0.00, 0.00, 0.00, 0.00, 0.00, 0.00, -0.18, 1.01
232, 0.00, 53839.23, 0.00, 0.00, 0.00, 0.00, 0.00, 0.00, 0.00, -0.18, 1.01
233, 0.00, 53784.93, 0.00, 0.00, 0.00, 0.00, 0.00, 0.00, 0.00, -0.18, 1.01
234, 0.00, 53750.67, 0.00, 0.00, 0.00, 0.00, 0.00, 0.00, 0.00, -0.18, 1.01
235, 0.00, 53808.80, 0.00, 0.00, 0.00, 0.00, 0.00, 0.00, 0.00, -0.18, 1.02
236, 0.00, 53856.62, 0.00, 0.00, 0.00, 0.00, 0.00, 0.00, 0.00, -0.18, 1.02
237, 0.00, 53803.51, 0.00, 0.00, 0.00, 0.00, 0.00, 0.00, 0.00, -0.18, 1.02
238, 0.00, 53748.34, 0.00, 0.00, 0.00, 0.00, 0.00, 0.00, 0.00, -0.18, 1.02
239, 0.00, 53782.96, 0.00, 0.00, 0.00, 0.00, 0.00, 0.00, 0.00, -0.18, 1.02
240, 0.00, 53840.90, 0.00, 0.00, 0.00, 0.00, 0.00, 0.00, 0.00, -0.18, 1.01
241, 0.00, 53815.38, 0.00, 0.00, 0.00, 0.00, 0.00, 0.00, 0.00, -0.18, 1.01
242, 0.00, 53756.46, 0.00, 0.00, 0.00, 0.00, 0.00, 0.00, 0.00, -0.18, 1.01
243, 0.00, 53782.39, 0.00, 0.00, 0.00, 0.00, 0.00, 0.00, 0.00, -0.18, 1.01
244, 0.00, 53849.82, 0.00, 0.00, 0.00, 0.00, 0.00, 0.00, 0.00, -0.18, 1.01
245, 0.00, 53834.60, 0.00, 0.00, 0.00, 0.00, 0.00, 0.00, 0.00, -0.18, 1.01
246, 0.00, 53774.05, 0.00, 0.00, 0.00, 0.00, 0.00, 0.00, 0.00, -0.18, 1.01
247, 0.00, 53775.23, 0.00, 0.00, 0.00, 0.00, 0.00, 0.00, 0.00, -0.18, 1.01
248, 0.00, 53836.72, 0.00, 0.00, 0.00, 0.00, 0.00, 0.00, 0.00, -0.18, 1.01
249, 0.00, 53841.77, 0.00, 0.00, 0.00, 0.00, 0.00, 0.00, 0.00, -0.18, 1.01
250, 0.00, 53787.62, 0.00, 0.00, 0.00, 0.00, 0.00, 0.00, 0.00, -0.17, 1.01
251, 0.00, 53775.25, 0.00, 0.00, 0.00, 0.00, 0.00, 0.00, 0.00, -0.17, 1.01
252, 0.00, 53829.30, 0.00, 0.00, 0.00, 0.00, 0.00, 0.00, 0.00, -0.17, 1.01
253, 0.00, 53854.45, 0.00, 0.00, 0.00, 0.00, 0.00, 0.00, 0.00, -0.17, 1.01
254, 0.00, 53800.63, 0.00, 0.00, 0.00, 0.00, 0.00, 0.00, 0.00, -0.17, 1.01
255, 0.00, 53765.64, 0.00, 0.00, 0.00, 0.00, 0.00, 0.00, 0.01, -0.18, 1.02
0, 0.00, 53824.25, 0.00, 0.00, 0.00, 0.00, 0.00, 0.00, 0.01, -0.18, 1.02
1, 0.00, 53862.81, 0.00, 0.00, 0.00, 0.00, 0.00, 0.00, 0.01, -0.18, 1.02
2, 0.00, 53815.15, 0.00, 0.00, 0.00, 0.00, 0.00, 0.00, 0.01, -0.18, 1.02
3, 0.00, 53757.89, 0.00, 0.00, 0.00, 0.00, 0.00, 0.00, 0.01, -0.18, 1.02
4, 0.00, 53809.43, 0.00, 0.00, 0.00, 0.00, 0.00, 0.00, 0.00, -0.18, 1.01
5, 0.00, 53864.86, 0.00, 0.00, 0.00, 0.00, 0.00, 0.00, 0.00, -0.18, 1.01
6, 0.00, 53822.20, 0.00, 0.00, 0.00, 0.00, 0.00, 0.00, 0.00, -0.18, 1.01
7, 0.00, 53768.33, 0.00, 0.00, 0.00, 0.00, 0.00, 0.00, 0.00, -0.18, 1.01
8, 0.00, 53795.80, 0.00, 0.00, 0.00, 0.00, 0.00, 0.00, 0.00, -0.18, 1.01
9, 0.00, 53851.96, 0.00, 0.00, 0.00, 0.00, 0.00, 0.00, -0.00, -0.18, 1.01
10, 0.00, 53832.72, 0.00, 0.00, 0.00, 0.00, 0.00, 0.00, -0.00, -0.18, 1.01
11, 0.00, 53767.25, 0.00, 0.00, 0.00, 0.00, 0.00, 0.00, -0.00, -0.18, 1.01
12, 0.00, 53781.13, 0.00, 0.00, 0.00, 0.00, 0.00, 0.00, -0.00, -0.18, 1.01
13, 0.00, 53848.19, 0.00, 0.00, 0.00, 0.00, 0.00, 0.00, -0.00, -0.18, 1.01
14, 0.00, 53850.69, 0.00, 0.00, 0.00, 0.00, 0.00, 0.00, 0.00, -0.18, 1.02
15, 0.00, 53776.37, 0.00, 0.00, 0.00, 0.00, 0.00, 0.00, 0.00, -0.18, 1.02
16, 0.00, 53768.08, 0.00, 0.00, 0.00, 0.00, 0.00, 0.00, 0.00, -0.18, 1.02
17, 0.00, 53835.56, 0.00, 0.00, 0.00, 0.00, 0.00, 0.00, 0.00, -0.18, 1.02
18, 0.00, 53853.87, 0.00, 0.00, 0.00, 0.00, 0.00, 0.00, 0.00, -0.18, 1.02
19, 0.00, 53784.26, 0.00, 0.00, 0.00, 0.00, 0.00, 0.00, 0.01, -0.18, 1.02
20, 0.00, 53774.00, 0.00, 0.00, 0.00, 0.00, 0.00, 0.00, 0.01, -0.18, 1.02
21, 0.00, 53832.81, 0.00, 0.00, 0.00, 0.00, 0.00, 0.00, 0.01, -0.18, 1.02
22, 0.00, 53858.96, 0.00, 0.00, 0.00, 0.00, 0.00, 0.00, 0.01, -0.18, 1.02
23, 0.00, 53797.09, 0.00, 0.00, 0.00, 0.00, 0.00, 0.00, 0.01, -0.18, 1.02
24, 0.00, 53760.39, 0.00, 0.00, 0.00, 0.00, 0.00, 0.00, 0.01, -0.18, 1.01
25, 0.00, 53815.51, 0.00, 0.00, 0.00, 0.00, 0.00, 0.00, 0.01, -0.18, 1.01
26, 0.00, 53856.79, 0.00, 0.00, 0.00, 0.00, 0.00, 0.00, 0.01, -0.18, 1.01
27, 0.00, 53814.80, 0.00, 0.00, 0.00, 0.00, 0.00, 0.00, 0.01, -0.18, 1.01
28, 0.00, 53766.36, 0.00, 0.00, 0.00, 0.00, 0.00, 0.00, 0.01, -0.18, 1.01
29, 0.00, 53810.64, 0.00, 0.00, 0.00, 0.00, 0.00, 0.00, 0.01, -0.19, 1.01
30, 0.00, 53863.30, 0.00, 0.00, 0.00, 0.00, 0.00, 0.00, 0.01, -0.19, 1.01
31, 0.00, 53831.67, 0.00, 0.00, 0.00, 0.00, 0.00, 0.00, 0.01, -0.19, 1.01
32, 0.00, 53772.35, 0.00, 0.00, 0.00, 0.00, 0.00, 0.00, 0.01, -0.19, 1.01
33, 0.00, 53801.81, 0.00, 0.00, 0.00, 0.00, 0.00, 0.00, 0.01, -0.19, 1.01
34, 0.00, 53860.68, 0.00, 0.00, 0.00, 0.00, 0.00, 0.00, 0.01, -0.18, 1.02
35, 0.00, 53841.75, 0.00, 0.00, 0.00, 0.00, 0.00, 0.00, 0.01, -0.18, 1.02
36, 0.00, 53783.86, 0.00, 0.00, 0.00, 0.00, 0.00, 0.00, 0.01, -0.18, 1.02
37, 0.00, 53796.69, 0.00, 0.00, 0.00, 0.00, 0.00, 0.00, 0.01, -0.18, 1.02
38, 0.00, 53860.91, 0.00, 0.00, 0.00, 0.00, 0.00, 0.00, 0.01, -0.18, 1.02
39, 0.00, 53856.37, 0.00, 0.00, 0.00, 0.00, 0.00, 0.00, 0.01, -0.18, 1.01
40, 0.00, 53783.82, 0.00, 0.00, 0.00, 0.00, 0.00, 0.00, 0.01, -0.18, 1.01
41, 0.00, 53773.76, 0.00, 0.00, 0.00, 0.00, 0.00, 0.00, 0.01, -0.18, 1.01
42, 0.00, 53849.33, 0.00, 0.00, 0.00, 0.00, 0.00, 0.00, 0.01, -0.18, 1.01
43, 0.00, 53867.14, 0.00, 0.00, 0.00, 0.00, 0.00, 0.00, 0.01, -0.18, 1.01
44, 0.00, 53803.98, 0.00, 0.00, 0.00, 0.00, 0.00, 0.00, 0.01, -0.18, 1.01
45, 0.00, 53774.41, 0.00, 0.00, 0.00, 0.00, 0.00, 0.00, 0.01, -0.18, 1.01
46, 0.00, 53826.08, 0.00, 0.00, 0.00, 0.00, 0.00, 0.00, 0.01, -0.18, 1.01
47, 0.00, 53867.57, 0.00, 0.00, 0.00, 0.00, 0.00, 0.00, 0.01, -0.18, 1.01
48, 0.00, 53812.05, 0.00, 0.00, 0.00, 0.00, 0.00, 0.00, 0.01, -0.18, 1.01
49, 0.00, 53772.59, 0.00, 0.00, 0.00, 0.00, 0.00, 0.00, 0.00, -0.19, 1.01
50, 0.00, 53818.55, 0.00, 0.00, 0.00, 0.00, 0.00, 0.00, 0.00, -0.19, 1.01
51, 0.00, 53860.80, 0.00, 0.00, 0.00, 0.00, 0.00, 0.00, 0.00, -0.19, 1.01
52, 0.00, 53819.11, 0.00, 0.00, 0.00, 0.00, 0.00, 0.00, 0.00, -0.19, 1.01
53, 0.00, 53767.86, 0.00, 0.00, 0.00, 0.00, 0.00, 0.00, 0.00, -0.19, 1.01
54, 0.00, 53805.25, 0.00, 0.00, 0.00, 0.00, 0.00, 0.00, 0.00, -0.19, 1.01
55, 0.00, 53860.13, 0.00, 0.00, 0.00, 0.00, 0.00, 0.00, 0.00, -0.19, 1.01
56, 0.00, 53835.20, 0.00, 0.00, 0.00, 0.00, 0.00, 0.00, 0.00, -0.19, 1.01
57, 0.00, 53772.84, 0.00, 0.00, 0.00, 0.00, 0.00, 0.00, 0.00, -0.19, 1.01
58, 0.00, 53796.60, 0.00, 0.00, 0.00, 0.00, 0.00, 0.00, 0.00, -0.19, 1.01
59, 0.00, 53857.62, 0.00, 0.00, 0.00, 0.00, 0.00, 0.00, 0.00, -0.19, 1.01
60, 0.00, 53845.84, 0.00, 0.00, 0.00, 0.00, 0.00, 0.00, 0.00, -0.19, 1.01
61, 0.00, 53789.11, 0.00, 0.00, 0.00, 0.00, 0.00, 0.00, 0.00, -0.19, 1.01
62, 0.00, 53796.09, 0.00, 0.00, 0.00, 0.00, 0.00, 0.00, 0.00, -0.19, 1.01
63, 0.00, 53854.45, 0.00, 0.00, 0.00, 0.00, 0.00, 0.00, 0.00, -0.19, 1.01
64, 0.00, 53860.50, 0.00, 0.00, 0.00, 0.00, 0.00, 0.00, 0.00, -0.19, 1.01
65, 0.00, 53794.30, 0.00, 0.00, 0.00, 0.00, 0.00, 0.00, 0.00, -0.19, 1.01
66, 0.00, 53777.20, 0.00, 0.00, 0.00, 0.00, 0.00, 0.00, 0.00, -0.19, 1.01
67, 0.00, 53841.28, 0.00, 0.00, 0.00, 0.00, 0.00, 0.00, 0.00, -0.19, 1.01
68, 0.00, 53866.23, 0.00, 0.00, 0.00, 0.00, 0.00, 0.00, 0.00, -0.19, 1.01
69, 0.00, 53805.92, 0.00, 0.00, 0.00, 0.00, 0.00, 0.00, 0.00, -0.19, 1.01
