%OpenBCI Raw EEG Data
%
%Sample Rate = 250.0 Hz
%First Column = SampleIndex
%Other Columns = EEG data in microvolts followed by Accel Data (in G) interleaved with Aux Data
0, 0.00, 65114.36, 0.00, 0.00, 0.00, 0.00, 0.00, 0.00, 0.01, -0.10, 0.51
1, 0.00, 65104.73, 0.00, 0.00, 0.00, 0.00, 0.00, 0.00, 0.01, -0.10, 0.51
2, 0.00, 65104.84, 0.00, 0.00, 0.00, 0.00, 0.00, 0.00, 0.02, -0.20, 1.01
3, 0.00, 65113.89, 0.00, 0.00, 0.00, 0.00, 0.00, 0.00, 0.02, -0.20, 1.01
4, 0.00, 65123.82, 0.00, 0.00, 0.00, 0.00, 0.00, 0.00, 0.02, -0.20, 1.01
5, 0.00, 65116.38, 0.00, 0.00, 0.00, 0.00, 0.00, 0.00, 0.02, -0.20, 1.01
6, 0.00, 65114.70, 0.00, 0.00, 0.00, 0.00, 0.00, 0.00, 0.02, -0.20, 1.01
7, 0.00, 65120.26, 0.00, 0.00, 0.00, 0.00, 0.00, 0.00, 0.02, -0.20, 1.01
8, 0.00, 65109.94, 0.00, 0.00, 0.00, 0.00, 0.00, 0.00, 0.02, -0.20, 1.01
9, 0.00, 65105.49, 0.00, 0.00, 0.00, 0.00, 0.00, 0.00, 0.02, -0.20, 1.01
10, 0.00, 65111.95, 0.00, 0.00, 0.00, 0.00, 0.00, 0.00, 0.02, -0.20, 1.01
11, 0.00, 65101.89, 0.00, 0.00, 0.00, 0.00, 0.00, 0.00, 0.02, -0.20, 1.01
12, 0.00, 65100.88, 0.00, 0.00, 0.00, 0.00, 0.00, 0.00, 0.02, -0.19, 1.01
13, 0.00, 65107.93, 0.00, 0.00, 0.00, 0.00, 0.00, 0.00, 0.02, -0.19, 1.01
14, 0.00, 65116.80, 0.00, 0.00, 0.00, 0.00, 0.00, 0.00, 0.02, -0.19, 1.01
15, 0.00, 65114.45, 0.00, 0.00, 0.00, 0.00, 0.00, 0.00, 0.02, -0.19, 1.01
16, 0.00, 65118.25, 0.00, 0.00, 0.00, 0.00, 0.00, 0.00, 0.02, -0.19, 1.01
17, 0.00, 65093.44, 0.00, 0.00, 0.00, 0.00, 0.00, 0.00, 0.02, -0.19, 1.01
18, 0.00, 65089.39, 0.00, 0.00, 0.00, 0.00, 0.00, 0.00, 0.02, -0.19, 1.01
19, 0.00, 65089.44, 0.00, 0.00, 0.00, 0.00, 0.00, 0.00, 0.02, -0.19, 1.01
20, 0.00, 65094.07, 0.00, 0.00, 0.00, 0.00, 0.00, 0.00, 0.02, -0.19, 1.01
21, 0.00, 65125.92, 0.00, 0.00, 0.00, 0.00, 0.00, 0.00, 0.02, -0.19, 1.01
22, 0.00, 65122.95, 0.00, 0.00, 0.00, 0.00, 0.00, 0.00, 0.02, -0.20, 1.00
23, 0.00, 65114.00, 0.00, 0.00, 0.00, 0.00, 0.00, 0.00, 0.02, -0.20, 1.00
24, 0.00, 65133.29, 0.00, 0.00, 0.00, 0.00, 0.00, 0.00, 0.02, -0.20, 1.00
25, 0.00, 65149.19, 0.00, 0.00, 0.00, 0.00, 0.00, 0.00, 0.02, -0.20, 1.00
26, 0.00, 65143.02, 0.00, 0.00, 0.00, 0.00, 0.00, 0.00, 0.02, -0.20, 1.00
27, 0.00, 65149.07, 0.00, 0.00, 0.00, 0.00, 0.00, 0.00, 0.01, -0.19, 1.02
28, 0.00, 65152.96, 0.00, 0.00, 0.00, 0.00, 0.00, 0.00, 0.01, -0.19, 1.02
29, 0.00, 65158.37, 0.00, 0.00, 0.00, 0.00, 0.00, 0.00, 0.01, -0.19, 1.02
30, 0.00, 65154.46, 0.00, 0.00, 0.00, 0.00, 0.00, 0.00, 0.01, -0.19, 1.02
31, 0.00, 65152.89, 0.00, 0.00, 0.00, 0.00, 0.00, 0.00, 0.01, -0.19, 1.02
32, 0.00, 65157.86, 0.00, 0.00, 0.00, 0.00, 0.00, 0.00, 0.02, -0.20, 1.02
33, 0.00, 65149.61, 0.00, 0.00, 0.00, 0.00, 0.00, 0.00, 0.02, -0.20, 1.02
34, 0.00, 65156.96, 0.00, 0.00, 0.00, 0.00, 0.00, 0.00, 0.02, -0.20, 1.02
35, 0.00, 65146.93, 0.00, 0.00, 0.00, 0.00, 0.00, 0.00, 0.02, -0.20, 1.02
36, 0.00, 65144.89, 0.00, 0.00, 0.00, 0.00, 0.00, 0.00, 0.02, -0.20, 1.02
37, 0.00, 65145.86, 0.00, 0.00, 0.00, 0.00, 0.00, 0.00, 0.02, -0.19, 1.02
38, 0.00, 65141.07, 0.00, 0.00, 0.00, 0.00, 0.00, 0.00, 0.02, -0.19, 1.02
39, 0.00, 65137.65, 0.00, 0.00, 0.00, 0.00, 0.00, 0.00, 0.02, -0.19, 1.02
40, 0.00, 65137.38, 0.00, 0.00, 0.00, 0.00, 0.00, 0.00, 0.02, -0.19, 1.02
41, 0.00, 65136.87, 0.00, 0.00, 0.00, 0.00, 0.00, 0.00, 0.02, -0.19, 1.02
42, 0.00, 65131.15, 0.00, 0.00, 0.00, 0.00, 0.00, 0.00, 0.02, -0.20, 1.01
43, 0.00, 65126.25, 0.00, 0.00, 0.00, 0.00, 0.00, 0.00, 0.02, -0.20, 1.01
44, 0.00, 65129.47, 0.00, 0.00, 0.00, 0.00, 0.00, 0.00, 0.02, -0.20, 1.01
45, 0.00, 65121.67, 0.00, 0.00, 0.00, 0.00, 0.00, 0.00, 0.02, -0.20, 1.01
46, 0.00, 65125.92, 0.00, 0.00, 0.00, 0.00, 0.00, 0.00, 0.02, -0.20, 1.01
47, 0.00, 65128.93, 0.00, 0.00, 0.00, 0.00, 0.00, 0.00, 0.02, -0.20, 1.02
48, 0.00, 65135.42, 0.00, 0.00, 0.00, 0.00, 0.00, 0.00, 0.02, -0.20, 1.02
49, 0.00, 65126.63, 0.00, 0.00, 0.00, 0.00, 0.00, 0.00, 0.02, -0.20, 1.02
50, 0.00, 65128.69, 0.00, 0.00, 0.00, 0.00, 0.00, 0.00, 0.02, -0.20, 1.02
51, 0.00, 65126.52, 0.00, 0.00, 0.00, 0.00, 0.00, 0.00, 0.02, -0.20, 1.02
52, 0.00, 65135.06, 0.00, 0.00, 0.00, 0.00, 0.00, 0.00, 0.02, -0.20, 1.02
53, 0.00, 65149.92, 0.00, 0.00, 0.00, 0.00, 0.00, 0.00, 0.02, -0.20, 1.02
54, 0.00, 65132.18, 0.00, 0.00, 0.00, 0.00, 0.00, 0.00, 0.02, -0.20, 1.02
55, 0.00, 65122.43, 0.00, 0.00, 0.00, 0.00, 0.00, 0.00, 0.02, -0.20, 1.02
56, 0.00, 65118.77, 0.00, 0.00, 0.00, 0.00, 0.00, 0.00, 0.02, -0.20, 1.02
57, 0.00, 65114.90, 0.00, 0.00, 0.00, 0.00, 0.00, 0.00, 0.02, -0.19, 1.02
58, 0.00, 65112.51, 0.00, 0.00, 0.00, 0.00, 0.00, 0.00, 0.02, -0.19, 1.02
59, 0.00, 65112.89, 0.00, 0.00, 0.00, 0.00, 0.00, 0.00, 0.02, -0.19, 1.02
60, 0.00, 65110.47, 0.00, 0.00, 0.00, 0.00, 0.00, 0.00, 0.02, -0.19, 1.02
61, 0.00, 65112.66, 0.00, 0.00, 0.00, 0.00, 0.00, 0.00, 0.02, -0.19, 1.02
62, 0.00, 65105.96, 0.00, 0.00, 0.00, 0.00, 0.00, 0.00, 0.02, -0.20, 1.01
63, 0.00, 65099.68, 0.00, 0.00, 0.00, 0.00, 0.00, 0.00, 0.02, -0.20, 1.01
64, 0.00, 65101.49, 0.00, 0.00, 0.00, 0.00, 0.00, 0.00, 0.02, -0.20, 1.01
65, 0.00, 65086.11, 0.00, 0.00, 0.00, 0.00, 0.00, 0.00, 0.02, -0.20, 1.01
66, 0.00, 65077.10, 0.00, 0.00, 0.00, 0.00, 0.00, 0.00, 0.02, -0.20, 1.01
67, 0.00, 65087.92, 0.00, 0.00, 0.00, 0.00, 0.00, 0.00, 0.01, -0.20, 1.02
68, 0.00, 65085.37, 0.00, 0.00, 0.00, 0.00, 0.00, 0.00, 0.01, -0.20, 1.02
69, 0.00, 65089.08, 0.00, 0.00, 0.00, 0.00, 0.00, 0.00, 0.01, -0.20, 1.02
70, 0.00, 65069.52, 0.00, 0.00, 0.00, 0.00, 0.00, 0.00, 0.01, -0.20, 1.02
71, 0.00, 65047.39, 0.00, 0.00, 0.00, 0.00, 0.00, 0.00, 0.01, -0.20, 1.02
72, 0.00, 65035.30, 0.00, 0.00, 0.00, 0.00, 0.00, 0.00, 0.02, -0.20, 1.02
73, 0.00, 65021.09, 0.00, 0.00, 0.00, 0.00, 0.00, 0.00, 0.02, -0.20, 1.02
74, 0.00, 65012.89, 0.00, 0.00, 0.00, 0.00, 0.00, 0.00, 0.02, -0.20, 1.02
75, 0.00, 65005.78, 0.00, 0.00, 0.00, 0.00, 0.00, 0.00, 0.02, -0.20, 1.02
76, 0.00, 64982.33, 0.00, 0.00, 0.00, 0.00, 0.00, 0.00, 0.02, -0.20, 1.02
77, 0.00, 64961.72, 0.00, 0.00, 0.00, 0.00, 0.00, 0.00, 0.02, -0.19, 1.01
78, 0.00, 64959.66, 0.00, 0.00, 0.00, 0.00, 0.00, 0.00, 0.02, -0.19, 1.01
79, 0.00, 64980.32, 0.00, 0.00, 0.00, 0.00, 0.00, 0.00, 0.02, -0.19, 1.01
80, 0.00, 64977.77, 0.00, 0.00, 0.00, 0.00, 0.00, 0.00, 0.02, -0.19, 1.01
81, 0.00, 64974.30, 0.00, 0.00, 0.00, 0.00, 0.00, 0.00, 0.02, -0.19, 1.01
82, 0.00, 64982.40, 0.00, 0.00, 0.00, 0.00, 0.00, 0.00, 0.02, -0.20, 1.01
83, 0.00, 64968.07, 0.00, 0.00, 0.00, 0.00, 0.00, 0.00, 0.02, -0.20, 1.01
84, 0.00, 64964.14, 0.00, 0.00, 0.00, 0.00, 0.00, 0.00, 0.02, -0.20, 1.01
85, 0.00, 64961.48, 0.00, 0.00, 0.00, 0.00, 0.00, 0.00, 0.02, -0.20, 1.01
86, 0.00, 64970.44, 0.00, 0.00, 0.00, 0.00, 0.00, 0.00, 0.02, -0.20, 1.01
87, 0.00, 64978.26, 0.00, 0.00, 0.00, 0.00, 0.00, 0.00, 0.02, -0.19, 1.01
88, 0.00, 64975.74, 0.00, 0.00, 0.00, 0.00, 0.00, 0.00, 0.02, -0.19, 1.01
89, 0.00, 64975.82, 0.00, 0.00, 0.00, 0.00, 0.00, 0.00, 0.02, -0.19, 1.01
90, 0.00, 64966.08, 0.00, 0.00, 0.00, 0.00, 0.00, 0.00, 0.02, -0.19, 1.01
91, 0.00, 64953.50, 0.00, 0.00, 0.00, 0.00, 0.00, 0.00, 0.02, -0.19, 1.01
92, 0.00, 64970.44, 0.00, 0.00, 0.00, 0.00, 0.00, 0.00, 0.02, -0.20, 1.01
93, 0.00, 64960.22, 0.00, 0.00, 0.00, 0.00, 0.00, 0.00, 0.02, -0.20, 1.01
94, 0.00, 64969.01, 0.00, 0.00, 0.00, 0.00, 0.00, 0.00, 0.02, -0.20, 1.01
95, 0.00, 64975.20, 0.00, 0.00, 0.00, 0.00, 0.00, 0.00, 0.02, -0.20, 1.01
96, 0.00, 64972.41, 0.00, 0.00, 0.00, 0.00, 0.00, 0.00, 0.02, -0.20, 1.01
97, 0.00, 64971.40, 0.00, 0.00, 0.00, 0.00, 0.00, 0.00, 0.02, -0.19, 1.00
98, 0.00, 64982.84, 0.00, 0.00, 0.00, 0.00, 0.00, 0.00, 0.02, -0.19, 1.00
99, 0.00, 64979.85, 0.00, 0.00, 0.00, 0.00, 0.00, 0.00, 0.02, -0.19, 1.00
100, 0.00, 64981.05, 0.00, 0.00, 0.00, 0.00, 0.00, 0.00, 0.02, -0.19, 1.00
101, 0.00, 64951.44, 0.00, 0.00, 0.00, 0.00, 0.00, 0.00, 0.02, -0.19, 1.00
102, 0.00, 64938.45, 0.00, 0.00, 0.00, 0.00, 0.00, 0.00, 0.02, -0.20, 1.02
103, 0.00, 64938.77, 0.00, 0.00, 0.00, 0.00, 0.00, 0.00, 0.02, -0.20, 1.02
104, 0.00, 64918.32, 0.00, 0.00, 0.00, 0.00, 0.00, 0.00, 0.02, -0.20, 1.02
105, 0.00, 64898.36, 0.00, 0.00, 0.00, 0.00, 0.00, 0.00, 0.02, -0.20, 1.02
106, 0.00, 64873.95, 0.00, 0.00, 0.00, 0.00, 0.00, 0.00, 0.02, -0.20, 1.02
107, 0.00, 64869.27, 0.00, 0.00, 0.00, 0.00, 0.00, 0.00, 0.02, -0.20, 1.02
108, 0.00, 64857.18, 0.00, 0.00, 0.00, 0.00, 0.00, 0.00, 0.02, -0.20, 1.02
109, 0.00, 64845.45, 0.00, 0.00, 0.00, 0.00, 0.00, 0.00, 0.02, -0.20, 1.02
110, 0.00, 64832.80, 0.00, 0.00, 0.00, 0.00, 0.00, 0.00, 0.02, -0.20, 1.02
111, 0.00, 64850.07, 0.00, 0.00, 0.00, 0.00, 0.00, 0.00, 0.02, -0.20, 1.02
112, 0.00, 64871.93, 0.00, 0.00, 0.00, 0.00, 0.00, 0.00, 0.02, -0.20, 1.02
113, 0.00, 64860.56, 0.00, 0.00, 0.00, 0.00, 0.00, 0.00, 0.02, -0.20, 1.02
114, 0.00, 64870.28, 0.00, 0.00, 0.00, 0.00, 0.00, 0.00, 0.02, -0.20, 1.02
115, 0.00, 64866.19, 0.00, 0.00, 0.00, 0.00, 0.00, 0.00, 0.02, -0.20, 1.02
116, 0.00, 64860.20, 0.00, 0.00, 0.00, 0.00, 0.00, 0.00, 0.02, -0.20, 1.02
117, 0.00, 64866.48, 0.00, 0.00, 0.00, 0.00, 0.00, 0.00, 0.02, -0.20, 1.02
118, 0.00, 64865.95, 0.00, 0.00, 0.00, 0.00, 0.00, 0.00, 0.02, -0.20, 1.02
119, 0.00, 64859.57, 0.00, 0.00, 0.00, 0.00, 0.00, 0.00, 0.02, -0.20, 1.02
120, 0.00, 64865.43, 0.00, 0.00, 0.00, 0.00, 0.00, 0.00, 0.02, -0.20, 1.02
121, 0.00, 64880.88, 0.00, 0.00, 0.00, 0.00, 0.00, 0.00, 0.02, -0.20, 1.02
122, 0.00, 64888.45, 0.00, 0.00, 0.00, 0.00, 0.00, 0.00, 0.02, -0.20, 1.02
123, 0.00, 64866.19, 0.00, 0.00, 0.00, 0.00, 0.00, 0.00, 0.02, -0.20, 1.02
124, 0.00, 64860.25, 0.00, 0.00, 0.00, 0.00, 0.00, 0.00, 0.02, -0.20, 1.02
125, 0.00, 64863.96, 0.00, 0.00, 0.00, 0.00, 0.00, 0.00, 0.02, -0.20, 1.02
126, 0.00, 64863.66, 0.00, 0.00, 0.00, 0.00, 0.00, 0.00, 0.02, -0.20, 1.02
127, 0.00, 64865.54, 0.00, 0.00, 0.00, 0.00, 0.00, 0.00, 0.02, -0.20, 1.02
128, 0.00, 64866.26, 0.00, 0.00, 0.00, 0.00, 0.00, 0.00, 0.02, -0.19, 1.02
129, 0.00, 64870.39, 0.00, 0.00, 0.00, 0.00, 0.00, 0.00, 0.02, -0.19, 1.02
130, 0.00, 64869.39, 0.00, 0.00, 0.00, 0.00, 0.00, 0.00, 0.02, -0.19, 1.02
131, 0.00, 64863.53, 0.00, 0.00, 0.00, 0.00, 0.00, 0.00, 0.02, -0.19, 1.02
132, 0.00, 64874.80, 0.00, 0.00, 0.00, 0.00, 0.00, 0.00, 0.02, -0.19, 1.02
133, 0.00, 64871.04, 0.00, 0.00, 0.00, 0.00, 0.00, 0.00, 0.02, -0.20, 1.02
134, 0.00, 64865.16, 0.00, 0.00, 0.00, 0.00, 0.00, 0.00, 0.02, -0.20, 1.02
135, 0.00, 64871.09, 0.00, 0.00, 0.00, 0.00, 0.00, 0.00, 0.02, -0.20, 1.02
136, 0.00, 64872.36, 0.00, 0.00, 0.00, 0.00, 0.00, 0.00, 0.02, -0.20, 1.02
137, 0.00, 64879.27, 0.00, 0.00, 0.00, 0.00, 0.00, 0.00, 0.02, -0.20, 1.02
138, 0.00, 64885.52, 0.00, 0.00, 0.00, 0.00, 0.00, 0.00, 0.02, -0.20, 1.02
139, 0.00, 64874.30, 0.00, 0.00, 0.00, 0.00, 0.00, 0.00, 0.02, -0.20, 1.02
140, 0.00, 64851.04, 0.00, 0.00, 0.00, 0.00, 0.00, 0.00, 0.02, -0.20, 1.02
141, 0.00, 64863.40, 0.00, 0.00, 0.00, 0.00, 0.00, 0.00, 0.02, -0.20, 1.02
142, 0.00, 64870.82, 0.00, 0.00, 0.00, 0.00, 0.00, 0.00, 0.02, -0.20, 1.02
143, 0.00, 64866.84, 0.00, 0.00, 0.00, 0.00, 0.00, 0.00, 0.02, -0.20, 1.01
144, 0.00, 64864.74, 0.00, 0.00, 0.00, 0.00, 0.00, 0.00, 0.02, -0.20, 1.01
145, 0.00, 64863.91, 0.00, 0.00, 0.00, 0.00, 0.00, 0.00, 0.02, -0.20, 1.01
146, 0.00, 64858.46, 0.00, 0.00, 0.00, 0.00, 0.00, 0.00, 0.02, -0.20, 1.01
147, 0.00, 64862.26, 0.00, 0.00, 0.00, 0.00, 0.00, 0.00, 0.02, -0.20, 1.01
148, 0.00, 64855.55, 0.00, 0.00, 0.00, 0.00, 0.00, 0.00, 0.02, -0.20, 1.02
149, 0.00, 64862.48, 0.00, 0.00, 0.00, 0.00, 0.00, 0.00, 0.02, -0.20, 1.02
150, 0.00, 64851.15, 0.00, 0.00, 0.00, 0.00, 0.00, 0.00, 0.02, -0.20, 1.02
151, 0.00, 64848.42, 0.00, 0.00, 0.00, 0.00, 0.00, 0.00, 0.02, -0.20, 1.02
152, 0.00, 64849.76, 0.00, 0.00, 0.00, 0.00, 0.00, 0.00, 0.02, -0.20, 1.02
153, 0.00, 64852.82, 0.00, 0.00, 0.00, 0.00, 0.00, 0.00, 0.01, -0.20, 1.02
154, 0.00, 64856.11, 0.00, 0.00, 0.00, 0.00, 0.00, 0.00, 0.01, -0.20, 1.02
155, 0.00, 64865.39, 0.00, 0.00, 0.00, 0.00, 0.00, 0.00, 0.01, -0.20, 1.02
156, 0.00, 64853.50, 0.00, 0.00, 0.00, 0.00, 0.00, 0.00, 0.01, -0.20, 1.02
157, 0.00, 64842.09, 0.00, 0.00, 0.00, 0.00, 0.00, 0.00, 0.01, -0.20, 1.02
158, 0.00, 64842.83, 0.00, 0.00, 0.00, 0.00, 0.00, 0.00, 0.01, -0.20, 1.02
159, 0.00, 64840.31, 0.00, 0.00, 0.00, 0.00, 0.00, 0.00, 0.01, -0.20, 1.02
160, 0.00, 64846.57, 0.00, 0.00, 0.00, 0.00, 0.00, 0.00, 0.01, -0.20, 1.02
161, 0.00, 64857.63, 0.00, 0.00, 0.00, 0.00, 0.00, 0.00, 0.01, -0.20, 1.02
162, 0.00, 64857.36, 0.00, 0.00, 0.00, 0.00, 0.00, 0.00, 0.01, -0.20, 1.02
163, 0.00, 64851.28, 0.00, 0.00, 0.00, 0.00, 0.00, 0.00, 0.02, -0.20, 1.01
164, 0.00, 64854.32, 0.00, 0.00, 0.00, 0.00, 0.00, 0.00, 0.02, -0.20, 1.01
165, 0.00, 64842.09, 0.00, 0.00, 0.00, 0.00, 0.00, 0.00, 0.02, -0.20, 1.01
166, 0.00, 64840.82, 0.00, 0.00, 0.00, 0.00, 0.00, 0.00, 0.02, -0.20, 1.01
167, 0.00, 64850.10, 0.00, 0.00, 0.00, 0.00, 0.00, 0.00, 0.02, -0.20, 1.01
168, 0.00, 64845.76, 0.00, 0.00, 0.00, 0.00, 0.00, 0.00, 0.02, -0.20, 1.01
169, 0.00, 64838.34, 0.00, 0.00, 0.00, 0.00, 0.00, 0.00, 0.02, -0.20, 1.01
170, 0.00, 64831.95, 0.00, 0.00, 0.00, 0.00, 0.00, 0.00, 0.02, -0.20, 1.01
171, 0.00, 64833.11, 0.00, 0.00, 0.00, 0.00, 0.00, 0.00, 0.02, -0.20, 1.01
172, 0.00, 64832.98, 0.00, 0.00, 0.00, 0.00, 0.00, 0.00, 0.02, -0.20, 1.01
173, 0.00, 64829.24, 0.00, 0.00, 0.00, 0.00, 0.00, 0.00, 0.02, -0.20, 1.01
174, 0.00, 64828.37, 0.00, 0.00, 0.00, 0.00, 0.00, 0.00, 0.02, -0.20, 1.01
175, 0.00, 64834.85, 0.00, 0.00, 0.00, 0.00, 0.00, 0.00, 0.02, -0.20, 1.01
176, 0.00, 64821.04, 0.00, 0.00, 0.00, 0.00, 0.00, 0.00, 0.02, -0.20, 1.01
177, 0.00, 64815.27, 0.00, 0.00, 0.00, 0.00, 0.00, 0.00, 0.02, -0.20, 1.01
178, 0.00, 64831.97, 0.00, 0.00, 0.00, 0.00, 0.00, 0.00, 0.02, -0.20, 1.01
179, 0.00, 64832.82, 0.00, 0.00, 0.00, 0.00, 0.00, 0.00, 0.02, -0.20, 1.01
180, 0.00, 64836.73, 0.00, 0.00, 0.00, 0.00, 0.00, 0.00, 0.02, -0.20, 1.01
181, 0.00, 64846.83, 0.00, 0.00, 0.00, 0.00, 0.00, 0.00, 0.02, -0.20, 1.01
182, 0.00, 64848.27, 0.00, 0.00, 0.00, 0.00, 0.00, 0.00, 0.02, -0.20, 1.01
183, 0.00, 64848.29, 0.00, 0.00, 0.00, 0.00, 0.00, 0.00, 0.01, -0.20, 1.00
184, 0.00, 64831.21, 0.00, 0.00, 0.00, 0.00, 0.00, 0.00, 0.01, -0.20, 1.00
185, 0.00, 64823.95, 0.00, 0.00, 0.00, 0.00, 0.00, 0.00, 0.01, -0.20, 1.00
186, 0.00, 64824.10, 0.00, 0.00, 0.00, 0.00, 0.00, 0.00, 0.01, -0.20, 1.00
187, 0.00, 64825.78, 0.00, 0.00, 0.00, 0.00, 0.00, 0.00, 0.01, -0.20, 1.00
188, 0.00, 64835.46, 0.00, 0.00, 0.00, 0.00, 0.00, 0.00, 0.00, -0.20, 1.05
189, 0.00, 64829.58, 0.00, 0.00, 0.00, 0.00, 0.00, 0.00, 0.00, -0.20, 1.05
190, 0.00, 64832.53, 0.00, 0.00, 0.00, 0.00, 0.00, 0.00, 0.00, -0.20, 1.05
191, 0.00, 64835.39, 0.00, 0.00, 0.00, 0.00, 0.00, 0.00, 0.00, -0.20, 1.05
192, 0.00, 64829.31, 0.00, 0.00, 0.00, 0.00, 0.00, 0.00, 0.00, -0.20, 1.05
193, 0.00, 64828.50, 0.00, 0.00, 0.00, 0.00, 0.00, 0.00, 0.00, -0.21, 1.01
194, 0.00, 64832.37, 0.00, 0.00, 0.00, 0.00, 0.00, 0.00, 0.00, -0.21, 1.01
195, 0.00, 64823.50, 0.00, 0.00, 0.00, 0.00, 0.00, 0.00, 0.00, -0.21, 1.01
196, 0.00, 64854.46, 0.00, 0.00, 0.00, 0.00, 0.00, 0.00, 0.00, -0.21, 1.01
197, 0.00, 64846.27, 0.00, 0.00, 0.00, 0.00, 0.00, 0.00, 0.00, -0.21, 1.01
198, 0.00, 64854.66, 0.00, 0.00, 0.00, 0.00, 0.00, 0.00, -0.00, -0.20, 1.01
199, 0.00, 64869.63, 0.00, 0.00, 0.00, 0.00, 0.00, 0.00, -0.00, -0.20, 1.01
200, 0.00, 64857.36, 0.00, 0.00, 0.00, 0.00, 0.00, 0.00, -0.00, -0.20, 1.01
201, 0.00, 64849.34, 0.00, 0.00, 0.00, 0.00, 0.00, 0.00, -0.00, -0.20, 1.01
202, 0.00, 64838.72, 0.00, 0.00, 0.00, 0.00, 0.00, 0.00, -0.00, -0.20, 1.01
203, 0.00, 64837.60, 0.00, 0.00, 0.00, 0.00, 0.00, 0.00, 0.02, -0.20, 1.02
204, 0.00, 64832.11, 0.00, 0.00, 0.00, 0.00, 0.00, 0.00, 0.02, -0.20, 1.02
205, 0.00, 64830.70, 0.00, 0.00, 0.00, 0.00, 0.00, 0.00, 0.02, -0.20, 1.02
206, 0.00, 64835.39, 0.00, 0.00, 0.00, 0.00, 0.00, 0.00, 0.02, -0.20, 1.02
207, 0.00, 64825.38, 0.00, 0.00, 0.00, 0.00, 0.00, 0.00, 0.02, -0.20, 1.02
208, 0.00, 64807.90, 0.00, 0.00, 0.00, 0.00, 0.00, 0.00, 0.02, -0.20, 1.02
209, 0.00, 64801.82, 0.00, 0.00, 0.00, 0.00, 0.00, 0.00, 0.02, -0.20, 1.02
210, 0.00, 64820.13, 0.00, 0.00, 0.00, 0.00, 0.00, 0.00, 0.02, -0.20, 1.02
211, 0.00, 64834.70, 0.00, 0.00, 0.00, 0.00, 0.00, 0.00, 0.02, -0.20, 1.02
212, 0.00, 64840.48, 0.00, 0.00, 0.00, 0.00, 0.00, 0.00, 0.02, -0.20, 1.02
213, 0.00, 64834.81, 0.00, 0.00, 0.00, 0.00, 0.00, 0.00, 0.02, -0.20, 1.01
214, 0.00, 64820.04, 0.00, 0.00, 0.00, 0.00, 0.00, 0.00, 0.02, -0.20, 1.01
215, 0.00, 64829.27, 0.00, 0.00, 0.00, 0.00, 0.00, 0.00, 0.02, -0.20, 1.01
216, 0.00, 64828.44, 0.00, 0.00, 0.00, 0.00, 0.00, 0.00, 0.02, -0.20, 1.01
217, 0.00, 64825.62, 0.00, 0.00, 0.00, 0.00, 0.00, 0.00, 0.02, -0.20, 1.01
218, 0.00, 64825.22, 0.00, 0.00, 0.00, 0.00, 0.00, 0.00, 0.02, -0.19, 1.02
219, 0.00, 64829.04, 0.00, 0.00, 0.00, 0.00, 0.00, 0.00, 0.02, -0.19, 1.02
220, 0.00, 64828.46, 0.00, 0.00, 0.00, 0.00, 0.00, 0.00, 0.02, -0.19, 1.02
221, 0.00, 64833.56, 0.00, 0.00, 0.00, 0.00, 0.00, 0.00, 0.02, -0.19, 1.02
222, 0.00, 64845.58, 0.00, 0.00, 0.00, 0.00, 0.00, 0.00, 0.02, -0.19, 1.02
223, 0.00, 64848.51, 0.00, 0.00, 0.00, 0.00, 0.00, 0.00, 0.02, -0.20, 1.01
224, 0.00, 64828.71, 0.00, 0.00, 0.00, 0.00, 0.00, 0.00, 0.02, -0.20, 1.01
225, 0.00, 64837.22, 0.00, 0.00, 0.00, 0.00, 0.00, 0.00, 0.02, -0.20, 1.01
226, 0.00, 64848.24, 0.00, 0.00, 0.00, 0.00, 0.00, 0.00, 0.02, -0.20, 1.01
227, 0.00, 64835.95, 0.00, 0.00, 0.00, 0.00, 0.00, 0.00, 0.02, -0.20, 1.01
228, 0.00, 64839.82, 0.00, 0.00, 0.00, 0.00, 0.00, 0.00, 0.02, -0.20, 1.02
229, 0.00, 64847.06, 0.00, 0.00, 0.00, 0.00, 0.00, 0.00, 0.02, -0.20, 1.02
230, 0.00, 64848.18, 0.00, 0.00, 0.00, 0.00, 0.00, 0.00, 0.02, -0.20, 1.02
231, 0.00, 64847.21, 0.00, 0.00, 0.00, 0.00, 0.00, 0.00, 0.02, -0.20, 1.02
232, 0.00, 64840.13, 0.00, 0.00, 0.00, 0.00, 0.00, 0.00, 0.02, -0.20, 1.02
233, 0.00, 64827.23, 0.00, 0.00, 0.00, 0.00, 0.00, 0.00, 0.02, -0.20, 1.01
234, 0.00, 64818.56, 0.00, 0.00, 0.00, 0.00, 0.00, 0.00, 0.02, -0.20, 1.01
235, 0.00, 64839.17, 0.00, 0.00, 0.00, 0.00, 0.00, 0.00, 0.02, -0.20, 1.01
236, 0.00, 64840.17, 0.00, 0.00, 0.00, 0.00, 0.00, 0.00, 0.02, -0.20, 1.01
237, 0.00, 64827.50, 0.00, 0.00, 0.00, 0.00, 0.00, 0.00, 0.02, -0.20, 1.01
238, 0.00, 64831.66, 0.00, 0.00, 0.00, 0.00, 0.00, 0.00, 0.02, -0.20, 1.00
239, 0.00, 64831.07, 0.00, 0.00, 0.00, 0.00, 0.00, 0.00, 0.02, -0.20, 1.00
240, 0.00, 64851.10, 0.00, 0.00, 0.00, 0.00, 0.00, 0.00, 0.02, -0.20, 1.00
241, 0.00, 64851.24, 0.00, 0.00, 0.00, 0.00, 0.00, 0.00, 0.02, -0.20, 1.00
242, 0.00, 64834.83, 0.00, 0.00, 0.00, 0.00, 0.00, 0.00, 0.02, -0.20, 1.00
243, 0.00, 64823.92, 0.00, 0.00, 0.00, 0.00, 0.00, 0.00, 0.02, -0.20, 1.01
244, 0.00, 64839.50, 0.00, 0.00, 0.00, 0.00, 0.00, 0.00, 0.02, -0.20, 1.01
245, 0.00, 64843.21, 0.00, 0.00, 0.00, 0.00, 0.00, 0.00, 0.02, -0.20, 1.01
246, 0.00, 64846.97, 0.00, 0.00, 0.00, 0.00, 0.00, 0.00, 0.02, -0.20, 1.01
247, 0.00, 64850.81, 0.00, 0.00, 0.00, 0.00, 0.00, 0.00, 0.02, -0.20, 1.01
248, 0.00, 64847.55, 0.00, 0.00, 0.00, 0.00, 0.00, 0.00, 0.02, -0.20, 1.02
249, 0.00, 64844.06, 0.00, 0.00, 0.00, 0.00, 0.00, 0.00, 0.02, -0.20, 1.02
250, 0.00, 64834.43, 0.00, 0.00, 0.00, 0.00, 0.00, 0.00, 0.02, -0.20, 1.02
251, 0.00, 64848.69, 0.00, 0.00, 0.00, 0.00, 0.00, 0.00, 0.02, -0.20, 1.02
252, 0.00, 64858.70, 0.00, 0.00, 0.00, 0.00, 0.00, 0.00, 0.02, -0.20, 1.02
253, 0.00, 64857.77, 0.00, 0.00, 0.00, 0.00, 0.00, 0.00, 0.02, -0.20, 1.01
254, 0.00, 64854.32, 0.00, 0.00, 0.00, 0.00, 0.00, 0.00, 0.02, -0.20, 1.01
255, 0.00, 64847.13, 0.00, 0.00, 0.00, 0.00, 0.00, 0.00, 0.02, -0.20, 1.01
0, 0.00, 64846.27, 0.00, 0.00, 0.00, 0.00, 0.00, 0.00, 0.02, -0.20, 1.01
1, 0.00, 64836.62, 0.00, 0.00, 0.00, 0.00, 0.00, 0.00, 0.02, -0.20, 1.01
2, 0.00, 64841.87, 0.00, 0.00, 0.00, 0.00, 0.00, 0.00, 0.01, -0.20, 1.02
3, 0.00, 64850.10, 0.00, 0.00, 0.00, 0.00, 0.00, 0.00, 0.01, -0.20, 1.02
4, 0.00, 64865.07, 0.00, 0.00, 0.00, 0.00, 0.00, 0.00, 0.01, -0.20, 1.02
5, 0.00, 64842.65, 0.00, 0.00, 0.00, 0.00, 0.00, 0.00, 0.01, -0.20, 1.02
6, 0.00, 64853.27, 0.00, 0.00, 0.00, 0.00, 0.00, 0.00, 0.01, -0.20, 1.02
7, 0.00, 64875.00, 0.00, 0.00, 0.00, 0.00, 0.00, 0.00, 0.01, -0.19, 1.02
8, 0.00, 64851.08, 0.00, 0.00, 0.00, 0.00, 0.00, 0.00, 0.01, -0.19, 1.02
9, 0.00, 64822.18, 0.00, 0.00, 0.00, 0.00, 0.00, 0.00, 0.01, -0.19, 1.02
10, 0.00, 64823.16, 0.00, 0.00, 0.00, 0.00, 0.00, 0.00, 0.01, -0.19, 1.02
11, 0.00, 64814.09, 0.00, 0.00, 0.00, 0.00, 0.00, 0.00, 0.01, -0.19, 1.02
12, 0.00, 64815.27, 0.00, 0.00, 0.00, 0.00, 0.00, 0.00, 0.02, -0.20, 1.01
13, 0.00, 64830.63, 0.00, 0.00, 0.00, 0.00, 0.00, 0.00, 0.02, -0.20, 1.01
14, 0.00, 64829.73, 0.00, 0.00, 0.00, 0.00, 0.00, 0.00, 0.02, -0.20, 1.01
15, 0.00, 64808.88, 0.00, 0.00, 0.00, 0.00, 0.00, 0.00, 0.02, -0.20, 1.01
16, 0.00, 64768.60, 0.00, 0.00, 0.00, 0.00, 0.00, 0.00, 0.02, -0.20, 1.01
17, 0.00, 64779.04, 0.00, 0.00, 0.00, 0.00, 0.00, 0.00, 0.01, -0.20, 1.00
18, 0.00, 64795.45, 0.00, 0.00, 0.00, 0.00, 0.00, 0.00, 0.01, -0.20, 1.00
19, 0.00, 64795.61, 0.00, 0.00, 0.00, 0.00, 0.00, 0.00, 0.01, -0.20, 1.00
20, 0.00, 64807.27, 0.00, 0.00, 0.00, 0.00, 0.00, 0.00, 0.01, -0.20, 1.00
21, 0.00, 64805.89, 0.00, 0.00, 0.00, 0.00, 0.00, 0.00, 0.01, -0.20, 1.00
22, 0.00, 64794.66, 0.00, 0.00, 0.00, 0.00, 0.00, 0.00, 0.01, -0.20, 1.01
23, 0.00, 64798.15, 0.00, 0.00, 0.00, 0.00, 0.00, 0.00, 0.01, -0.20, 1.01
24, 0.00, 64799.70, 0.00, 0.00, 0.00, 0.00, 0.00, 0.00, 0.01, -0.20, 1.01
25, 0.00, 64805.62, 0.00, 0.00, 0.00, 0.00, 0.00, 0.00, 0.01, -0.20, 1.01
26, 0.00, 64808.57, 0.00, 0.00, 0.00, 0.00, 0.00, 0.00, 0.01, -0.20, 1.01
27, 0.00, 64798.42, 0.00, 0.00, 0.00, 0.00, 0.00, 0.00, 0.01, -0.20, 1.02
28, 0.00, 64814.83, 0.00, 0.00, 0.00, 0.00, 0.00, 0.00, 0.01, -0.20, 1.02
29, 0.00, 64814.38, 0.00, 0.00, 0.00, 0.00, 0.00, 0.00, 0.01, -0.20, 1.02
30, 0.00, 64823.63, 0.00, 0.00, 0.00, 0.00, 0.00, 0.00, 0.01, -0.20, 1.02
31, 0.00, 64829.40, 0.00, 0.00, 0.00, 0.00, 0.00, 0.00, 0.01, -0.20, 1.02
32, 0.00, 64814.51, 0.00, 0.00, 0.00, 0.00, 0.00, 0.00, 0.01, -0.20, 1.02
33, 0.00, 64816.64, 0.00, 0.00, 0.00, 0.00, 0.00, 0.00, 0.01, -0.20, 1.02
34, 0.00, 64827.97, 0.00, 0.00, 0.00, 0.00, 0.00, 0.00, 0.01, -0.20, 1.02
35, 0.00, 64826.83, 0.00, 0.00, 0.00, 0.00, 0.00, 0.00, 0.01, -0.20, 1.02
36, 0.00, 64820.44, 0.00, 0.00, 0.00, 0.00, 0.00, 0.00, 0.01, -0.20, 1.02
37, 0.00, 64804.81, 0.00, 0.00, 0.00, 0.00, 0.00, 0.00, 0.01, -0.20, 1.02
38, 0.00, 64824.59, 0.00, 0.00, 0.00, 0.00, 0.00, 0.00, 0.02, -0.20, 1.03
39, 0.00, 64823.66, 0.00, 0.00, 0.00, 0.00, 0.00, 0.00, 0.02, -0.20, 1.03
40, 0.00, 64823.19, 0.00, 0.00, 0.00, 0.00, 0.00, 0.00, 0.02, -0.20, 1.03
41, 0.00, 64825.69, 0.00, 0.00, 0.00, 0.00, 0.00, 0.00, 0.02, -0.20, 1.03
42, 0.00, 64813.04, 0.00, 0.00, 0.00, 0.00, 0.00, 0.00, 0.02, -0.20, 1.03
43, 0.00, 64830.99, 0.00, 0.00, 0.00, 0.00, 0.00, 0.00, 0.02, -0.20, 1.02
44, 0.00, 64820.17, 0.00, 0.00, 0.00, 0.00, 0.00, 0.00, 0.02, -0.20, 1.02
45, 0.00, 64831.64, 0.00, 0.00, 0.00, 0.00, 0.00, 0.00, 0.02, -0.20, 1.02
46, 0.00, 64831.30, 0.00, 0.00, 0.00, 0.00, 0.00, 0.00, 0.02, -0.20, 1.02
47, 0.00, 64826.41, 0.00, 0.00, 0.00, 0.00, 0.00, 0.00, 0.02, -0.20, 1.02
48, 0.00, 64827.57, 0.00, 0.00, 0.00, 0.00, 0.00, 0.00, 0.01, -0.20, 1.01
49, 0.00, 64848.89, 0.00, 0.00, 0.00, 0.00, 0.00, 0.00, 0.01, -0.20, 1.01
50, 0.00, 64830.81, 0.00, 0.00, 0.00, 0.00, 0.00, 0.00, 0.01, -0.20, 1.01
51, 0.00, 64823.90, 0.00, 0.00, 0.00, 0.00, 0.00, 0.00, 0.01, -0.20, 1.01
52, 0.00, 64826.49, 0.00, 0.00, 0.00, 0.00, 0.00, 0.00, 0.01, -0.20, 1.01
53, 0.00, 64831.75, 0.00, 0.00, 0.00, 0.00, 0.00, 0.00, 0.02, -0.20, 1.01
54, 0.00, 64825.51, 0.00, 0.00, 0.00, 0.00, 0.00, 0.00, 0.02, -0.20, 1.01
55, 0.00, 64845.27, 0.00, 0.00, 0.00, 0.00, 0.00, 0.00, 0.02, -0.20, 1.01
56, 0.00, 64824.66, 0.00, 0.00, 0.00, 0.00, 0.00, 0.00, 0.02, -0.20, 1.01
57, 0.00, 64819.77, 0.00, 0.00, 0.00, 0.00, 0.00, 0.00, 0.02, -0.20, 1.01
58, 0.00, 64832.20, 0.00, 0.00, 0.00, 0.00, 0.00, 0.00, 0.02, -0.20, 1.01
59, 0.00, 64830.25, 0.00, 0.00, 0.00, 0.00, 0.00, 0.00, 0.02, -0.20, 1.01
60, 0.00, 64841.54, 0.00, 0.00, 0.00, 0.00, 0.00, 0.00, 0.02, -0.20, 1.01
61, 0.00, 64843.21, 0.00, 0.00, 0.00, 0.00, 0.00, 0.00, 0.02, -0.20, 1.01
62, 0.00, 64827.66, 0.00, 0.00, 0.00, 0.00, 0.00, 0.00, 0.02, -0.20, 1.01
63, 0.00, 64842.77, 0.00, 0.00, 0.00, 0.00, 0.00, 0.00, 0.02, -0.20, 1.02
64, 0.00, 64854.84, 0.00, 0.00, 0.00, 0.00, 0.00, 0.00, 0.02, -0.20, 1.02
65, 0.00, 64855.06, 0.00, 0.00, 0.00, 0.00, 0.00, 0.00, 0.02, -0.20, 1.02
66, 0.00, 64829.02, 0.00, 0.00, 0.00, 0.00, 0.00, 0.00, 0.02, -0.20, 1.02
67, 0.00, 64826.27, 0.00, 0.00, 0.00, 0.00, 0.00, 0.00, 0.02, -0.20, 1.02
68, 0.00, 64826.85, 0.00, 0.00, 0.00, 0.00, 0.00, 0.00, 0.02, -0.21, 1.01
69, 0.00, 64811.72, 0.00, 0.00, 0.00, 0.00, 0.00, 0.00, 0.02, -0.21, 1.01
70, 0.00, 64820.59, 0.00, 0.00, 0.00, 0.00, 0.00, 0.00, 0.02, -0.21, 1.01
71, 0.00, 64828.62, 0.00, 0.00, 0.00, 0.00, 0.00, 0.00, 0.02, -0.21, 1.01
72, 0.00, 64825.04, 0.00, 0.00, 0.00, 0.00, 0.00, 0.00, 0.02, -0.21, 1.01
73, 0.00, 64826.79, 0.00, 0.00, 0.00, 0.00, 0.00, 0.00, 0.02, -0.20, 1.01
74, 0.00, 64848.29, 0.00, 0.00, 0.00, 0.00, 0.00, 0.00, 0.02, -0.20, 1.01
75, 0.00, 64879.69, 0.00, 0.00, 0.00, 0.00, 0.00, 0.00, 0.02, -0.20, 1.01
76, 0.00, 64872.79, 0.00, 0.00, 0.00, 0.00, 0.00, 0.00, 0.02, -0.20, 1.01
77, 0.00, 64873.23, 0.00, 0.00, 0.00, 0.00, 0.00, 0.00, 0.02, -0.20, 1.01
78, 0.00, 64921.67, 0.00, 0.00, 0.00, 0.00, 0.00, 0.00, 0.02, -0.20, 1.01
79, 0.00, 64907.92, 0.00, 0.00, 0.00, 0.00, 0.00, 0.00, 0.02, -0.20, 1.01
80, 0.00, 64867.15, 0.00, 0.00, 0.00, 0.00, 0.00, 0.00, 0.02, -0.20, 1.01
81, 0.00, 64839.93, 0.00, 0.00, 0.00, 0.00, 0.00, 0.00, 0.02, -0.20, 1.01
82, 0.00, 64782.98, 0.00, 0.00, 0.00, 0.00, 0.00, 0.00, 0.02, -0.20, 1.01
83, 0.00, 64804.21, 0.00, 0.00, 0.00, 0.00, 0.00, 0.00, 0.02, -0.20, 1.02
84, 0.00, 64830.36, 0.00, 0.00, 0.00, 0.00, 0.00, 0.00, 0.02, -0.20, 1.02
85, 0.00, 64835.84, 0.00, 0.00, 0.00, 0.00, 0.00, 0.00, 0.02, -0.20, 1.02
86, 0.00, 64827.21, 0.00, 0.00, 0.00, 0.00, 0.00, 0.00, 0.02, -0.20, 1.02
87, 0.00, 64795.87, 0.00, 0.00, 0.00, 0.00, 0.00, 0.00, 0.02, -0.20, 1.02
88, 0.00, 64812.43, 0.00, 0.00, 0.00, 0.00, 0.00, 0.00, 0.01, -0.19, 1.01
89, 0.00, 64819.14, 0.00, 0.00, 0.00, 0.00, 0.00, 0.00, 0.01, -0.19, 1.01
90, 0.00, 64843.35, 0.00, 0.00, 0.00, 0.00, 0.00, 0.00, 0.01, -0.19, 1.01
91, 0.00, 64833.22, 0.00, 0.00, 0.00, 0.00, 0.00, 0.00, 0.01, -0.19, 1.01
92, 0.00, 64847.64, 0.00, 0.00, 0.00, 0.00, 0.00, 0.00, 0.01, -0.19, 1.01
93, 0.00, 64857.56, 0.00, 0.00, 0.00, 0.00, 0.00, 0.00, 0.02, -0.20, 1.01
94, 0.00, 64847.41, 0.00, 0.00, 0.00, 0.00, 0.00, 0.00, 0.02, -0.20, 1.01
95, 0.00, 64881.84, 0.00, 0.00, 0.00, 0.00, 0.00, 0.00, 0.02, -0.20, 1.01
96, 0.00, 64901.42, 0.00, 0.00, 0.00, 0.00, 0.00, 0.00, 0.02, -0.20, 1.01
97, 0.00, 64873.14, 0.00, 0.00, 0.00, 0.00, 0.00, 0.00, 0.02, -0.20, 1.01
98, 0.00, 64785.64, 0.00, 0.00, 0.00, 0.00, 0.00, 0.00, 0.01, -0.20, 1.02
99, 0.00, 64760.73, 0.00, 0.00, 0.00, 0.00, 0.00, 0.00, 0.01, -0.20, 1.02
100, 0.00, 64783.76, 0.00, 0.00, 0.00, 0.00, 0.00, 0.00, 0.01, -0.20, 1.02
101, 0.00, 64796.12, 0.00, 0.00, 0.00, 0.00, 0.00, 0.00, 0.01, -0.20, 1.02
102, 0.00, 64816.70, 0.00, 0.00, 0.00, 0.00, 0.00, 0.00, 0.01, -0.20, 1.02
103, 0.00, 64834.32, 0.00, 0.00, 0.00, 0.00, 0.00, 0.00, 0.02, -0.21, 1.01
104, 0.00, 64841.02, 0.00, 0.00, 0.00, 0.00, 0.00, 0.00, 0.02, -0.21, 1.01
105, 0.00, 64862.05, 0.00, 0.00, 0.00, 0.00, 0.00, 0.00, 0.02, -0.21, 1.01
106, 0.00, 64891.05, 0.00, 0.00, 0.00, 0.00, 0.00, 0.00, 0.02, -0.21, 1.01
107, 0.00, 64866.23, 0.00, 0.00, 0.00, 0.00, 0.00, 0.00, 0.02, -0.21, 1.01
108, 0.00, 64806.82, 0.00, 0.00, 0.00, 0.00, 0.00, 0.00, 0.02, -0.20, 1.00
109, 0.00, 64743.75, 0.00, 0.00, 0.00, 0.00, 0.00, 0.00, 0.02, -0.20, 1.00
110, 0.00, 64757.85, 0.00, 0.00, 0.00, 0.00, 0.00, 0.00, 0.02, -0.20, 1.00
111, 0.00, 64840.60, 0.00, 0.00, 0.00, 0.00, 0.00, 0.00, 0.02, -0.20, 1.00
112, 0.00, 64881.61, 0.00, 0.00, 0.00, 0.00, 0.00, 0.00, 0.02, -0.20, 1.00
113, 0.00, 64875.24, 0.00, 0.00, 0.00, 0.00, 0.00, 0.00, 0.02, -0.20, 1.01
114, 0.00, 64866.95, 0.00, 0.00, 0.00, 0.00, 0.00, 0.00, 0.02, -0.20, 1.01
115, 0.00, 64775.51, 0.00, 0.00, 0.00, 0.00, 0.00, 0.00, 0.02, -0.20, 1.01
116, 0.00, 64729.04, 0.00, 0.00, 0.00, 0.00, 0.00, 0.00, 0.02, -0.20, 1.01
117, 0.00, 64779.85, 0.00, 0.00, 0.00, 0.00, 0.00, 0.00, 0.02, -0.20, 1.01
118, 0.00, 64835.03, 0.00, 0.00, 0.00, 0.00, 0.00, 0.00, 0.02, -0.20, 1.01
119, 0.00, 64835.68, 0.00, 0.00, 0.00, 0.00, 0.00, 0.00, 0.02, -0.20, 1.01
120, 0.00, 64784.09, 0.00, 0.00, 0.00, 0.00, 0.00, 0.00, 0.02, -0.20, 1.01
121, 0.00, 64754.52, 0.00, 0.00, 0.00, 0.00, 0.00, 0.00, 0.02, -0.20, 1.01
122, 0.00, 64767.44, 0.00, 0.00, 0.00, 0.00, 0.00, 0.00, 0.02, -0.20, 1.01
123, 0.00, 64791.65, 0.00, 0.00, 0.00, 0.00, 0.00, 0.00, 0.02, -0.20, 1.02
124, 0.00, 64854.99, 0.00, 0.00, 0.00, 0.00, 0.00, 0.00, 0.02, -0.20, 1.02
125, 0.00, 64885.95, 0.00, 0.00, 0.00, 0.00, 0.00, 0.00, 0.02, -0.20, 1.02
126, 0.00, 64841.20, 0.00, 0.00, 0.00, 0.00, 0.00, 0.00, 0.02, -0.20, 1.02
127, 0.00, 64744.46, 0.00, 0.00, 0.00, 0.00, 0.00, 0.00, 0.02, -0.20, 1.02
128, 0.00, 64728.75, 0.00, 0.00, 0.00, 0.00, 0.00, 0.00, 0.01, -0.20, 1.02
129, 0.00, 64772.76, 0.00, 0.00, 0.00, 0.00, 0.00, 0.00, 0.01, -0.20, 1.02
130, 0.00, 64800.36, 0.00, 0.00, 0.00, 0.00, 0.00, 0.00, 0.01, -0.20, 1.02
131, 0.00, 64854.03, 0.00, 0.00, 0.00, 0.00, 0.00, 0.00, 0.01, -0.20, 1.02
132, 0.00, 64840.33, 0.00, 0.00, 0.00, 0.00, 0.00, 0.00, 0.01, -0.20, 1.02
133, 0.00, 64790.08, 0.00, 0.00, 0.00, 0.00, 0.00, 0.00, 0.02, -0.19, 1.03
134, 0.00, 64734.54, 0.00, 0.00, 0.00, 0.00, 0.00, 0.00, 0.02, -0.19, 1.03
135, 0.00, 64735.72, 0.00, 0.00, 0.00, 0.00, 0.00, 0.00, 0.02, -0.19, 1.03
136, 0.00, 64743.34, 0.00, 0.00, 0.00, 0.00, 0.00, 0.00, 0.02, -0.19, 1.03
137, 0.00, 64770.10, 0.00, 0.00, 0.00, 0.00, 0.00, 0.00, 0.02, -0.19, 1.03
138, 0.00, 64809.24, 0.00, 0.00, 0.00, 0.00, 0.00, 0.00, 0.02, -0.20, 1.02
139, 0.00, 64815.90, 0.00, 0.00, 0.00, 0.00, 0.00, 0.00, 0.02, -0.20, 1.02
140, 0.00, 64819.36, 0.00, 0.00, 0.00, 0.00, 0.00, 0.00, 0.02, -0.20, 1.02
141, 0.00, 64778.57, 0.00, 0.00, 0.00, 0.00, 0.00, 0.00, 0.02, -0.20, 1.02
142, 0.00, 64735.25, 0.00, 0.00, 0.00, 0.00, 0.00, 0.00, 0.02, -0.20, 1.02
143, 0.00, 64748.93, 0.00, 0.00, 0.00, 0.00, 0.00, 0.00, 0.02, -0.20, 1.02
144, 0.00, 64757.16, 0.00, 0.00, 0.00, 0.00, 0.00, 0.00, 0.02, -0.20, 1.02
145, 0.00, 64751.01, 0.00, 0.00, 0.00, 0.00, 0.00, 0.00, 0.02, -0.20, 1.02
146, 0.00, 64709.75, 0.00, 0.00, 0.00, 0.00, 0.00, 0.00, 0.02, -0.20, 1.02
147, 0.00, 64719.27, 0.00, 0.00, 0.00, 0.00, 0.00, 0.00, 0.02, -0.20, 1.02
148, 0.00, 64758.61, 0.00, 0.00, 0.00, 0.00, 0.00, 0.00, 0.02, -0.21, 1.01
149, 0.00, 64754.01, 0.00, 0.00, 0.00, 0.00, 0.00, 0.00, 0.02, -0.21, 1.01
150, 0.00, 64756.80, 0.00, 0.00, 0.00, 0.00, 0.00, 0.00, 0.02, -0.21, 1.01
151, 0.00, 64751.95, 0.00, 0.00, 0.00, 0.00, 0.00, 0.00, 0.02, -0.21, 1.01
152, 0.00, 64717.82, 0.00, 0.00, 0.00, 0.00, 0.00, 0.00, 0.02, -0.21, 1.01
153, 0.00, 64682.64, 0.00, 0.00, 0.00, 0.00, 0.00, 0.00, 0.02, -0.21, 1.01
154, 0.00, 64704.23, 0.00, 0.00, 0.00, 0.00, 0.00, 0.00, 0.02, -0.21, 1.01
155, 0.00, 64762.77, 0.00, 0.00, 0.00, 0.00, 0.00, 0.00, 0.02, -0.21, 1.01
156, 0.00, 64817.46, 0.00, 0.00, 0.00, 0.00, 0.00, 0.00, 0.02, -0.21, 1.01
157, 0.00, 64796.66, 0.00, 0.00, 0.00, 0.00, 0.00, 0.00, 0.02, -0.21, 1.01
158, 0.00, 64807.14, 0.00, 0.00, 0.00, 0.00, 0.00, 0.00, 0.02, -0.20, 1.02
159, 0.00, 64759.04, 0.00, 0.00, 0.00, 0.00, 0.00, 0.00, 0.02, -0.20, 1.02
160, 0.00, 64698.33, 0.00, 0.00, 0.00, 0.00, 0.00, 0.00, 0.02, -0.20, 1.02
161, 0.00, 64681.45, 0.00, 0.00, 0.00, 0.00, 0.00, 0.00, 0.02, -0.20, 1.02
162, 0.00, 64706.67, 0.00, 0.00, 0.00, 0.00, 0.00, 0.00, 0.02, -0.20, 1.02
163, 0.00, 64724.79, 0.00, 0.00, 0.00, 0.00, 0.00, 0.00, 0.02, -0.20, 1.01
164, 0.00, 64761.34, 0.00, 0.00, 0.00, 0.00, 0.00, 0.00, 0.02, -0.20, 1.01
165, 0.00, 64723.99, 0.00, 0.00, 0.00, 0.00, 0.00, 0.00, 0.02, -0.20, 1.01
166, 0.00, 64680.49, 0.00, 0.00, 0.00, 0.00, 0.00, 0.00, 0.02, -0.20, 1.01
167, 0.00, 64675.15, 0.00, 0.00, 0.00, 0.00, 0.00, 0.00, 0.02, -0.20, 1.01
168, 0.00, 64686.64, 0.00, 0.00, 0.00, 0.00, 0.00, 0.00, 0.01, -0.20, 1.02
169, 0.00, 64697.70, 0.00, 0.00, 0.00, 0.00, 0.00, 0.00, 0.01, -0.20, 1.02
170, 0.00, 64724.12, 0.00, 0.00, 0.00, 0.00, 0.00, 0.00, 0.01, -0.20, 1.02
171, 0.00, 64754.95, 0.00, 0.00, 0.00, 0.00, 0.00, 0.00, 0.01, -0.20, 1.02
172, 0.00, 64763.86, 0.00, 0.00, 0.00, 0.00, 0.00, 0.00, 0.01, -0.20, 1.02
173, 0.00, 64749.29, 0.00, 0.00, 0.00, 0.00, 0.00, 0.00, 0.02, -0.20, 1.01
174, 0.00, 64712.23, 0.00, 0.00, 0.00, 0.00, 0.00, 0.00, 0.02, -0.20, 1.01
175, 0.00, 64692.38, 0.00, 0.00, 0.00, 0.00, 0.00, 0.00, 0.02, -0.20, 1.01
176, 0.00, 64747.44, 0.00, 0.00, 0.00, 0.00, 0.00, 0.00, 0.02, -0.20, 1.01
177, 0.00, 64815.25, 0.00, 0.00, 0.00, 0.00, 0.00, 0.00, 0.02, -0.20, 1.01
178, 0.00, 64861.43, 0.00, 0.00, 0.00, 0.00, 0.00, 0.00, 0.02, -0.20, 1.01
179, 0.00, 64864.25, 0.00, 0.00, 0.00, 0.00, 0.00, 0.00, 0.02, -0.20, 1.01
180, 0.00, 64746.48, 0.00, 0.00, 0.00, 0.00, 0.00, 0.00, 0.02, -0.20, 1.01
181, 0.00, 64747.46, 0.00, 0.00, 0.00, 0.00, 0.00, 0.00, 0.02, -0.20, 1.01
182, 0.00, 64755.13, 0.00, 0.00, 0.00, 0.00, 0.00, 0.00, 0.02, -0.20, 1.01
183, 0.00, 64775.60, 0.00, 0.00, 0.00, 0.00, 0.00, 0.00, 0.01, -0.20, 1.01
184, 0.00, 64799.96, 0.00, 0.00, 0.00, 0.00, 0.00, 0.00, 0.01, -0.20, 1.01
185, 0.00, 64837.27, 0.00, 0.00, 0.00, 0.00, 0.00, 0.00, 0.01, -0.20, 1.01
186, 0.00, 64843.62, 0.00, 0.00, 0.00, 0.00, 0.00, 0.00, 0.01, -0.20, 1.01
187, 0.00, 64793.55, 0.00, 0.00, 0.00, 0.00, 0.00, 0.00, 0.01, -0.20, 1.01
188, 0.00, 64773.77, 0.00, 0.00, 0.00, 0.00, 0.00, 0.00, 0.02, -0.20, 1.02
189, 0.00, 64776.49, 0.00, 0.00, 0.00, 0.00, 0.00, 0.00, 0.02, -0.20, 1.02
190, 0.00, 64791.00, 0.00, 0.00, 0.00, 0.00, 0.00, 0.00, 0.02, -0.20, 1.02
191, 0.00, 64816.82, 0.00, 0.00, 0.00, 0.00, 0.00, 0.00, 0.02, -0.20, 1.02
192, 0.00, 64810.45, 0.00, 0.00, 0.00, 0.00, 0.00, 0.00, 0.02, -0.20, 1.02
193, 0.00, 64807.45, 0.00, 0.00, 0.00, 0.00, 0.00, 0.00, 0.01, -0.20, 1.02
194, 0.00, 64833.42, 0.00, 0.00, 0.00, 0.00, 0.00, 0.00, 0.01, -0.20, 1.02
195, 0.00, 64863.02, 0.00, 0.00, 0.00, 0.00, 0.00, 0.00, 0.01, -0.20, 1.02
196, 0.00, 64866.91, 0.00, 0.00, 0.00, 0.00, 0.00, 0.00, 0.01, -0.20, 1.02
197, 0.00, 64843.17, 0.00, 0.00, 0.00, 0.00, 0.00, 0.00, 0.01, -0.20, 1.02
198, 0.00, 64842.27, 0.00, 0.00, 0.00, 0.00, 0.00, 0.00, 0.01, -0.20, 1.03
199, 0.00, 64861.90, 0.00, 0.00, 0.00, 0.00, 0.00, 0.00, 0.01, -0.20, 1.03
200, 0.00, 64883.07, 0.00, 0.00, 0.00, 0.00, 0.00, 0.00, 0.01, -0.20, 1.03
201, 0.00, 64925.56, 0.00, 0.00, 0.00, 0.00, 0.00, 0.00, 0.01, -0.20, 1.03
202, 0.00, 64962.41, 0.00, 0.00, 0.00, 0.00, 0.00, 0.00, 0.01, -0.20, 1.03
203, 0.00, 64906.31, 0.00, 0.00, 0.00, 0.00, 0.00, 0.00, 0.01, -0.21, 1.01
204, 0.00, 64838.12, 0.00, 0.00, 0.00, 0.00, 0.00, 0.00, 0.01, -0.21, 1.01
205, 0.00, 64911.65, 0.00, 0.00, 0.00, 0.00, 0.00, 0.00, 0.01, -0.21, 1.01
206, 0.00, 64977.32, 0.00, 0.00, 0.00, 0.00, 0.00, 0.00, 0.01, -0.21, 1.01
207, 0.00, 64957.70, 0.00, 0.00, 0.00, 0.00, 0.00, 0.00, 0.01, -0.21, 1.01
208, 0.00, 64852.18, 0.00, 0.00, 0.00, 0.00, 0.00, 0.00, 0.01, -0.20, 1.03
209, 0.00, 64842.39, 0.00, 0.00, 0.00, 0.00, 0.00, 0.00, 0.01, -0.20, 1.03
210, 0.00, 64846.16, 0.00, 0.00, 0.00, 0.00, 0.00, 0.00, 0.01, -0.20, 1.03
211, 0.00, 64870.82, 0.00, 0.00, 0.00, 0.00, 0.00, 0.00, 0.01, -0.20, 1.03
212, 0.00, 64876.02, 0.00, 0.00, 0.00, 0.00, 0.00, 0.00, 0.01, -0.20, 1.03
213, 0.00, 64895.25, 0.00, 0.00, 0.00, 0.00, 0.00, 0.00, 0.01, -0.20, 1.03
214, 0.00, 64892.92, 0.00, 0.00, 0.00, 0.00, 0.00, 0.00, 0.02, -0.20, 1.02
215, 0.00, 64910.38, 0.00, 0.00, 0.00, 0.00, 0.00, 0.00, 0.02, -0.20, 1.02
216, 0.00, 64925.94, 0.00, 0.00, 0.00, 0.00, 0.00, 0.00, 0.02, -0.20, 1.02
217, 0.00, 64932.64, 0.00, 0.00, 0.00, 0.00, 0.00, 0.00, 0.02, -0.20, 1.02
218, 0.00, 64939.50, 0.00, 0.00, 0.00, 0.00, 0.00, 0.00, 0.02, -0.20, 1.02
219, 0.00, 64934.30, 0.00, 0.00, 0.00, 0.00, 0.00, 0.00, 0.01, -0.20, 1.01
220, 0.00, 64919.32, 0.00, 0.00, 0.00, 0.00, 0.00, 0.00, 0.01, -0.20, 1.01
221, 0.00, 64924.46, 0.00, 0.00, 0.00, 0.00, 0.00, 0.00, 0.01, -0.20, 1.01
222, 0.00, 64935.28, 0.00, 0.00, 0.00, 0.00, 0.00, 0.00, 0.01, -0.20, 1.01
223, 0.00, 64964.23, 0.00, 0.00, 0.00, 0.00, 0.00, 0.00, 0.01, -0.20, 1.01
224, 0.00, 64956.56, 0.00, 0.00, 0.00, 0.00, 0.00, 0.00, 0.02, -0.20, 1.01
225, 0.00, 64952.63, 0.00, 0.00, 0.00, 0.00, 0.00, 0.00, 0.02, -0.20, 1.01
226, 0.00, 64958.61, 0.00, 0.00, 0.00, 0.00, 0.00, 0.00, 0.02, -0.20, 1.01
227, 0.00, 64947.11, 0.00, 0.00, 0.00, 0.00, 0.00, 0.00, 0.02, -0.20, 1.01
228, 0.00, 64958.70, 0.00, 0.00, 0.00, 0.00, 0.00, 0.00, 0.02, -0.20, 1.01
229, 0.00, 64994.04, 0.00, 0.00, 0.00, 0.00, 0.00, 0.00, 0.02, -0.20, 1.02
230, 0.00, 65012.64, 0.00, 0.00, 0.00, 0.00, 0.00, 0.00, 0.02, -0.20, 1.02
231, 0.00, 65039.62, 0.00, 0.00, 0.00, 0.00, 0.00, 0.00, 0.02, -0.20, 1.02
232, 0.00, 65049.43, 0.00, 0.00, 0.00, 0.00, 0.00, 0.00, 0.02, -0.20, 1.02
233, 0.00, 65050.08, 0.00, 0.00, 0.00, 0.00, 0.00, 0.00, 0.02, -0.20, 1.02
234, 0.00, 65027.44, 0.00, 0.00, 0.00, 0.00, 0.00, 0.00, 0.02, -0.20, 1.02
235, 0.00, 64966.89, 0.00, 0.00, 0.00, 0.00, 0.00, 0.00, 0.02, -0.20, 1.02
236, 0.00, 64900.95, 0.00, 0.00, 0.00, 0.00, 0.00, 0.00, 0.02, -0.20, 1.02
237, 0.00, 64908.84, 0.00, 0.00, 0.00, 0.00, 0.00, 0.00, 0.02, -0.20, 1.02
238, 0.00, 64941.63, 0.00, 0.00, 0.00, 0.00, 0.00, 0.00, 0.02, -0.20, 1.02
239, 0.00, 64967.11, 0.00, 0.00, 0.00, 0.00, 0.00, 0.00, 0.02, -0.20, 1.02
240, 0.00, 64978.15, 0.00, 0.00, 0.00, 0.00, 0.00, 0.00, 0.02, -0.20, 1.02
241, 0.00, 65002.09, 0.00, 0.00, 0.00, 0.00, 0.00, 0.00, 0.02, -0.20, 1.02
242, 0.00, 64996.14, 0.00, 0.00, 0.00, 0.00, 0.00, 0.00, 0.02, -0.20, 1.02
243, 0.00, 64981.26, 0.00, 0.00, 0.00, 0.00, 0.00, 0.00, 0.02, -0.20, 1.02
244, 0.00, 64987.14, 0.00, 0.00, 0.00, 0.00, 0.00, 0.00, 0.02, -0.20, 1.01
245, 0.00, 64978.82, 0.00, 0.00, 0.00, 0.00, 0.00, 0.00, 0.02, -0.20, 1.01
246, 0.00, 65013.71, 0.00, 0.00, 0.00, 0.00, 0.00, 0.00, 0.02, -0.20, 1.01
247, 0.00, 65035.68, 0.00, 0.00, 0.00, 0.00, 0.00, 0.00, 0.02, -0.20, 1.01
248, 0.00, 65038.77, 0.00, 0.00, 0.00, 0.00, 0.00, 0.00, 0.02, -0.20, 1.01
249, 0.00, 65020.04, 0.00, 0.00, 0.00, 0.00, 0.00, 0.00, 0.02, -0.20, 1.01
250, 0.00, 65047.95, 0.00, 0.00, 0.00, 0.00, 0.00, 0.00, 0.02, -0.20, 1.01
251, 0.00, 65089.33, 0.00, 0.00, 0.00, 0.00, 0.00, 0.00, 0.02, -0.20, 1.01
252, 0.00, 65103.84, 0.00, 0.00, 0.00, 0.00, 0.00, 0.00, 0.02, -0.20, 1.01
253, 0.00, 65127.13, 0.00, 0.00, 0.00, 0.00, 0.00, 0.00, 0.02, -0.20, 1.01
254, 0.00, 65113.02, 0.00, 0.00, 0.00, 0.00, 0.00, 0.00, 0.02, -0.20, 1.01
255, 0.00, 65124.06, 0.00, 0.00, 0.00, 0.00, 0.00, 0.00, 0.02, -0.20, 1.01
0, 0.00, 65094.89, 0.00, 0.00, 0.00, 0.00, 0.00, 0.00, 0.02, -0.20, 1.01
1, 0.00, 65059.04, 0.00, 0.00, 0.00, 0.00, 0.00, 0.00, 0.02, -0.20, 1.01
2, 0.00, 65081.89, 0.00, 0.00, 0.00, 0.00, 0.00, 0.00, 0.02, -0.20, 1.01
3, 0.00, 65109.69, 0.00, 0.00, 0.00, 0.00, 0.00, 0.00, 0.02, -0.20, 1.01
4, 0.00, 65117.27, 0.00, 0.00, 0.00, 0.00, 0.00, 0.00, 0.02, -0.20, 1.01
5, 0.00, 65125.96, 0.00, 0.00, 0.00, 0.00, 0.00, 0.00, 0.02, -0.20, 1.01
6, 0.00, 65120.51, 0.00, 0.00, 0.00, 0.00, 0.00, 0.00, 0.02, -0.20, 1.01
7, 0.00, 65128.46, 0.00, 0.00, 0.00, 0.00, 0.00, 0.00, 0.02, -0.20, 1.01
8, 0.00, 65116.33, 0.00, 0.00, 0.00, 0.00, 0.00, 0.00, 0.01, -0.20, 1.02
9, 0.00, 65116.11, 0.00, 0.00, 0.00, 0.00, 0.00, 0.00, 0.01, -0.20, 1.02
10, 0.00, 65143.73, 0.00, 0.00, 0.00, 0.00, 0.00, 0.00, 0.01, -0.20, 1.02
11, 0.00, 65138.88, 0.00, 0.00, 0.00, 0.00, 0.00, 0.00, 0.01, -0.20, 1.02
12, 0.00, 65112.66, 0.00, 0.00, 0.00, 0.00, 0.00, 0.00, 0.01, -0.20, 1.02
13, 0.00, 65140.60, 0.00, 0.00, 0.00, 0.00, 0.00, 0.00, 0.02, -0.20, 1.01
14, 0.00, 65147.93, 0.00, 0.00, 0.00, 0.00, 0.00, 0.00, 0.02, -0.20, 1.01
15, 0.00, 65148.29, 0.00, 0.00, 0.00, 0.00, 0.00, 0.00, 0.02, -0.20, 1.01
16, 0.00, 65185.38, 0.00, 0.00, 0.00, 0.00, 0.00, 0.00, 0.02, -0.20, 1.01
17, 0.00, 65251.78, 0.00, 0.00, 0.00, 0.00, 0.00, 0.00, 0.02, -0.20, 1.01
18, 0.00, 65248.05, 0.00, 0.00, 0.00, 0.00, 0.00, 0.00, 0.02, -0.19, 1.02
19, 0.00, 65156.29, 0.00, 0.00, 0.00, 0.00, 0.00, 0.00, 0.02, -0.19, 1.02
20, 0.00, 65089.04, 0.00, 0.00, 0.00, 0.00, 0.00, 0.00, 0.02, -0.19, 1.02
21, 0.00, 65120.44, 0.00, 0.00, 0.00, 0.00, 0.00, 0.00, 0.02, -0.19, 1.02
22, 0.00, 65144.52, 0.00, 0.00, 0.00, 0.00, 0.00, 0.00, 0.02, -0.19, 1.02
23, 0.00, 65148.14, 0.00, 0.00, 0.00, 0.00, 0.00, 0.00, 0.03, -0.19, 1.02
24, 0.00, 65172.75, 0.00, 0.00, 0.00, 0.00, 0.00, 0.00, 0.03, -0.19, 1.02
25, 0.00, 65156.54, 0.00, 0.00, 0.00, 0.00, 0.00, 0.00, 0.03, -0.19, 1.02
26, 0.00, 65160.45, 0.00, 0.00, 0.00, 0.00, 0.00, 0.00, 0.03, -0.19, 1.02
27, 0.00, 65161.10, 0.00, 0.00, 0.00, 0.00, 0.00, 0.00, 0.03, -0.19, 1.02
28, 0.00, 65196.53, 0.00, 0.00, 0.00, 0.00, 0.00, 0.00, 0.02, -0.20, 1.01
29, 0.00, 65196.59, 0.00, 0.00, 0.00, 0.00, 0.00, 0.00, 0.02, -0.20, 1.01
30, 0.00, 65191.70, 0.00, 0.00, 0.00, 0.00, 0.00, 0.00, 0.02, -0.20, 1.01
31, 0.00, 65200.73, 0.00, 0.00, 0.00, 0.00, 0.00, 0.00, 0.02, -0.20, 1.01
32, 0.00, 65192.64, 0.00, 0.00, 0.00, 0.00, 0.00, 0.00, 0.02, -0.20, 1.01
33, 0.00, 65192.86, 0.00, 0.00, 0.00, 0.00, 0.00, 0.00, 0.02, -0.20, 1.01
34, 0.00, 65204.08, 0.00, 0.00, 0.00, 0.00, 0.00, 0.00, 0.02, -0.20, 1.01
35, 0.00, 65197.46, 0.00, 0.00, 0.00, 0.00, 0.00, 0.00, 0.02, -0.20, 1.01
36, 0.00, 65203.03, 0.00, 0.00, 0.00, 0.00, 0.00, 0.00, 0.02, -0.20, 1.01
37, 0.00, 65227.06, 0.00, 0.00, 0.00, 0.00, 0.00, 0.00, 0.02, -0.20, 1.01
38, 0.00, 65207.50, 0.00, 0.00, 0.00, 0.00, 0.00, 0.00, 0.02, -0.20, 1.01
39, 0.00, 65190.27, 0.00, 0.00, 0.00, 0.00, 0.00, 0.00, 0.02, -0.20, 1.01
40, 0.00, 65188.14, 0.00, 0.00, 0.00, 0.00, 0.00, 0.00, 0.02, -0.20, 1.01
41, 0.00, 65190.71, 0.00, 0.00, 0.00, 0.00, 0.00, 0.00, 0.02, -0.20, 1.01
42, 0.00, 65190.71, 0.00, 0.00, 0.00, 0.00, 0.00, 0.00, 0.02, -0.20, 1.01
43, 0.00, 65222.59, 0.00, 0.00, 0.00, 0.00, 0.00, 0.00, 0.02, -0.20, 1.02
44, 0.00, 65236.25, 0.00, 0.00, 0.00, 0.00, 0.00, 0.00, 0.02, -0.20, 1.02
45, 0.00, 65221.58, 0.00, 0.00, 0.00, 0.00, 0.00, 0.00, 0.02, -0.20, 1.02
46, 0.00, 65177.19, 0.00, 0.00, 0.00, 0.00, 0.00, 0.00, 0.02, -0.20, 1.02
47, 0.00, 65186.80, 0.00, 0.00, 0.00, 0.00, 0.00, 0.00, 0.02, -0.20, 1.02
48, 0.00, 65180.50, 0.00, 0.00, 0.00, 0.00, 0.00, 0.00, 0.02, -0.20, 1.01
49, 0.00, 65203.93, 0.00, 0.00, 0.00, 0.00, 0.00, 0.00, 0.02, -0.20, 1.01
50, 0.00, 65215.30, 0.00, 0.00, 0.00, 0.00, 0.00, 0.00, 0.02, -0.20, 1.01
51, 0.00, 65222.90, 0.00, 0.00, 0.00, 0.00, 0.00, 0.00, 0.02, -0.20, 1.01
52, 0.00, 65234.26, 0.00, 0.00, 0.00, 0.00, 0.00, 0.00, 0.02, -0.20, 1.01
53, 0.00, 65239.40, 0.00, 0.00, 0.00, 0.00, 0.00, 0.00, 0.02, -0.20, 1.01
54, 0.00, 65234.46, 0.00, 0.00, 0.00, 0.00, 0.00, 0.00, 0.02, -0.20, 1.01
55, 0.00, 65234.21, 0.00, 0.00, 0.00, 0.00, 0.00, 0.00, 0.02, -0.20, 1.01
56, 0.00, 65231.02, 0.00, 0.00, 0.00, 0.00, 0.00, 0.00, 0.02, -0.20, 1.01
57, 0.00, 65228.85, 0.00, 0.00, 0.00, 0.00, 0.00, 0.00, 0.02, -0.20, 1.01
58, 0.00, 65222.75, 0.00, 0.00, 0.00, 0.00, 0.00, 0.00, 0.02, -0.20, 1.02
59, 0.00, 65255.43, 0.00, 0.00, 0.00, 0.00, 0.00, 0.00, 0.02, -0.20, 1.02
60, 0.00, 65259.11, 0.00, 0.00, 0.00, 0.00, 0.00, 0.00, 0.02, -0.20, 1.02
61, 0.00, 65254.75, 0.00, 0.00, 0.00, 0.00, 0.00, 0.00, 0.02, -0.20, 1.02
62, 0.00, 65251.29, 0.00, 0.00, 0.00, 0.00, 0.00, 0.00, 0.02, -0.20, 1.02
63, 0.00, 65278.58, 0.00, 0.00, 0.00, 0.00, 0.00, 0.00, 0.02, -0.19, 1.01
64, 0.00, 65248.96, 0.00, 0.00, 0.00, 0.00, 0.00, 0.00, 0.02, -0.19, 1.01
65, 0.00, 65239.13, 0.00, 0.00, 0.00, 0.00, 0.00, 0.00, 0.02, -0.19, 1.01
66, 0.00, 65261.35, 0.00, 0.00, 0.00, 0.00, 0.00, 0.00, 0.02, -0.19, 1.01
67, 0.00, 65260.92, 0.00, 0.00, 0.00, 0.00, 0.00, 0.00, 0.02, -0.19, 1.01
68, 0.00, 65238.91, 0.00, 0.00, 0.00, 0.00, 0.00, 0.00, 0.02, -0.20, 1.01
69, 0.00, 65211.68, 0.00, 0.00, 0.00, 0.00, 0.00, 0.00, 0.02, -0.20, 1.01
70, 0.00, 65151.42, 0.00, 0.00, 0.00, 0.00, 0.00, 0.00, 0.02, -0.20, 1.01
71, 0.00, 65161.93, 0.00, 0.00, 0.00, 0.00, 0.00, 0.00, 0.02, -0.20, 1.01
72, 0.00, 65171.20, 0.00, 0.00, 0.00, 0.00, 0.00, 0.00, 0.02, -0.20, 1.01
73, 0.00, 65173.39, 0.00, 0.00, 0.00, 0.00, 0.00, 0.00, 0.02, -0.20, 1.01
74, 0.00, 65165.82, 0.00, 0.00, 0.00, 0.00, 0.00, 0.00, 0.02, -0.20, 1.01
75, 0.00, 65160.63, 0.00, 0.00, 0.00, 0.00, 0.00, 0.00, 0.02, -0.20, 1.01
76, 0.00, 65166.93, 0.00, 0.00, 0.00, 0.00, 0.00, 0.00, 0.02, -0.20, 1.01
77, 0.00, 65203.46, 0.00, 0.00, 0.00, 0.00, 0.00, 0.00, 0.02, -0.20, 1.01
78, 0.00, 65190.05, 0.00, 0.00, 0.00, 0.00, 0.00, 0.00, 0.02, -0.20, 1.01
79, 0.00, 65215.13, 0.00, 0.00, 0.00, 0.00, 0.00, 0.00, 0.02, -0.20, 1.01
80, 0.00, 65216.38, 0.00, 0.00, 0.00, 0.00, 0.00, 0.00, 0.02, -0.20, 1.01
81, 0.00, 65201.02, 0.00, 0.00, 0.00, 0.00, 0.00, 0.00, 0.02, -0.20, 1.01
82, 0.00, 65209.20, 0.00, 0.00, 0.00, 0.00, 0.00, 0.00, 0.02, -0.20, 1.01
83, 0.00, 65214.81, 0.00, 0.00, 0.00, 0.00, 0.00, 0.00, 0.02, -0.20, 1.01
84, 0.00, 65202.45, 0.00, 0.00, 0.00, 0.00, 0.00, 0.00, 0.02, -0.20, 1.01
85, 0.00, 65217.14, 0.00, 0.00, 0.00, 0.00, 0.00, 0.00, 0.02, -0.20, 1.01
86, 0.00, 65232.83, 0.00, 0.00, 0.00, 0.00, 0.00, 0.00, 0.02, -0.20, 1.01
87, 0.00, 65228.69, 0.00, 0.00, 0.00, 0.00, 0.00, 0.00, 0.02, -0.20, 1.01
88, 0.00, 65218.50, 0.00, 0.00, 0.00, 0.00, 0.00, 0.00, 0.02, -0.20, 1.01
89, 0.00, 65212.46, 0.00, 0.00, 0.00, 0.00, 0.00, 0.00, 0.02, -0.20, 1.01
90, 0.00, 65252.25, 0.00, 0.00, 0.00, 0.00, 0.00, 0.00, 0.02, -0.20, 1.01
91, 0.00, 65265.88, 0.00, 0.00, 0.00, 0.00, 0.00, 0.00, 0.02, -0.20, 1.01
92, 0.00, 65264.66, 0.00, 0.00, 0.00, 0.00, 0.00, 0.00, 0.02, -0.20, 1.01
93, 0.00, 65227.28, 0.00, 0.00, 0.00, 0.00, 0.00, 0.00, 0.02, -0.20, 1.00
94, 0.00, 65236.07, 0.00, 0.00, 0.00, 0.00, 0.00, 0.00, 0.02, -0.20, 1.00
95, 0.00, 65234.66, 0.00, 0.00, 0.00, 0.00, 0.00, 0.00, 0.02, -0.20, 1.00
96, 0.00, 65209.85, 0.00, 0.00, 0.00, 0.00, 0.00, 0.00, 0.02, -0.20, 1.00
97, 0.00, 65224.42, 0.00, 0.00, 0.00, 0.00, 0.00, 0.00, 0.02, -0.20, 1.00
98, 0.00, 65245.16, 0.00, 0.00, 0.00, 0.00, 0.00, 0.00, 0.02, -0.19, 1.01
99, 0.00, 65244.92, 0.00, 0.00, 0.00, 0.00, 0.00, 0.00, 0.02, -0.19, 1.01
100, 0.00, 65249.23, 0.00, 0.00, 0.00, 0.00, 0.00, 0.00, 0.02, -0.19, 1.01
101, 0.00, 65264.48, 0.00, 0.00, 0.00, 0.00, 0.00, 0.00, 0.02, -0.19, 1.01
102, 0.00, 65281.87, 0.00, 0.00, 0.00, 0.00, 0.00, 0.00, 0.02, -0.19, 1.01
103, 0.00, 65267.63, 0.00, 0.00, 0.00, 0.00, 0.00, 0.00, 0.00, -0.19, 1.00
104, 0.00, 65272.01, 0.00, 0.00, 0.00, 0.00, 0.00, 0.00, 0.00, -0.19, 1.00
105, 0.00, 65266.27, 0.00, 0.00, 0.00, 0.00, 0.00, 0.00, 0.00, -0.19, 1.00
106, 0.00, 65282.69, 0.00, 0.00, 0.00, 0.00, 0.00, 0.00, 0.00, -0.19, 1.00
107, 0.00, 65304.73, 0.00, 0.00, 0.00, 0.00, 0.00, 0.00, 0.00, -0.19, 1.00
108, 0.00, 65297.40, 0.00, 0.00, 0.00, 0.00, 0.00, 0.00, 0.01, -0.20, 1.00
109, 0.00, 65308.09, 0.00, 0.00, 0.00, 0.00, 0.00, 0.00, 0.01, -0.20, 1.00
110, 0.00, 65305.89, 0.00, 0.00, 0.00, 0.00, 0.00, 0.00, 0.01, -0.20, 1.00
111, 0.00, 65299.05, 0.00, 0.00, 0.00, 0.00, 0.00, 0.00, 0.01, -0.20, 1.00
112, 0.00, 65310.83, 0.00, 0.00, 0.00, 0.00, 0.00, 0.00, 0.01, -0.20, 1.00
113, 0.00, 65308.55, 0.00, 0.00, 0.00, 0.00, 0.00, 0.00, 0.01, -0.20, 1.01
114, 0.00, 65284.37, 0.00, 0.00, 0.00, 0.00, 0.00, 0.00, 0.01, -0.20, 1.01
115, 0.00, 65312.78, 0.00, 0.00, 0.00, 0.00, 0.00, 0.00, 0.01, -0.20, 1.01
116, 0.00, 65307.68, 0.00, 0.00, 0.00, 0.00, 0.00, 0.00, 0.01, -0.20, 1.01
117, 0.00, 65296.91, 0.00, 0.00, 0.00, 0.00, 0.00, 0.00, 0.01, -0.20, 1.01
118, 0.00, 65317.47, 0.00, 0.00, 0.00, 0.00, 0.00, 0.00, 0.01, -0.19, 1.01
119, 0.00, 65317.70, 0.00, 0.00, 0.00, 0.00, 0.00, 0.00, 0.01, -0.19, 1.01
120, 0.00, 65276.10, 0.00, 0.00, 0.00, 0.00, 0.00, 0.00, 0.01, -0.19, 1.01
121, 0.00, 65279.56, 0.00, 0.00, 0.00, 0.00, 0.00, 0.00, 0.01, -0.19, 1.01
122, 0.00, 65281.42, 0.00, 0.00, 0.00, 0.00, 0.00, 0.00, 0.01, -0.19, 1.01
123, 0.00, 65262.49, 0.00, 0.00, 0.00, 0.00, 0.00, 0.00, 0.02, -0.20, 1.01
124, 0.00, 65259.83, 0.00, 0.00, 0.00, 0.00, 0.00, 0.00, 0.02, -0.20, 1.01
125, 0.00, 65282.36, 0.00, 0.00, 0.00, 0.00, 0.00, 0.00, 0.02, -0.20, 1.01
126, 0.00, 65276.57, 0.00, 0.00, 0.00, 0.00, 0.00, 0.00, 0.02, -0.20, 1.01
127, 0.00, 65280.28, 0.00, 0.00, 0.00, 0.00, 0.00, 0.00, 0.02, -0.20, 1.01
128, 0.00, 65306.70, 0.00, 0.00, 0.00, 0.00, 0.00, 0.00, 0.01, -0.20, 1.02
129, 0.00, 65293.60, 0.00, 0.00, 0.00, 0.00, 0.00, 0.00, 0.01, -0.20, 1.02
130, 0.00, 65245.54, 0.00, 0.00, 0.00, 0.00, 0.00, 0.00, 0.01, -0.20, 1.02
131, 0.00, 65226.01, 0.00, 0.00, 0.00, 0.00, 0.00, 0.00, 0.01, -0.20, 1.02
132, 0.00, 65196.19, 0.00, 0.00, 0.00, 0.00, 0.00, 0.00, 0.01, -0.20, 1.02
133, 0.00, 65226.25, 0.00, 0.00, 0.00, 0.00, 0.00, 0.00, 0.01, -0.20, 1.02
134, 0.00, 65241.14, 0.00, 0.00, 0.00, 0.00, 0.00, 0.00, 0.02, -0.20, 1.01
135, 0.00, 65195.03, 0.00, 0.00, 0.00, 0.00, 0.00, 0.00, 0.02, -0.20, 1.01
136, 0.00, 65210.95, 0.00, 0.00, 0.00, 0.00, 0.00, 0.00, 0.02, -0.20, 1.01
137, 0.00, 65217.61, 0.00, 0.00, 0.00, 0.00, 0.00, 0.00, 0.02, -0.20, 1.01
138, 0.00, 65207.50, 0.00, 0.00, 0.00, 0.00, 0.00, 0.00, 0.02, -0.20, 1.01
139, 0.00, 65207.59, 0.00, 0.00, 0.00, 0.00, 0.00, 0.00, 0.02, -0.20, 1.01
140, 0.00, 65223.64, 0.00, 0.00, 0.00, 0.00, 0.00, 0.00, 0.02, -0.20, 1.01
141, 0.00, 65235.15, 0.00, 0.00, 0.00, 0.00, 0.00, 0.00, 0.02, -0.20, 1.01
142, 0.00, 65239.66, 0.00, 0.00, 0.00, 0.00, 0.00, 0.00, 0.02, -0.20, 1.01
143, 0.00, 65232.63, 0.00, 0.00, 0.00, 0.00, 0.00, 0.00, 0.02, -0.20, 1.01
144, 0.00, 65230.50, 0.00, 0.00, 0.00, 0.00, 0.00, 0.00, 0.02, -0.20, 1.02
145, 0.00, 65221.58, 0.00, 0.00, 0.00, 0.00, 0.00, 0.00, 0.02, -0.20, 1.02
146, 0.00, 65239.18, 0.00, 0.00, 0.00, 0.00, 0.00, 0.00, 0.02, -0.20, 1.02
147, 0.00, 65266.42, 0.00, 0.00, 0.00, 0.00, 0.00, 0.00, 0.02, -0.20, 1.02
148, 0.00, 65248.11, 0.00, 0.00, 0.00, 0.00, 0.00, 0.00, 0.02, -0.20, 1.02
149, 0.00, 65228.91, 0.00, 0.00, 0.00, 0.00, 0.00, 0.00, 0.01, -0.20, 1.01
150, 0.00, 65222.75, 0.00, 0.00, 0.00, 0.00, 0.00, 0.00, 0.01, -0.20, 1.01
151, 0.00, 65218.12, 0.00, 0.00, 0.00, 0.00, 0.00, 0.00, 0.01, -0.20, 1.01
152, 0.00, 65231.73, 0.00, 0.00, 0.00, 0.00, 0.00, 0.00, 0.01, -0.20, 1.01
153, 0.00, 65239.55, 0.00, 0.00, 0.00, 0.00, 0.00, 0.00, 0.01, -0.20, 1.01
154, 0.00, 65258.35, 0.00, 0.00, 0.00, 0.00, 0.00, 0.00, 0.02, -0.20, 1.02
155, 0.00, 65273.48, 0.00, 0.00, 0.00, 0.00, 0.00, 0.00, 0.02, -0.20, 1.02
156, 0.00, 65275.23, 0.00, 0.00, 0.00, 0.00, 0.00, 0.00, 0.02, -0.20, 1.02
157, 0.00, 65266.22, 0.00, 0.00, 0.00, 0.00, 0.00, 0.00, 0.02, -0.20, 1.02
158, 0.00, 65270.31, 0.00, 0.00, 0.00, 0.00, 0.00, 0.00, 0.02, -0.20, 1.02
159, 0.00, 65245.59, 0.00, 0.00, 0.00, 0.00, 0.00, 0.00, 0.02, -0.20, 1.01
160, 0.00, 65250.39, 0.00, 0.00, 0.00, 0.00, 0.00, 0.00, 0.02, -0.20, 1.01
161, 0.00, 65245.93, 0.00, 0.00, 0.00, 0.00, 0.00, 0.00, 0.02, -0.20, 1.01
162, 0.00, 65235.51, 0.00, 0.00, 0.00, 0.00, 0.00, 0.00, 0.02, -0.20, 1.01
163, 0.00, 65229.34, 0.00, 0.00, 0.00, 0.00, 0.00, 0.00, 0.02, -0.20, 1.01
164, 0.00, 65227.62, 0.00, 0.00, 0.00, 0.00, 0.00, 0.00, 0.02, -0.20, 1.02
165, 0.00, 65235.53, 0.00, 0.00, 0.00, 0.00, 0.00, 0.00, 0.02, -0.20, 1.02
166, 0.00, 65236.76, 0.00, 0.00, 0.00, 0.00, 0.00, 0.00, 0.02, -0.20, 1.02
167, 0.00, 65254.51, 0.00, 0.00, 0.00, 0.00, 0.00, 0.00, 0.02, -0.20, 1.02
168, 0.00, 65279.27, 0.00, 0.00, 0.00, 0.00, 0.00, 0.00, 0.02, -0.20, 1.02
169, 0.00, 65262.62, 0.00, 0.00, 0.00, 0.00, 0.00, 0.00, 0.02, -0.20, 1.02
170, 0.00, 65234.10, 0.00, 0.00, 0.00, 0.00, 0.00, 0.00, 0.02, -0.20, 1.02
171, 0.00, 65171.34, 0.00, 0.00, 0.00, 0.00, 0.00, 0.00, 0.02, -0.20, 1.02
172, 0.00, 65153.19, 0.00, 0.00, 0.00, 0.00, 0.00, 0.00, 0.02, -0.20, 1.02
173, 0.00, 65144.96, 0.00, 0.00, 0.00, 0.00, 0.00, 0.00, 0.02, -0.20, 1.02
174, 0.00, 65109.80, 0.00, 0.00, 0.00, 0.00, 0.00, 0.00, 0.02, -0.20, 1.02
175, 0.00, 65065.68, 0.00, 0.00, 0.00, 0.00, 0.00, 0.00, 0.02, -0.20, 1.02
176, 0.00, 64992.99, 0.00, 0.00, 0.00, 0.00, 0.00, 0.00, 0.02, -0.20, 1.02
177, 0.00, 64962.48, 0.00, 0.00, 0.00, 0.00, 0.00, 0.00, 0.02, -0.20, 1.02
178, 0.00, 64925.80, 0.00, 0.00, 0.00, 0.00, 0.00, 0.00, 0.02, -0.20, 1.02
179, 0.00, 64865.83, 0.00, 0.00, 0.00, 0.00, 0.00, 0.00, 0.02, -0.20, 1.01
180, 0.00, 64888.54, 0.00, 0.00, 0.00, 0.00, 0.00, 0.00, 0.02, -0.20, 1.01
181, 0.00, 64909.75, 0.00, 0.00, 0.00, 0.00, 0.00, 0.00, 0.02, -0.20, 1.01
182, 0.00, 64884.21, 0.00, 0.00, 0.00, 0.00, 0.00, 0.00, 0.02, -0.20, 1.01
183, 0.00, 64872.20, 0.00, 0.00, 0.00, 0.00, 0.00, 0.00, 0.02, -0.20, 1.01
184, 0.00, 64845.16, 0.00, 0.00, 0.00, 0.00, 0.00, 0.00, 0.01, -0.20, 1.02
185, 0.00, 64831.39, 0.00, 0.00, 0.00, 0.00, 0.00, 0.00, 0.01, -0.20, 1.02
186, 0.00, 64797.35, 0.00, 0.00, 0.00, 0.00, 0.00, 0.00, 0.01, -0.20, 1.02
187, 0.00, 64788.14, 0.00, 0.00, 0.00, 0.00, 0.00, 0.00, 0.01, -0.20, 1.02
188, 0.00, 64790.08, 0.00, 0.00, 0.00, 0.00, 0.00, 0.00, 0.01, -0.20, 1.02
189, 0.00, 64761.81, 0.00, 0.00, 0.00, 0.00, 0.00, 0.00, 0.01, -0.20, 1.01
190, 0.00, 64709.48, 0.00, 0.00, 0.00, 0.00, 0.00, 0.00, 0.01, -0.20, 1.01
191, 0.00, 64724.82, 0.00, 0.00, 0.00, 0.00, 0.00, 0.00, 0.01, -0.20, 1.01
192, 0.00, 64736.91, 0.00, 0.00, 0.00, 0.00, 0.00, 0.00, 0.01, -0.20, 1.01
193, 0.00, 64737.51, 0.00, 0.00, 0.00, 0.00, 0.00, 0.00, 0.01, -0.20, 1.01
194, 0.00, 64729.49, 0.00, 0.00, 0.00, 0.00, 0.00, 0.00, 0.02, -0.20, 1.01
195, 0.00, 64715.96, 0.00, 0.00, 0.00, 0.00, 0.00, 0.00, 0.02, -0.20, 1.01
196, 0.00, 64690.04, 0.00, 0.00, 0.00, 0.00, 0.00, 0.00, 0.02, -0.20, 1.01
197, 0.00, 64678.46, 0.00, 0.00, 0.00, 0.00, 0.00, 0.00, 0.02, -0.20, 1.01
198, 0.00, 64674.05, 0.00, 0.00, 0.00, 0.00, 0.00, 0.00, 0.02, -0.20, 1.01
199, 0.00, 64689.07, 0.00, 0.00, 0.00, 0.00, 0.00, 0.00, 0.02, -0.20, 1.01
200, 0.00, 64685.86, 0.00, 0.00, 0.00, 0.00, 0.00, 0.00, 0.02, -0.20, 1.01
201, 0.00, 64704.88, 0.00, 0.00, 0.00, 0.00, 0.00, 0.00, 0.02, -0.20, 1.01
202, 0.00, 64743.50, 0.00, 0.00, 0.00, 0.00, 0.00, 0.00, 0.02, -0.20, 1.01
203, 0.00, 64745.49, 0.00, 0.00, 0.00, 0.00, 0.00, 0.00, 0.02, -0.20, 1.01
204, 0.00, 64717.71, 0.00, 0.00, 0.00, 0.00, 0.00, 0.00, 0.02, -0.20, 1.00
205, 0.00, 64680.94, 0.00, 0.00, 0.00, 0.00, 0.00, 0.00, 0.02, -0.20, 1.00
206, 0.00, 64666.01, 0.00, 0.00, 0.00, 0.00, 0.00, 0.00, 0.02, -0.20, 1.00
207, 0.00, 64682.21, 0.00, 0.00, 0.00, 0.00, 0.00, 0.00, 0.02, -0.20, 1.00
208, 0.00, 64693.86, 0.00, 0.00, 0.00, 0.00, 0.00, 0.00, 0.02, -0.20, 1.00
209, 0.00, 64698.71, 0.00, 0.00, 0.00, 0.00, 0.00, 0.00, 0.02, -0.20, 1.02
210, 0.00, 64694.75, 0.00, 0.00, 0.00, 0.00, 0.00, 0.00, 0.02, -0.20, 1.02
211, 0.00, 64695.54, 0.00, 0.00, 0.00, 0.00, 0.00, 0.00, 0.02, -0.20, 1.02
212, 0.00, 64704.81, 0.00, 0.00, 0.00, 0.00, 0.00, 0.00, 0.02, -0.20, 1.02
213, 0.00, 64710.89, 0.00, 0.00, 0.00, 0.00, 0.00, 0.00, 0.02, -0.20, 1.02
214, 0.00, 64709.57, 0.00, 0.00, 0.00, 0.00, 0.00, 0.00, 0.01, -0.20, 1.01
215, 0.00, 64727.12, 0.00, 0.00, 0.00, 0.00, 0.00, 0.00, 0.01, -0.20, 1.01
216, 0.00, 64729.51, 0.00, 0.00, 0.00, 0.00, 0.00, 0.00, 0.01, -0.20, 1.01
217, 0.00, 64755.66, 0.00, 0.00, 0.00, 0.00, 0.00, 0.00, 0.01, -0.20, 1.01
218, 0.00, 64813.84, 0.00, 0.00, 0.00, 0.00, 0.00, 0.00, 0.01, -0.20, 1.01
219, 0.00, 64798.15, 0.00, 0.00, 0.00, 0.00, 0.00, 0.00, 0.01, -0.20, 1.01
220, 0.00, 64743.90, 0.00, 0.00, 0.00, 0.00, 0.00, 0.00, 0.01, -0.20, 1.01
221, 0.00, 64698.87, 0.00, 0.00, 0.00, 0.00, 0.00, 0.00, 0.01, -0.20, 1.01
222, 0.00, 64659.93, 0.00, 0.00, 0.00, 0.00, 0.00, 0.00, 0.01, -0.20, 1.01
223, 0.00, 64651.55, 0.00, 0.00, 0.00, 0.00, 0.00, 0.00, 0.01, -0.20, 1.01
224, 0.00, 64687.71, 0.00, 0.00, 0.00, 0.00, 0.00, 0.00, 0.02, -0.20, 1.02
225, 0.00, 64694.37, 0.00, 0.00, 0.00, 0.00, 0.00, 0.00, 0.02, -0.20, 1.02
226, 0.00, 64722.45, 0.00, 0.00, 0.00, 0.00, 0.00, 0.00, 0.02, -0.20, 1.02
227, 0.00, 64727.39, 0.00, 0.00, 0.00, 0.00, 0.00, 0.00, 0.02, -0.20, 1.02
228, 0.00, 64710.53, 0.00, 0.00, 0.00, 0.00, 0.00, 0.00, 0.02, -0.20, 1.02
229, 0.00, 64701.14, 0.00, 0.00, 0.00, 0.00, 0.00, 0.00, 0.02, -0.19, 1.02
230, 0.00, 64710.69, 0.00, 0.00, 0.00, 0.00, 0.00, 0.00, 0.02, -0.19, 1.02
231, 0.00, 64749.22, 0.00, 0.00, 0.00, 0.00, 0.00, 0.00, 0.02, -0.19, 1.02
232, 0.00, 64729.71, 0.00, 0.00, 0.00, 0.00, 0.00, 0.00, 0.02, -0.19, 1.02
233, 0.00, 64677.77, 0.00, 0.00, 0.00, 0.00, 0.00, 0.00, 0.02, -0.19, 1.02
234, 0.00, 64659.64, 0.00, 0.00, 0.00, 0.00, 0.00, 0.00, 0.02, -0.20, 1.02
235, 0.00, 64656.98, 0.00, 0.00, 0.00, 0.00, 0.00, 0.00, 0.02, -0.20, 1.02
236, 0.00, 64643.32, 0.00, 0.00, 0.00, 0.00, 0.00, 0.00, 0.02, -0.20, 1.02
237, 0.00, 64653.13, 0.00, 0.00, 0.00, 0.00, 0.00, 0.00, 0.02, -0.20, 1.02
238, 0.00, 64654.61, 0.00, 0.00, 0.00, 0.00, 0.00, 0.00, 0.02, -0.20, 1.02
239, 0.00, 64680.61, 0.00, 0.00, 0.00, 0.00, 0.00, 0.00, 0.02, -0.20, 1.03
240, 0.00, 64699.43, 0.00, 0.00, 0.00, 0.00, 0.00, 0.00, 0.02, -0.20, 1.03
241, 0.00, 64685.61, 0.00, 0.00, 0.00, 0.00, 0.00, 0.00, 0.02, -0.20, 1.03
242, 0.00, 64682.62, 0.00, 0.00, 0.00, 0.00, 0.00, 0.00, 0.02, -0.20, 1.03
243, 0.00, 64671.26, 0.00, 0.00, 0.00, 0.00, 0.00, 0.00, 0.02, -0.20, 1.03
244, 0.00, 64684.85, 0.00, 0.00, 0.00, 0.00, 0.00, 0.00, 0.02, -0.20, 1.02
245, 0.00, 64652.17, 0.00, 0.00, 0.00, 0.00, 0.00, 0.00, 0.02, -0.20, 1.02
246, 0.00, 64651.12, 0.00, 0.00, 0.00, 0.00, 0.00, 0.00, 0.02, -0.20, 1.02
247, 0.00, 64676.96, 0.00, 0.00, 0.00, 0.00, 0.00, 0.00, 0.02, -0.20, 1.02
248, 0.00, 64704.05, 0.00, 0.00, 0.00, 0.00, 0.00, 0.00, 0.02, -0.20, 1.02
249, 0.00, 64660.89, 0.00, 0.00, 0.00, 0.00, 0.00, 0.00, 0.02, -0.20, 1.01
250, 0.00, 64617.71, 0.00, 0.00, 0.00, 0.00, 0.00, 0.00, 0.02, -0.20, 1.01
251, 0.00, 64574.05, 0.00, 0.00, 0.00, 0.00, 0.00, 0.00, 0.02, -0.20, 1.01
252, 0.00, 64585.99, 0.00, 0.00, 0.00, 0.00, 0.00, 0.00, 0.02, -0.20, 1.01
253, 0.00, 64598.26, 0.00, 0.00, 0.00, 0.00, 0.00, 0.00, 0.02, -0.20, 1.01
254, 0.00, 64595.94, 0.00, 0.00, 0.00, 0.00, 0.00, 0.00, 0.02, -0.20, 1.00
255, 0.00, 64603.42, 0.00, 0.00, 0.00, 0.00, 0.00, 0.00, 0.02, -0.20, 1.00
0, 0.00, 64634.02, 0.00, 0.00, 0.00, 0.00, 0.00, 0.00, 0.02, -0.20, 1.00
1, 0.00, 64633.38, 0.00, 0.00, 0.00, 0.00, 0.00, 0.00, 0.02, -0.20, 1.00
2, 0.00, 64617.08, 0.00, 0.00, 0.00, 0.00, 0.00, 0.00, 0.02, -0.20, 1.00
3, 0.00, 64587.02, 0.00, 0.00, 0.00, 0.00, 0.00, 0.00, 0.02, -0.19, 1.01
4, 0.00, 64587.02, 0.00, 0.00, 0.00, 0.00, 0.00, 0.00, 0.02, -0.19, 1.01
5, 0.00, 64562.59, 0.00, 0.00, 0.00, 0.00, 0.00, 0.00, 0.02, -0.19, 1.01
6, 0.00, 64560.24, 0.00, 0.00, 0.00, 0.00, 0.00, 0.00, 0.02, -0.19, 1.01
7, 0.00, 64554.41, 0.00, 0.00, 0.00, 0.00, 0.00, 0.00, 0.02, -0.19, 1.01
8, 0.00, 64541.24, 0.00, 0.00, 0.00, 0.00, 0.00, 0.00, 0.02, -0.19, 1.01
9, 0.00, 64545.55, 0.00, 0.00, 0.00, 0.00, 0.00, 0.00, 0.02, -0.19, 1.01
10, 0.00, 64566.50, 0.00, 0.00, 0.00, 0.00, 0.00, 0.00, 0.02, -0.19, 1.01
11, 0.00, 64552.55, 0.00, 0.00, 0.00, 0.00, 0.00, 0.00, 0.02, -0.19, 1.01
12, 0.00, 64541.40, 0.00, 0.00, 0.00, 0.00, 0.00, 0.00, 0.02, -0.19, 1.01
13, 0.00, 64560.20, 0.00, 0.00, 0.00, 0.00, 0.00, 0.00, 0.02, -0.20, 1.01
14, 0.00, 64540.39, 0.00, 0.00, 0.00, 0.00, 0.00, 0.00, 0.02, -0.20, 1.01
15, 0.00, 64540.75, 0.00, 0.00, 0.00, 0.00, 0.00, 0.00, 0.02, -0.20, 1.01
16, 0.00, 64561.80, 0.00, 0.00, 0.00, 0.00, 0.00, 0.00, 0.02, -0.20, 1.01
17, 0.00, 64534.80, 0.00, 0.00, 0.00, 0.00, 0.00, 0.00, 0.02, -0.20, 1.01
18, 0.00, 64517.77, 0.00, 0.00, 0.00, 0.00, 0.00, 0.00, 0.02, -0.20, 1.01
19, 0.00, 64510.53, 0.00, 0.00, 0.00, 0.00, 0.00, 0.00, 0.02, -0.20, 1.01
20, 0.00, 64505.59, 0.00, 0.00, 0.00, 0.00, 0.00, 0.00, 0.02, -0.20, 1.01
21, 0.00, 64521.39, 0.00, 0.00, 0.00, 0.00, 0.00, 0.00, 0.02, -0.20, 1.01
22, 0.00, 64503.36, 0.00, 0.00, 0.00, 0.00, 0.00, 0.00, 0.02, -0.20, 1.01
23, 0.00, 64469.27, 0.00, 0.00, 0.00, 0.00, 0.00, 0.00, 0.02, -0.20, 1.02
24, 0.00, 64482.99, 0.00, 0.00, 0.00, 0.00, 0.00, 0.00, 0.02, -0.20, 1.02
25, 0.00, 64475.37, 0.00, 0.00, 0.00, 0.00, 0.00, 0.00, 0.02, -0.20, 1.02
26, 0.00, 64454.29, 0.00, 0.00, 0.00, 0.00, 0.00, 0.00, 0.02, -0.20, 1.02
27, 0.00, 64450.79, 0.00, 0.00, 0.00, 0.00, 0.00, 0.00, 0.02, -0.20, 1.02
28, 0.00, 64439.61, 0.00, 0.00, 0.00, 0.00, 0.00, 0.00, 0.02, -0.20, 1.01
29, 0.00, 64469.56, 0.00, 0.00, 0.00, 0.00, 0.00, 0.00, 0.02, -0.20, 1.01
30, 0.00, 64471.10, 0.00, 0.00, 0.00, 0.00, 0.00, 0.00, 0.02, -0.20, 1.01
31, 0.00, 64449.98, 0.00, 0.00, 0.00, 0.00, 0.00, 0.00, 0.02, -0.20, 1.01
32, 0.00, 64464.82, 0.00, 0.00, 0.00, 0.00, 0.00, 0.00, 0.02, -0.20, 1.01
33, 0.00, 64481.20, 0.00, 0.00, 0.00, 0.00, 0.00, 0.00, 0.02, -0.20, 1.01
34, 0.00, 64483.20, 0.00, 0.00, 0.00, 0.00, 0.00, 0.00, 0.02, -0.20, 1.01
35, 0.00, 64477.83, 0.00, 0.00, 0.00, 0.00, 0.00, 0.00, 0.02, -0.20, 1.01
36, 0.00, 64477.49, 0.00, 0.00, 0.00, 0.00, 0.00, 0.00, 0.02, -0.20, 1.01
37, 0.00, 64462.18, 0.00, 0.00, 0.00, 0.00, 0.00, 0.00, 0.02, -0.20, 1.01
38, 0.00, 64435.18, 0.00, 0.00, 0.00, 0.00, 0.00, 0.00, 0.01, -0.20, 1.02
39, 0.00, 64421.88, 0.00, 0.00, 0.00, 0.00, 0.00, 0.00, 0.01, -0.20, 1.02
40, 0.00, 64444.77, 0.00, 0.00, 0.00, 0.00, 0.00, 0.00, 0.01, -0.20, 1.02
41, 0.00, 64426.06, 0.00, 0.00, 0.00, 0.00, 0.00, 0.00, 0.01, -0.20, 1.02
42, 0.00, 64446.18, 0.00, 0.00, 0.00, 0.00, 0.00, 0.00, 0.01, -0.20, 1.02
43, 0.00, 64442.11, 0.00, 0.00, 0.00, 0.00, 0.00, 0.00, 0.01, -0.20, 1.01
44, 0.00, 64403.93, 0.00, 0.00, 0.00, 0.00, 0.00, 0.00, 0.01, -0.20, 1.01
45, 0.00, 64406.57, 0.00, 0.00, 0.00, 0.00, 0.00, 0.00, 0.01, -0.20, 1.01
46, 0.00, 64411.51, 0.00, 0.00, 0.00, 0.00, 0.00, 0.00, 0.01, -0.20, 1.01
47, 0.00, 64420.00, 0.00, 0.00, 0.00, 0.00, 0.00, 0.00, 0.01, -0.20, 1.01
48, 0.00, 64437.20, 0.00, 0.00, 0.00, 0.00, 0.00, 0.00, 0.02, -0.20, 1.01
49, 0.00, 64458.50, 0.00, 0.00, 0.00, 0.00, 0.00, 0.00, 0.02, -0.20, 1.01
50, 0.00, 64432.52, 0.00, 0.00, 0.00, 0.00, 0.00, 0.00, 0.02, -0.20, 1.01
51, 0.00, 64440.73, 0.00, 0.00, 0.00, 0.00, 0.00, 0.00, 0.02, -0.20, 1.01
52, 0.00, 64424.23, 0.00, 0.00, 0.00, 0.00, 0.00, 0.00, 0.02, -0.20, 1.01
53, 0.00, 64449.31, 0.00, 0.00, 0.00, 0.00, 0.00, 0.00, 0.02, -0.20, 1.01
54, 0.00, 64459.10, 0.00, 0.00, 0.00, 0.00, 0.00, 0.00, 0.02, -0.20, 1.02
55, 0.00, 64428.97, 0.00, 0.00, 0.00, 0.00, 0.00, 0.00, 0.02, -0.20, 1.02
56, 0.00, 64428.43, 0.00, 0.00, 0.00, 0.00, 0.00, 0.00, 0.02, -0.20, 1.02
57, 0.00, 64468.06, 0.00, 0.00, 0.00, 0.00, 0.00, 0.00, 0.02, -0.20, 1.02
58, 0.00, 64503.85, 0.00, 0.00, 0.00, 0.00, 0.00, 0.00, 0.02, -0.20, 1.02
59, 0.00, 64455.34, 0.00, 0.00, 0.00, 0.00, 0.00, 0.00, 0.02, -0.20, 1.02
60, 0.00, 64459.72, 0.00, 0.00, 0.00, 0.00, 0.00, 0.00, 0.02, -0.20, 1.02
61, 0.00, 64468.71, 0.00, 0.00, 0.00, 0.00, 0.00, 0.00, 0.02, -0.20, 1.02
62, 0.00, 64477.32, 0.00, 0.00, 0.00, 0.00, 0.00, 0.00, 0.02, -0.20, 1.02
63, 0.00, 64504.09, 0.00, 0.00, 0.00, 0.00, 0.00, 0.00, 0.02, -0.20, 1.02
64, 0.00, 64489.34, 0.00, 0.00, 0.00, 0.00, 0.00, 0.00, 0.02, -0.20, 1.01
65, 0.00, 64493.14, 0.00, 0.00, 0.00, 0.00, 0.00, 0.00, 0.02, -0.20, 1.01
66, 0.00, 64511.02, 0.00, 0.00, 0.00, 0.00, 0.00, 0.00, 0.02, -0.20, 1.01
67, 0.00, 64493.43, 0.00, 0.00, 0.00, 0.00, 0.00, 0.00, 0.02, -0.20, 1.01
68, 0.00, 64502.91, 0.00, 0.00, 0.00, 0.00, 0.00, 0.00, 0.02, -0.20, 1.01
69, 0.00, 64527.23, 0.00, 0.00, 0.00, 0.00, 0.00, 0.00, 0.02, -0.20, 1.01
70, 0.00, 64561.52, 0.00, 0.00, 0.00, 0.00, 0.00, 0.00, 0.02, -0.20, 1.01
71, 0.00, 64584.89, 0.00, 0.00, 0.00, 0.00, 0.00, 0.00, 0.02, -0.20, 1.01
72, 0.00, 64584.22, 0.00, 0.00, 0.00, 0.00, 0.00, 0.00, 0.02, -0.20, 1.01
73, 0.00, 64610.73, 0.00, 0.00, 0.00, 0.00, 0.00, 0.00, 0.02, -0.20, 1.01
74, 0.00, 64633.55, 0.00, 0.00, 0.00, 0.00, 0.00, 0.00, 0.02, -0.20, 1.02
75, 0.00, 64665.61, 0.00, 0.00, 0.00, 0.00, 0.00, 0.00, 0.02, -0.20, 1.02
76, 0.00, 64703.92, 0.00, 0.00, 0.00, 0.00, 0.00, 0.00, 0.02, -0.20, 1.02
77, 0.00, 64693.79, 0.00, 0.00, 0.00, 0.00, 0.00, 0.00, 0.02, -0.20, 1.02
78, 0.00, 64720.64, 0.00, 0.00, 0.00, 0.00, 0.00, 0.00, 0.02, -0.20, 1.02
79, 0.00, 64752.75, 0.00, 0.00, 0.00, 0.00, 0.00, 0.00, 0.01, -0.20, 1.01
80, 0.00, 64802.46, 0.00, 0.00, 0.00, 0.00, 0.00, 0.00, 0.01, -0.20, 1.01
81, 0.00, 64829.54, 0.00, 0.00, 0.00, 0.00, 0.00, 0.00, 0.01, -0.20, 1.01
82, 0.00, 64854.90, 0.00, 0.00, 0.00, 0.00, 0.00, 0.00, 0.01, -0.20, 1.01
83, 0.00, 64870.95, 0.00, 0.00, 0.00, 0.00, 0.00, 0.00, 0.01, -0.20, 1.01
84, 0.00, 64878.08, 0.00, 0.00, 0.00, 0.00, 0.00, 0.00, 0.02, -0.19, 1.02
85, 0.00, 64902.16, 0.00, 0.00, 0.00, 0.00, 0.00, 0.00, 0.02, -0.19, 1.02
86, 0.00, 64932.08, 0.00, 0.00, 0.00, 0.00, 0.00, 0.00, 0.02, -0.19, 1.02
87, 0.00, 64953.03, 0.00, 0.00, 0.00, 0.00, 0.00, 0.00, 0.02, -0.19, 1.02
88, 0.00, 64961.05, 0.00, 0.00, 0.00, 0.00, 0.00, 0.00, 0.02, -0.19, 1.02
89, 0.00, 64972.74, 0.00, 0.00, 0.00, 0.00, 0.00, 0.00, 0.02, -0.20, 1.02
90, 0.00, 64987.20, 0.00, 0.00, 0.00, 0.00, 0.00, 0.00, 0.02, -0.20, 1.02
91, 0.00, 64994.09, 0.00, 0.00, 0.00, 0.00, 0.00, 0.00, 0.02, -0.20, 1.02
92, 0.00, 65007.50, 0.00, 0.00, 0.00, 0.00, 0.00, 0.00, 0.02, -0.20, 1.02
93, 0.00, 65027.41, 0.00, 0.00, 0.00, 0.00, 0.00, 0.00, 0.02, -0.20, 1.02
94, 0.00, 65041.25, 0.00, 0.00, 0.00, 0.00, 0.00, 0.00, 0.02, -0.20, 1.01
95, 0.00, 65043.91, 0.00, 0.00, 0.00, 0.00, 0.00, 0.00, 0.02, -0.20, 1.01
96, 0.00, 65033.52, 0.00, 0.00, 0.00, 0.00, 0.00, 0.00, 0.02, -0.20, 1.01
97, 0.00, 65064.72, 0.00, 0.00, 0.00, 0.00, 0.00, 0.00, 0.02, -0.20, 1.01
98, 0.00, 65085.73, 0.00, 0.00, 0.00, 0.00, 0.00, 0.00, 0.02, -0.20, 1.01
99, 0.00, 65089.24, 0.00, 0.00, 0.00, 0.00, 0.00, 0.00, 0.02, -0.20, 1.01
100, 0.00, 65100.55, 0.00, 0.00, 0.00, 0.00, 0.00, 0.00, 0.02, -0.20, 1.01
101, 0.00, 65075.40, 0.00, 0.00, 0.00, 0.00, 0.00, 0.00, 0.02, -0.20, 1.01
102, 0.00, 65088.95, 0.00, 0.00, 0.00, 0.00, 0.00, 0.00, 0.02, -0.20, 1.01
103, 0.00, 65112.29, 0.00, 0.00, 0.00, 0.00, 0.00, 0.00, 0.02, -0.20, 1.01
104, 0.00, 65113.60, 0.00, 0.00, 0.00, 0.00, 0.00, 0.00, 0.02, -0.20, 1.01
105, 0.00, 65106.65, 0.00, 0.00, 0.00, 0.00, 0.00, 0.00, 0.02, -0.20, 1.01
106, 0.00, 65107.34, 0.00, 0.00, 0.00, 0.00, 0.00, 0.00, 0.02, -0.20, 1.01
107, 0.00, 65147.87, 0.00, 0.00, 0.00, 0.00, 0.00, 0.00, 0.02, -0.20, 1.01
108, 0.00, 65172.10, 0.00, 0.00, 0.00, 0.00, 0.00, 0.00, 0.02, -0.20, 1.01
109, 0.00, 65162.13, 0.00, 0.00, 0.00, 0.00, 0.00, 0.00, 0.02, -0.20, 1.01
110, 0.00, 65140.87, 0.00, 0.00, 0.00, 0.00, 0.00, 0.00, 0.02, -0.20, 1.01
111, 0.00, 65146.35, 0.00, 0.00, 0.00, 0.00, 0.00, 0.00, 0.02, -0.20, 1.01
112, 0.00, 65173.01, 0.00, 0.00, 0.00, 0.00, 0.00, 0.00, 0.02, -0.20, 1.01
113, 0.00, 65157.08, 0.00, 0.00, 0.00, 0.00, 0.00, 0.00, 0.02, -0.20, 1.01
114, 0.00, 65128.62, 0.00, 0.00, 0.00, 0.00, 0.00, 0.00, 0.02, -0.20, 1.01
115, 0.00, 65146.64, 0.00, 0.00, 0.00, 0.00, 0.00, 0.00, 0.02, -0.20, 1.01
116, 0.00, 65164.14, 0.00, 0.00, 0.00, 0.00, 0.00, 0.00, 0.02, -0.20, 1.01
117, 0.00, 65180.68, 0.00, 0.00, 0.00, 0.00, 0.00, 0.00, 0.02, -0.20, 1.01
118, 0.00, 65179.41, 0.00, 0.00, 0.00, 0.00, 0.00, 0.00, 0.02, -0.20, 1.01
119, 0.00, 65185.80, 0.00, 0.00, 0.00, 0.00, 0.00, 0.00, 0.01, -0.20, 1.00
120, 0.00, 65191.48, 0.00, 0.00, 0.00, 0.00, 0.00, 0.00, 0.01, -0.20, 1.00
121, 0.00, 65191.95, 0.00, 0.00, 0.00, 0.00, 0.00, 0.00, 0.01, -0.20, 1.00
122, 0.00, 65182.94, 0.00, 0.00, 0.00, 0.00, 0.00, 0.00, 0.01, -0.20, 1.00
123, 0.00, 65182.31, 0.00, 0.00, 0.00, 0.00, 0.00, 0.00, 0.01, -0.20, 1.00
124, 0.00, 65191.72, 0.00, 0.00, 0.00, 0.00, 0.00, 0.00, 0.02, -0.20, 1.00
125, 0.00, 65218.45, 0.00, 0.00, 0.00, 0.00, 0.00, 0.00, 0.02, -0.20, 1.00
126, 0.00, 65252.25, 0.00, 0.00, 0.00, 0.00, 0.00, 0.00, 0.02, -0.20, 1.00
127, 0.00, 65235.89, 0.00, 0.00, 0.00, 0.00, 0.00, 0.00, 0.02, -0.20, 1.00
128, 0.00, 65178.89, 0.00, 0.00, 0.00, 0.00, 0.00, 0.00, 0.02, -0.20, 1.00
129, 0.00, 65189.82, 0.00, 0.00, 0.00, 0.00, 0.00, 0.00, 0.02, -0.20, 1.01
130, 0.00, 65210.43, 0.00, 0.00, 0.00, 0.00, 0.00, 0.00, 0.02, -0.20, 1.01
131, 0.00, 65219.80, 0.00, 0.00, 0.00, 0.00, 0.00, 0.00, 0.02, -0.20, 1.01
132, 0.00, 65219.95, 0.00, 0.00, 0.00, 0.00, 0.00, 0.00, 0.02, -0.20, 1.01
133, 0.00, 65207.97, 0.00, 0.00, 0.00, 0.00, 0.00, 0.00, 0.02, -0.20, 1.01
134, 0.00, 65220.96, 0.00, 0.00, 0.00, 0.00, 0.00, 0.00, 0.02, -0.20, 1.01
135, 0.00, 65228.87, 0.00, 0.00, 0.00, 0.00, 0.00, 0.00, 0.02, -0.20, 1.01
136, 0.00, 65237.39, 0.00, 0.00, 0.00, 0.00, 0.00, 0.00, 0.02, -0.20, 1.01
137, 0.00, 65246.55, 0.00, 0.00, 0.00, 0.00, 0.00, 0.00, 0.02, -0.20, 1.01
138, 0.00, 65246.39, 0.00, 0.00, 0.00, 0.00, 0.00, 0.00, 0.02, -0.20, 1.01
139, 0.00, 65237.23, 0.00, 0.00, 0.00, 0.00, 0.00, 0.00, 0.02, -0.20, 1.01
140, 0.00, 65214.68, 0.00, 0.00, 0.00, 0.00, 0.00, 0.00, 0.02, -0.20, 1.01
141, 0.00, 65225.50, 0.00, 0.00, 0.00, 0.00, 0.00, 0.00, 0.02, -0.20, 1.01
142, 0.00, 65244.83, 0.00, 0.00, 0.00, 0.00, 0.00, 0.00, 0.02, -0.20, 1.01
143, 0.00, 65285.11, 0.00, 0.00, 0.00, 0.00, 0.00, 0.00, 0.02, -0.20, 1.01
144, 0.00, 65282.27, 0.00, 0.00, 0.00, 0.00, 0.00, 0.00, 0.02, -0.20, 1.01
145, 0.00, 65239.89, 0.00, 0.00, 0.00, 0.00, 0.00, 0.00, 0.02, -0.20, 1.01
146, 0.00, 65240.07, 0.00, 0.00, 0.00, 0.00, 0.00, 0.00, 0.02, -0.20, 1.01
147, 0.00, 65237.39, 0.00, 0.00, 0.00, 0.00, 0.00, 0.00, 0.02, -0.20, 1.01
148, 0.00, 65237.77, 0.00, 0.00, 0.00, 0.00, 0.00, 0.00, 0.02, -0.20, 1.01
149, 0.00, 65248.79, 0.00, 0.00, 0.00, 0.00, 0.00, 0.00, 0.02, -0.20, 1.01
150, 0.00, 65271.83, 0.00, 0.00, 0.00, 0.00, 0.00, 0.00, 0.02, -0.20, 1.01
151, 0.00, 65282.43, 0.00, 0.00, 0.00, 0.00, 0.00, 0.00, 0.02, -0.20, 1.01
152, 0.00, 65270.15, 0.00, 0.00, 0.00, 0.00, 0.00, 0.00, 0.02, -0.20, 1.01
153, 0.00, 65281.29, 0.00, 0.00, 0.00, 0.00, 0.00, 0.00, 0.02, -0.20, 1.01
154, 0.00, 65269.64, 0.00, 0.00, 0.00, 0.00, 0.00, 0.00, 0.02, -0.20, 1.01
155, 0.00, 65239.87, 0.00, 0.00, 0.00, 0.00, 0.00, 0.00, 0.02, -0.20, 1.01
156, 0.00, 65229.18, 0.00, 0.00, 0.00, 0.00, 0.00, 0.00, 0.02, -0.20, 1.01
157, 0.00, 65233.63, 0.00, 0.00, 0.00, 0.00, 0.00, 0.00, 0.02, -0.20, 1.01
158, 0.00, 65244.14, 0.00, 0.00, 0.00, 0.00, 0.00, 0.00, 0.02, -0.20, 1.01
159, 0.00, 65247.00, 0.00, 0.00, 0.00, 0.00, 0.00, 0.00, 0.02, -0.20, 1.02
160, 0.00, 65206.23, 0.00, 0.00, 0.00, 0.00, 0.00, 0.00, 0.02, -0.20, 1.02
161, 0.00, 65197.55, 0.00, 0.00, 0.00, 0.00, 0.00, 0.00, 0.02, -0.20, 1.02
162, 0.00, 65230.93, 0.00, 0.00, 0.00, 0.00, 0.00, 0.00, 0.02, -0.20, 1.02
163, 0.00, 65236.78, 0.00, 0.00, 0.00, 0.00, 0.00, 0.00, 0.02, -0.20, 1.02
164, 0.00, 65255.74, 0.00, 0.00, 0.00, 0.00, 0.00, 0.00, 0.02, -0.20, 1.01
165, 0.00, 65257.12, 0.00, 0.00, 0.00, 0.00, 0.00, 0.00, 0.02, -0.20, 1.01
166, 0.00, 65275.63, 0.00, 0.00, 0.00, 0.00, 0.00, 0.00, 0.02, -0.20, 1.01
167, 0.00, 65277.06, 0.00, 0.00, 0.00, 0.00, 0.00, 0.00, 0.02, -0.20, 1.01
168, 0.00, 65266.38, 0.00, 0.00, 0.00, 0.00, 0.00, 0.00, 0.02, -0.20, 1.01
169, 0.00, 65248.92, 0.00, 0.00, 0.00, 0.00, 0.00, 0.00, 0.02, -0.20, 1.02
170, 0.00, 65222.59, 0.00, 0.00, 0.00, 0.00, 0.00, 0.00, 0.02, -0.20, 1.02
171, 0.00, 65228.58, 0.00, 0.00, 0.00, 0.00, 0.00, 0.00, 0.02, -0.20, 1.02
172, 0.00, 65264.27, 0.00, 0.00, 0.00, 0.00, 0.00, 0.00, 0.02, -0.20, 1.02
173, 0.00, 65267.25, 0.00, 0.00, 0.00, 0.00, 0.00, 0.00, 0.02, -0.20, 1.02
174, 0.00, 65258.91, 0.00, 0.00, 0.00, 0.00, 0.00, 0.00, 0.01, -0.20, 1.02
175, 0.00, 65276.79, 0.00, 0.00, 0.00, 0.00, 0.00, 0.00, 0.01, -0.20, 1.02
176, 0.00, 65274.04, 0.00, 0.00, 0.00, 0.00, 0.00, 0.00, 0.01, -0.20, 1.02
177, 0.00, 65263.31, 0.00, 0.00, 0.00, 0.00, 0.00, 0.00, 0.01, -0.20, 1.02
178, 0.00, 65265.32, 0.00, 0.00, 0.00, 0.00, 0.00, 0.00, 0.01, -0.20, 1.02
179, 0.00, 65258.31, 0.00, 0.00, 0.00, 0.00, 0.00, 0.00, 0.02, -0.20, 1.02
180, 0.00, 65279.70, 0.00, 0.00, 0.00, 0.00, 0.00, 0.00, 0.02, -0.20, 1.02
181, 0.00, 65293.78, 0.00, 0.00, 0.00, 0.00, 0.00, 0.00, 0.02, -0.20, 1.02
182, 0.00, 65288.57, 0.00, 0.00, 0.00, 0.00, 0.00, 0.00, 0.02, -0.20, 1.02
183, 0.00, 65287.72, 0.00, 0.00, 0.00, 0.00, 0.00, 0.00, 0.02, -0.20, 1.02
184, 0.00, 65272.10, 0.00, 0.00, 0.00, 0.00, 0.00, 0.00, 0.02, -0.20, 1.02
185, 0.00, 65284.77, 0.00, 0.00, 0.00, 0.00, 0.00, 0.00, 0.02, -0.20, 1.02
186, 0.00, 65296.24, 0.00, 0.00, 0.00, 0.00, 0.00, 0.00, 0.02, -0.20, 1.02
187, 0.00, 65289.76, 0.00, 0.00, 0.00, 0.00, 0.00, 0.00, 0.02, -0.20, 1.02
188, 0.00, 65298.83, 0.00, 0.00, 0.00, 0.00, 0.00, 0.00, 0.02, -0.20, 1.02
189, 0.00, 65322.48, 0.00, 0.00, 0.00, 0.00, 0.00, 0.00, 0.02, -0.20, 1.02
190, 0.00, 65314.45, 0.00, 0.00, 0.00, 0.00, 0.00, 0.00, 0.02, -0.20, 1.02
191, 0.00, 65342.11, 0.00, 0.00, 0.00, 0.00, 0.00, 0.00, 0.02, -0.20, 1.02
192, 0.00, 65295.50, 0.00, 0.00, 0.00, 0.00, 0.00, 0.00, 0.02, -0.20, 1.02
193, 0.00, 65313.63, 0.00, 0.00, 0.00, 0.00, 0.00, 0.00, 0.02, -0.20, 1.02
194, 0.00, 65291.84, 0.00, 0.00, 0.00, 0.00, 0.00, 0.00, 0.02, -0.21, 1.02
195, 0.00, 65286.56, 0.00, 0.00, 0.00, 0.00, 0.00, 0.00, 0.02, -0.21, 1.02
196, 0.00, 65303.19, 0.00, 0.00, 0.00, 0.00, 0.00, 0.00, 0.02, -0.21, 1.02
197, 0.00, 65301.87, 0.00, 0.00, 0.00, 0.00, 0.00, 0.00, 0.02, -0.21, 1.02
198, 0.00, 65310.27, 0.00, 0.00, 0.00, 0.00, 0.00, 0.00, 0.02, -0.21, 1.02
199, 0.00, 65305.18, 0.00, 0.00, 0.00, 0.00, 0.00, 0.00, 0.01, -0.20, 1.02
200, 0.00, 65308.87, 0.00, 0.00, 0.00, 0.00, 0.00, 0.00, 0.01, -0.20, 1.02
201, 0.00, 65317.92, 0.00, 0.00, 0.00, 0.00, 0.00, 0.00, 0.01, -0.20, 1.02
202, 0.00, 65300.86, 0.00, 0.00, 0.00, 0.00, 0.00, 0.00, 0.01, -0.20, 1.02
203, 0.00, 65312.49, 0.00, 0.00, 0.00, 0.00, 0.00, 0.00, 0.01, -0.20, 1.02
204, 0.00, 65330.95, 0.00, 0.00, 0.00, 0.00, 0.00, 0.00, 0.02, -0.20, 1.02
205, 0.00, 65308.64, 0.00, 0.00, 0.00, 0.00, 0.00, 0.00, 0.02, -0.20, 1.02
206, 0.00, 65284.32, 0.00, 0.00, 0.00, 0.00, 0.00, 0.00, 0.02, -0.20, 1.02
207, 0.00, 65289.46, 0.00, 0.00, 0.00, 0.00, 0.00, 0.00, 0.02, -0.20, 1.02
208, 0.00, 65317.99, 0.00, 0.00, 0.00, 0.00, 0.00, 0.00, 0.02, -0.20, 1.02
209, 0.00, 65319.86, 0.00, 0.00, 0.00, 0.00, 0.00, 0.00, 0.02, -0.21, 1.02
210, 0.00, 65293.73, 0.00, 0.00, 0.00, 0.00, 0.00, 0.00, 0.02, -0.21, 1.02
211, 0.00, 65276.55, 0.00, 0.00, 0.00, 0.00, 0.00, 0.00, 0.02, -0.21, 1.02
212, 0.00, 65300.20, 0.00, 0.00, 0.00, 0.00, 0.00, 0.00, 0.02, -0.21, 1.02
213, 0.00, 65288.86, 0.00, 0.00, 0.00, 0.00, 0.00, 0.00, 0.02, -0.21, 1.02
214, 0.00, 65251.49, 0.00, 0.00, 0.00, 0.00, 0.00, 0.00, 0.02, -0.20, 1.01
215, 0.00, 65224.98, 0.00, 0.00, 0.00, 0.00, 0.00, 0.00, 0.02, -0.20, 1.01
216, 0.00, 65188.86, 0.00, 0.00, 0.00, 0.00, 0.00, 0.00, 0.02, -0.20, 1.01
217, 0.00, 65192.35, 0.00, 0.00, 0.00, 0.00, 0.00, 0.00, 0.02, -0.20, 1.01
218, 0.00, 65190.49, 0.00, 0.00, 0.00, 0.00, 0.00, 0.00, 0.02, -0.20, 1.01
219, 0.00, 65210.77, 0.00, 0.00, 0.00, 0.00, 0.00, 0.00, 0.02, -0.20, 1.01
220, 0.00, 65201.89, 0.00, 0.00, 0.00, 0.00, 0.00, 0.00, 0.02, -0.20, 1.01
221, 0.00, 65161.01, 0.00, 0.00, 0.00, 0.00, 0.00, 0.00, 0.02, -0.20, 1.01
222, 0.00, 65125.67, 0.00, 0.00, 0.00, 0.00, 0.00, 0.00, 0.02, -0.20, 1.01
223, 0.00, 65102.71, 0.00, 0.00, 0.00, 0.00, 0.00, 0.00, 0.02, -0.20, 1.01
224, 0.00, 65085.06, 0.00, 0.00, 0.00, 0.00, 0.00, 0.00, 0.02, -0.20, 1.01
225, 0.00, 65051.15, 0.00, 0.00, 0.00, 0.00, 0.00, 0.00, 0.02, -0.20, 1.01
226, 0.00, 65074.71, 0.00, 0.00, 0.00, 0.00, 0.00, 0.00, 0.02, -0.20, 1.01
227, 0.00, 65035.04, 0.00, 0.00, 0.00, 0.00, 0.00, 0.00, 0.02, -0.20, 1.01
228, 0.00, 64935.86, 0.00, 0.00, 0.00, 0.00, 0.00, 0.00, 0.02, -0.20, 1.01
229, 0.00, 64922.76, 0.00, 0.00, 0.00, 0.00, 0.00, 0.00, 0.02, -0.20, 1.01
230, 0.00, 64917.76, 0.00, 0.00, 0.00, 0.00, 0.00, 0.00, 0.02, -0.20, 1.00
231, 0.00, 64905.24, 0.00, 0.00, 0.00, 0.00, 0.00, 0.00, 0.02, -0.20, 1.00
232, 0.00, 64873.19, 0.00, 0.00, 0.00, 0.00, 0.00, 0.00, 0.02, -0.20, 1.00
233, 0.00, 64856.54, 0.00, 0.00, 0.00, 0.00, 0.00, 0.00, 0.02, -0.20, 1.00
234, 0.00, 64834.65, 0.00, 0.00, 0.00, 0.00, 0.00, 0.00, 0.02, -0.20, 1.00
235, 0.00, 64797.13, 0.00, 0.00, 0.00, 0.00, 0.00, 0.00, 0.02, -0.20, 1.01
236, 0.00, 64771.02, 0.00, 0.00, 0.00, 0.00, 0.00, 0.00, 0.02, -0.20, 1.01
237, 0.00, 64793.04, 0.00, 0.00, 0.00, 0.00, 0.00, 0.00, 0.02, -0.20, 1.01
238, 0.00, 64789.75, 0.00, 0.00, 0.00, 0.00, 0.00, 0.00, 0.02, -0.20, 1.01
239, 0.00, 64762.70, 0.00, 0.00, 0.00, 0.00, 0.00, 0.00, 0.02, -0.20, 1.01
240, 0.00, 64754.79, 0.00, 0.00, 0.00, 0.00, 0.00, 0.00, 0.02, -0.20, 1.01
241, 0.00, 64781.30, 0.00, 0.00, 0.00, 0.00, 0.00, 0.00, 0.02, -0.20, 1.01
242, 0.00, 64746.50, 0.00, 0.00, 0.00, 0.00, 0.00, 0.00, 0.02, -0.20, 1.01
243, 0.00, 64695.58, 0.00, 0.00, 0.00, 0.00, 0.00, 0.00, 0.02, -0.20, 1.01
244, 0.00, 64656.31, 0.00, 0.00, 0.00, 0.00, 0.00, 0.00, 0.02, -0.20, 1.01
245, 0.00, 64654.21, 0.00, 0.00, 0.00, 0.00, 0.00, 0.00, 0.03, -0.20, 1.01
246, 0.00, 64664.62, 0.00, 0.00, 0.00, 0.00, 0.00, 0.00, 0.03, -0.20, 1.01
247, 0.00, 64688.38, 0.00, 0.00, 0.00, 0.00, 0.00, 0.00, 0.03, -0.20, 1.01
248, 0.00, 64662.10, 0.00, 0.00, 0.00, 0.00, 0.00, 0.00, 0.03, -0.20, 1.01
249, 0.00, 64592.36, 0.00, 0.00, 0.00, 0.00, 0.00, 0.00, 0.03, -0.20, 1.01
250, 0.00, 64603.00, 0.00, 0.00, 0.00, 0.00, 0.00, 0.00, 0.03, -0.19, 1.02
251, 0.00, 64632.17, 0.00, 0.00, 0.00, 0.00, 0.00, 0.00, 0.03, -0.19, 1.02
252, 0.00, 64602.84, 0.00, 0.00, 0.00, 0.00, 0.00, 0.00, 0.03, -0.19, 1.02
253, 0.00, 64616.72, 0.00, 0.00, 0.00, 0.00, 0.00, 0.00, 0.03, -0.19, 1.02
254, 0.00, 64607.83, 0.00, 0.00, 0.00, 0.00, 0.00, 0.00, 0.03, -0.19, 1.02
255, 0.00, 64575.44, 0.00, 0.00, 0.00, 0.00, 0.00, 0.00, 0.03, -0.19, 1.01
0, 0.00, 64573.43, 0.00, 0.00, 0.00, 0.00, 0.00, 0.00, 0.03, -0.19, 1.01
1, 0.00, 64571.66, 0.00, 0.00, 0.00, 0.00, 0.00, 0.00, 0.03, -0.19, 1.01
2, 0.00, 64569.47, 0.00, 0.00, 0.00, 0.00, 0.00, 0.00, 0.03, -0.19, 1.01
3, 0.00, 64535.21, 0.00, 0.00, 0.00, 0.00, 0.00, 0.00, 0.03, -0.19, 1.01
4, 0.00, 64501.32, 0.00, 0.00, 0.00, 0.00, 0.00, 0.00, 0.03, -0.20, 1.02
5, 0.00, 64479.19, 0.00, 0.00, 0.00, 0.00, 0.00, 0.00, 0.03, -0.20, 1.02
6, 0.00, 64431.36, 0.00, 0.00, 0.00, 0.00, 0.00, 0.00, 0.03, -0.20, 1.02
7, 0.00, 64506.60, 0.00, 0.00, 0.00, 0.00, 0.00, 0.00, 0.03, -0.20, 1.02
8, 0.00, 64513.03, 0.00, 0.00, 0.00, 0.00, 0.00, 0.00, 0.03, -0.20, 1.02
9, 0.00, 64477.74, 0.00, 0.00, 0.00, 0.00, 0.00, 0.00, 0.02, -0.20, 1.01
10, 0.00, 64449.91, 0.00, 0.00, 0.00, 0.00, 0.00, 0.00, 0.02, -0.20, 1.01
11, 0.00, 64429.44, 0.00, 0.00, 0.00, 0.00, 0.00, 0.00, 0.02, -0.20, 1.01
12, 0.00, 64433.28, 0.00, 0.00, 0.00, 0.00, 0.00, 0.00, 0.02, -0.20, 1.01
13, 0.00, 64399.00, 0.00, 0.00, 0.00, 0.00, 0.00, 0.00, 0.02, -0.20, 1.01
14, 0.00, 64448.41, 0.00, 0.00, 0.00, 0.00, 0.00, 0.00, 0.02, -0.20, 1.02
15, 0.00, 64383.06, 0.00, 0.00, 0.00, 0.00, 0.00, 0.00, 0.02, -0.20, 1.02
16, 0.00, 64373.94, 0.00, 0.00, 0.00, 0.00, 0.00, 0.00, 0.02, -0.20, 1.02
17, 0.00, 64375.57, 0.00, 0.00, 0.00, 0.00, 0.00, 0.00, 0.02, -0.20, 1.02
18, 0.00, 64400.76, 0.00, 0.00, 0.00, 0.00, 0.00, 0.00, 0.02, -0.20, 1.02
19, 0.00, 64435.11, 0.00, 0.00, 0.00, 0.00, 0.00, 0.00, 0.02, -0.21, 1.02
20, 0.00, 64384.51, 0.00, 0.00, 0.00, 0.00, 0.00, 0.00, 0.02, -0.21, 1.02
21, 0.00, 64347.29, 0.00, 0.00, 0.00, 0.00, 0.00, 0.00, 0.02, -0.21, 1.02
22, 0.00, 64319.73, 0.00, 0.00, 0.00, 0.00, 0.00, 0.00, 0.02, -0.21, 1.02
23, 0.00, 64301.79, 0.00, 0.00, 0.00, 0.00, 0.00, 0.00, 0.02, -0.21, 1.02
24, 0.00, 64326.29, 0.00, 0.00, 0.00, 0.00, 0.00, 0.00, 0.01, -0.21, 1.02
25, 0.00, 64356.97, 0.00, 0.00, 0.00, 0.00, 0.00, 0.00, 0.01, -0.21, 1.02
26, 0.00, 64298.61, 0.00, 0.00, 0.00, 0.00, 0.00, 0.00, 0.01, -0.21, 1.02
27, 0.00, 64310.23, 0.00, 0.00, 0.00, 0.00, 0.00, 0.00, 0.01, -0.21, 1.02
28, 0.00, 64327.51, 0.00, 0.00, 0.00, 0.00, 0.00, 0.00, 0.01, -0.21, 1.02
29, 0.00, 64309.39, 0.00, 0.00, 0.00, 0.00, 0.00, 0.00, 0.01, -0.20, 1.01
30, 0.00, 64266.76, 0.00, 0.00, 0.00, 0.00, 0.00, 0.00, 0.01, -0.20, 1.01
31, 0.00, 64291.86, 0.00, 0.00, 0.00, 0.00, 0.00, 0.00, 0.01, -0.20, 1.01
32, 0.00, 64291.46, 0.00, 0.00, 0.00, 0.00, 0.00, 0.00, 0.01, -0.20, 1.01
33, 0.00, 64314.86, 0.00, 0.00, 0.00, 0.00, 0.00, 0.00, 0.01, -0.20, 1.01
34, 0.00, 64324.72, 0.00, 0.00, 0.00, 0.00, 0.00, 0.00, 0.02, -0.20, 1.01
35, 0.00, 64283.79, 0.00, 0.00, 0.00, 0.00, 0.00, 0.00, 0.02, -0.20, 1.01
36, 0.00, 64283.08, 0.00, 0.00, 0.00, 0.00, 0.00, 0.00, 0.02, -0.20, 1.01
37, 0.00, 64251.23, 0.00, 0.00, 0.00, 0.00, 0.00, 0.00, 0.02, -0.20, 1.01
38, 0.00, 64270.72, 0.00, 0.00, 0.00, 0.00, 0.00, 0.00, 0.02, -0.20, 1.01
39, 0.00, 64279.26, 0.00, 0.00, 0.00, 0.00, 0.00, 0.00, 0.03, -0.20, 1.01
40, 0.00, 64289.76, 0.00, 0.00, 0.00, 0.00, 0.00, 0.00, 0.03, -0.20, 1.01
41, 0.00, 64217.86, 0.00, 0.00, 0.00, 0.00, 0.00, 0.00, 0.03, -0.20, 1.01
42, 0.00, 64214.82, 0.00, 0.00, 0.00, 0.00, 0.00, 0.00, 0.03, -0.20, 1.01
43, 0.00, 64274.25, 0.00, 0.00, 0.00, 0.00, 0.00, 0.00, 0.03, -0.20, 1.01
44, 0.00, 64243.45, 0.00, 0.00, 0.00, 0.00, 0.00, 0.00, 0.02, -0.20, 1.02
45, 0.00, 64229.99, 0.00, 0.00, 0.00, 0.00, 0.00, 0.00, 0.02, -0.20, 1.02
46, 0.00, 64283.57, 0.00, 0.00, 0.00, 0.00, 0.00, 0.00, 0.02, -0.20, 1.02
47, 0.00, 64237.77, 0.00, 0.00, 0.00, 0.00, 0.00, 0.00, 0.02, -0.20, 1.02
48, 0.00, 64259.05, 0.00, 0.00, 0.00, 0.00, 0.00, 0.00, 0.02, -0.20, 1.02
49, 0.00, 64241.32, 0.00, 0.00, 0.00, 0.00, 0.00, 0.00, 0.02, -0.20, 1.01
50, 0.00, 64213.39, 0.00, 0.00, 0.00, 0.00, 0.00, 0.00, 0.02, -0.20, 1.01
51, 0.00, 64181.54, 0.00, 0.00, 0.00, 0.00, 0.00, 0.00, 0.02, -0.20, 1.01
52, 0.00, 64164.95, 0.00, 0.00, 0.00, 0.00, 0.00, 0.00, 0.02, -0.20, 1.01
53, 0.00, 64238.40, 0.00, 0.00, 0.00, 0.00, 0.00, 0.00, 0.02, -0.20, 1.01
54, 0.00, 64243.47, 0.00, 0.00, 0.00, 0.00, 0.00, 0.00, 0.01, -0.21, 1.01
55, 0.00, 64211.93, 0.00, 0.00, 0.00, 0.00, 0.00, 0.00, 0.01, -0.21, 1.01
56, 0.00, 64199.75, 0.00, 0.00, 0.00, 0.00, 0.00, 0.00, 0.01, -0.21, 1.01
57, 0.00, 64214.97, 0.00, 0.00, 0.00, 0.00, 0.00, 0.00, 0.01, -0.21, 1.01
58, 0.00, 64230.17, 0.00, 0.00, 0.00, 0.00, 0.00, 0.00, 0.01, -0.21, 1.01
59, 0.00, 64253.84, 0.00, 0.00, 0.00, 0.00, 0.00, 0.00, 0.02, -0.21, 1.02
60, 0.00, 64230.77, 0.00, 0.00, 0.00, 0.00, 0.00, 0.00, 0.02, -0.21, 1.02
61, 0.00, 64212.45, 0.00, 0.00, 0.00, 0.00, 0.00, 0.00, 0.02, -0.21, 1.02
62, 0.00, 64196.84, 0.00, 0.00, 0.00, 0.00, 0.00, 0.00, 0.02, -0.21, 1.02
63, 0.00, 64214.75, 0.00, 0.00, 0.00, 0.00, 0.00, 0.00, 0.02, -0.21, 1.02
64, 0.00, 64248.59, 0.00, 0.00, 0.00, 0.00, 0.00, 0.00, 0.02, -0.20, 1.01
65, 0.00, 64205.23, 0.00, 0.00, 0.00, 0.00, 0.00, 0.00, 0.02, -0.20, 1.01
66, 0.00, 64225.01, 0.00, 0.00, 0.00, 0.00, 0.00, 0.00, 0.02, -0.20, 1.01
67, 0.00, 64257.62, 0.00, 0.00, 0.00, 0.00, 0.00, 0.00, 0.02, -0.20, 1.01
68, 0.00, 64248.97, 0.00, 0.00, 0.00, 0.00, 0.00, 0.00, 0.02, -0.20, 1.01
69, 0.00, 64237.37, 0.00, 0.00, 0.00, 0.00, 0.00, 0.00, 0.02, -0.20, 1.02
70, 0.00, 64204.63, 0.00, 0.00, 0.00, 0.00, 0.00, 0.00, 0.02, -0.20, 1.02
71, 0.00, 64221.66, 0.00, 0.00, 0.00, 0.00, 0.00, 0.00, 0.02, -0.20, 1.02
72, 0.00, 64201.09, 0.00, 0.00, 0.00, 0.00, 0.00, 0.00, 0.02, -0.20, 1.02
73, 0.00, 64230.06, 0.00, 0.00, 0.00, 0.00, 0.00, 0.00, 0.02, -0.20, 1.02
74, 0.00, 64227.91, 0.00, 0.00, 0.00, 0.00, 0.00, 0.00, 0.02, -0.20, 1.02
75, 0.00, 64239.43, 0.00, 0.00, 0.00, 0.00, 0.00, 0.00, 0.02, -0.20, 1.02
76, 0.00, 64230.17, 0.00, 0.00, 0.00, 0.00, 0.00, 0.00, 0.02, -0.20, 1.02
77, 0.00, 64218.91, 0.00, 0.00, 0.00, 0.00, 0.00, 0.00, 0.02, -0.20, 1.02
78, 0.00, 64199.19, 0.00, 0.00, 0.00, 0.00, 0.00, 0.00, 0.02, -0.20, 1.02
79, 0.00, 64223.67, 0.00, 0.00, 0.00, 0.00, 0.00, 0.00, 0.02, -0.20, 1.01
80, 0.00, 64244.90, 0.00, 0.00, 0.00, 0.00, 0.00, 0.00, 0.02, -0.20, 1.01
81, 0.00, 64234.95, 0.00, 0.00, 0.00, 0.00, 0.00, 0.00, 0.02, -0.20, 1.01
82, 0.00, 64285.07, 0.00, 0.00, 0.00, 0.00, 0.00, 0.00, 0.02, -0.20, 1.01
83, 0.00, 64258.71, 0.00, 0.00, 0.00, 0.00, 0.00, 0.00, 0.02, -0.20, 1.01
84, 0.00, 64221.95, 0.00, 0.00, 0.00, 0.00, 0.00, 0.00, 0.02, -0.20, 1.01
85, 0.00, 64185.67, 0.00, 0.00, 0.00, 0.00, 0.00, 0.00, 0.02, -0.20, 1.01
86, 0.00, 64169.93, 0.00, 0.00, 0.00, 0.00, 0.00, 0.00, 0.02, -0.20, 1.01
87, 0.00, 64189.27, 0.00, 0.00, 0.00, 0.00, 0.00, 0.00, 0.02, -0.20, 1.01
88, 0.00, 64290.54, 0.00, 0.00, 0.00, 0.00, 0.00, 0.00, 0.02, -0.20, 1.01
89, 0.00, 64255.90, 0.00, 0.00, 0.00, 0.00, 0.00, 0.00, 0.02, -0.20, 1.01
90, 0.00, 64249.68, 0.00, 0.00, 0.00, 0.00, 0.00, 0.00, 0.02, -0.20, 1.01
91, 0.00, 64245.41, 0.00, 0.00, 0.00, 0.00, 0.00, 0.00, 0.02, -0.20, 1.01
92, 0.00, 64192.26, 0.00, 0.00, 0.00, 0.00, 0.00, 0.00, 0.02, -0.20, 1.01
93, 0.00, 64143.67, 0.00, 0.00, 0.00, 0.00, 0.00, 0.00, 0.02, -0.20, 1.01
94, 0.00, 64227.02, 0.00, 0.00, 0.00, 0.00, 0.00, 0.00, 0.01, -0.20, 1.01
95, 0.00, 64284.44, 0.00, 0.00, 0.00, 0.00, 0.00, 0.00, 0.01, -0.20, 1.01
96, 0.00, 64275.79, 0.00, 0.00, 0.00, 0.00, 0.00, 0.00, 0.01, -0.20, 1.01
97, 0.00, 64275.93, 0.00, 0.00, 0.00, 0.00, 0.00, 0.00, 0.01, -0.20, 1.01
98, 0.00, 64250.78, 0.00, 0.00, 0.00, 0.00, 0.00, 0.00, 0.01, -0.20, 1.01
99, 0.00, 64229.28, 0.00, 0.00, 0.00, 0.00, 0.00, 0.00, 0.02, -0.20, 1.01
100, 0.00, 64266.80, 0.00, 0.00, 0.00, 0.00, 0.00, 0.00, 0.02, -0.20, 1.01
101, 0.00, 64219.42, 0.00, 0.00, 0.00, 0.00, 0.00, 0.00, 0.02, -0.20, 1.01
102, 0.00, 64296.82, 0.00, 0.00, 0.00, 0.00, 0.00, 0.00, 0.02, -0.20, 1.01
103, 0.00, 64287.50, 0.00, 0.00, 0.00, 0.00, 0.00, 0.00, 0.02, -0.20, 1.01
104, 0.00, 64228.83, 0.00, 0.00, 0.00, 0.00, 0.00, 0.00, 0.02, -0.20, 1.01
105, 0.00, 64211.29, 0.00, 0.00, 0.00, 0.00, 0.00, 0.00, 0.02, -0.20, 1.01
106, 0.00, 64246.42, 0.00, 0.00, 0.00, 0.00, 0.00, 0.00, 0.02, -0.20, 1.01
107, 0.00, 64289.23, 0.00, 0.00, 0.00, 0.00, 0.00, 0.00, 0.02, -0.20, 1.01
108, 0.00, 64288.80, 0.00, 0.00, 0.00, 0.00, 0.00, 0.00, 0.02, -0.20, 1.01
109, 0.00, 64297.50, 0.00, 0.00, 0.00, 0.00, 0.00, 0.00, 0.02, -0.20, 1.01
110, 0.00, 64266.54, 0.00, 0.00, 0.00, 0.00, 0.00, 0.00, 0.02, -0.20, 1.01
111, 0.00, 64237.70, 0.00, 0.00, 0.00, 0.00, 0.00, 0.00, 0.02, -0.20, 1.01
112, 0.00, 64227.82, 0.00, 0.00, 0.00, 0.00, 0.00, 0.00, 0.02, -0.20, 1.01
113, 0.00, 64230.93, 0.00, 0.00, 0.00, 0.00, 0.00, 0.00, 0.02, -0.20, 1.01
114, 0.00, 64249.89, 0.00, 0.00, 0.00, 0.00, 0.00, 0.00, 0.02, -0.20, 1.01
115, 0.00, 64231.00, 0.00, 0.00, 0.00, 0.00, 0.00, 0.00, 0.02, -0.20, 1.01
116, 0.00, 64246.69, 0.00, 0.00, 0.00, 0.00, 0.00, 0.00, 0.02, -0.20, 1.01
117, 0.00, 64254.18, 0.00, 0.00, 0.00, 0.00, 0.00, 0.00, 0.02, -0.20, 1.01
118, 0.00, 64237.21, 0.00, 0.00, 0.00, 0.00, 0.00, 0.00, 0.02, -0.20, 1.01
119, 0.00, 64214.08, 0.00, 0.00, 0.00, 0.00, 0.00, 0.00, 0.02, -0.19, 1.01
120, 0.00, 64196.89, 0.00, 0.00, 0.00, 0.00, 0.00, 0.00, 0.02, -0.19, 1.01
121, 0.00, 64239.05, 0.00, 0.00, 0.00, 0.00, 0.00, 0.00, 0.02, -0.19, 1.01
122, 0.00, 64280.15, 0.00, 0.00, 0.00, 0.00, 0.00, 0.00, 0.02, -0.19, 1.01
123, 0.00, 64261.24, 0.00, 0.00, 0.00, 0.00, 0.00, 0.00, 0.02, -0.19, 1.01
124, 0.00, 64260.68, 0.00, 0.00, 0.00, 0.00, 0.00, 0.00, 0.02, -0.20, 1.02
125, 0.00, 64281.76, 0.00, 0.00, 0.00, 0.00, 0.00, 0.00, 0.02, -0.20, 1.02
126, 0.00, 64251.65, 0.00, 0.00, 0.00, 0.00, 0.00, 0.00, 0.02, -0.20, 1.02
127, 0.00, 64200.36, 0.00, 0.00, 0.00, 0.00, 0.00, 0.00, 0.02, -0.20, 1.02
128, 0.00, 64287.23, 0.00, 0.00, 0.00, 0.00, 0.00, 0.00, 0.02, -0.20, 1.02
129, 0.00, 64293.00, 0.00, 0.00, 0.00, 0.00, 0.00, 0.00, 0.02, -0.20, 1.02
130, 0.00, 64254.87, 0.00, 0.00, 0.00, 0.00, 0.00, 0.00, 0.02, -0.20, 1.02
131, 0.00, 64273.29, 0.00, 0.00, 0.00, 0.00, 0.00, 0.00, 0.02, -0.20, 1.02
132, 0.00, 64284.69, 0.00, 0.00, 0.00, 0.00, 0.00, 0.00, 0.02, -0.20, 1.02
133, 0.00, 64304.56, 0.00, 0.00, 0.00, 0.00, 0.00, 0.00, 0.02, -0.20, 1.02
134, 0.00, 64257.55, 0.00, 0.00, 0.00, 0.00, 0.00, 0.00, 0.02, -0.20, 1.02
135, 0.00, 64177.46, 0.00, 0.00, 0.00, 0.00, 0.00, 0.00, 0.02, -0.20, 1.02
136, 0.00, 64235.18, 0.00, 0.00, 0.00, 0.00, 0.00, 0.00, 0.02, -0.20, 1.02
137, 0.00, 64271.90, 0.00, 0.00, 0.00, 0.00, 0.00, 0.00, 0.02, -0.20, 1.02
138, 0.00, 64254.38, 0.00, 0.00, 0.00, 0.00, 0.00, 0.00, 0.02, -0.20, 1.02
139, 0.00, 64205.18, 0.00, 0.00, 0.00, 0.00, 0.00, 0.00, 0.01, -0.20, 1.03
140, 0.00, 64207.42, 0.00, 0.00, 0.00, 0.00, 0.00, 0.00, 0.01, -0.20, 1.03
141, 0.00, 64260.88, 0.00, 0.00, 0.00, 0.00, 0.00, 0.00, 0.01, -0.20, 1.03
142, 0.00, 64289.94, 0.00, 0.00, 0.00, 0.00, 0.00, 0.00, 0.01, -0.20, 1.03
143, 0.00, 64261.89, 0.00, 0.00, 0.00, 0.00, 0.00, 0.00, 0.01, -0.20, 1.03
144, 0.00, 64257.53, 0.00, 0.00, 0.00, 0.00, 0.00, 0.00, 0.01, -0.20, 1.03
145, 0.00, 64236.43, 0.00, 0.00, 0.00, 0.00, 0.00, 0.00, 0.01, -0.20, 1.02
146, 0.00, 64238.44, 0.00, 0.00, 0.00, 0.00, 0.00, 0.00, 0.01, -0.20, 1.02
147, 0.00, 64239.00, 0.00, 0.00, 0.00, 0.00, 0.00, 0.00, 0.01, -0.20, 1.02
148, 0.00, 64284.69, 0.00, 0.00, 0.00, 0.00, 0.00, 0.00, 0.01, -0.20, 1.02
149, 0.00, 64272.77, 0.00, 0.00, 0.00, 0.00, 0.00, 0.00, 0.01, -0.20, 1.02
150, 0.00, 64225.37, 0.00, 0.00, 0.00, 0.00, 0.00, 0.00, 0.01, -0.19, 1.02
151, 0.00, 64233.21, 0.00, 0.00, 0.00, 0.00, 0.00, 0.00, 0.01, -0.19, 1.02
152, 0.00, 64238.75, 0.00, 0.00, 0.00, 0.00, 0.00, 0.00, 0.01, -0.19, 1.02
153, 0.00, 64259.86, 0.00, 0.00, 0.00, 0.00, 0.00, 0.00, 0.01, -0.19, 1.02
154, 0.00, 64246.71, 0.00, 0.00, 0.00, 0.00, 0.00, 0.00, 0.01, -0.19, 1.02
155, 0.00, 64250.36, 0.00, 0.00, 0.00, 0.00, 0.00, 0.00, 0.01, -0.20, 1.02
156, 0.00, 64238.44, 0.00, 0.00, 0.00, 0.00, 0.00, 0.00, 0.01, -0.20, 1.02
157, 0.00, 64255.03, 0.00, 0.00, 0.00, 0.00, 0.00, 0.00, 0.01, -0.20, 1.02
158, 0.00, 64267.66, 0.00, 0.00, 0.00, 0.00, 0.00, 0.00, 0.01, -0.20, 1.02
159, 0.00, 64270.79, 0.00, 0.00, 0.00, 0.00, 0.00, 0.00, 0.01, -0.20, 1.02
160, 0.00, 64258.16, 0.00, 0.00, 0.00, 0.00, 0.00, 0.00, 0.02, -0.20, 1.01
161, 0.00, 64238.22, 0.00, 0.00, 0.00, 0.00, 0.00, 0.00, 0.02, -0.20, 1.01
162, 0.00, 64231.09, 0.00, 0.00, 0.00, 0.00, 0.00, 0.00, 0.02, -0.20, 1.01
163, 0.00, 64245.41, 0.00, 0.00, 0.00, 0.00, 0.00, 0.00, 0.02, -0.20, 1.01
164, 0.00, 64266.70, 0.00, 0.00, 0.00, 0.00, 0.00, 0.00, 0.02, -0.20, 1.01
165, 0.00, 64296.96, 0.00, 0.00, 0.00, 0.00, 0.00, 0.00, 0.02, -0.20, 1.01
166, 0.00, 64294.52, 0.00, 0.00, 0.00, 0.00, 0.00, 0.00, 0.02, -0.20, 1.01
167, 0.00, 64268.48, 0.00, 0.00, 0.00, 0.00, 0.00, 0.00, 0.02, -0.20, 1.01
168, 0.00, 64240.70, 0.00, 0.00, 0.00, 0.00, 0.00, 0.00, 0.02, -0.20, 1.01
169, 0.00, 64248.93, 0.00, 0.00, 0.00, 0.00, 0.00, 0.00, 0.02, -0.20, 1.01
170, 0.00, 64264.06, 0.00, 0.00, 0.00, 0.00, 0.00, 0.00, 0.02, -0.20, 1.01
171, 0.00, 64314.97, 0.00, 0.00, 0.00, 0.00, 0.00, 0.00, 0.02, -0.20, 1.01
172, 0.00, 64335.11, 0.00, 0.00, 0.00, 0.00, 0.00, 0.00, 0.02, -0.20, 1.01
173, 0.00, 64293.23, 0.00, 0.00, 0.00, 0.00, 0.00, 0.00, 0.02, -0.20, 1.01
174, 0.00, 64296.80, 0.00, 0.00, 0.00, 0.00, 0.00, 0.00, 0.02, -0.20, 1.01
175, 0.00, 64274.25, 0.00, 0.00, 0.00, 0.00, 0.00, 0.00, 0.02, -0.20, 1.01
176, 0.00, 64280.04, 0.00, 0.00, 0.00, 0.00, 0.00, 0.00, 0.02, -0.20, 1.01
177, 0.00, 64312.38, 0.00, 0.00, 0.00, 0.00, 0.00, 0.00, 0.02, -0.20, 1.01
178, 0.00, 64303.24, 0.00, 0.00, 0.00, 0.00, 0.00, 0.00, 0.02, -0.20, 1.01
179, 0.00, 64270.90, 0.00, 0.00, 0.00, 0.00, 0.00, 0.00, 0.02, -0.20, 1.01
180, 0.00, 64232.09, 0.00, 0.00, 0.00, 0.00, 0.00, 0.00, 0.02, -0.20, 1.01
181, 0.00, 64261.11, 0.00, 0.00, 0.00, 0.00, 0.00, 0.00, 0.02, -0.20, 1.01
182, 0.00, 64272.08, 0.00, 0.00, 0.00, 0.00, 0.00, 0.00, 0.02, -0.20, 1.01
183, 0.00, 64297.38, 0.00, 0.00, 0.00, 0.00, 0.00, 0.00, 0.02, -0.20, 1.01
184, 0.00, 64287.04, 0.00, 0.00, 0.00, 0.00, 0.00, 0.00, 0.02, -0.20, 1.01
185, 0.00, 64269.11, 0.00, 0.00, 0.00, 0.00, 0.00, 0.00, 0.02, -0.20, 1.01
186, 0.00, 64271.19, 0.00, 0.00, 0.00, 0.00, 0.00, 0.00, 0.02, -0.20, 1.01
187, 0.00, 64272.26, 0.00, 0.00, 0.00, 0.00, 0.00, 0.00, 0.02, -0.20, 1.01
188, 0.00, 64292.18, 0.00, 0.00, 0.00, 0.00, 0.00, 0.00, 0.02, -0.20, 1.01
189, 0.00, 64293.98, 0.00, 0.00, 0.00, 0.00, 0.00, 0.00, 0.02, -0.20, 1.01
190, 0.00, 64269.46, 0.00, 0.00, 0.00, 0.00, 0.00, 0.00, 0.02, -0.20, 1.02
191, 0.00, 64241.84, 0.00, 0.00, 0.00, 0.00, 0.00, 0.00, 0.02, -0.20, 1.02
192, 0.00, 64273.07, 0.00, 0.00, 0.00, 0.00, 0.00, 0.00, 0.02, -0.20, 1.02
193, 0.00, 64262.52, 0.00, 0.00, 0.00, 0.00, 0.00, 0.00, 0.02, -0.20, 1.02
194, 0.00, 64278.00, 0.00, 0.00, 0.00, 0.00, 0.00, 0.00, 0.02, -0.20, 1.02
195, 0.00, 64260.13, 0.00, 0.00, 0.00, 0.00, 0.00, 0.00, 0.02, -0.20, 1.02
196, 0.00, 64211.11, 0.00, 0.00, 0.00, 0.00, 0.00, 0.00, 0.02, -0.20, 1.02
197, 0.00, 64281.69, 0.00, 0.00, 0.00, 0.00, 0.00, 0.00, 0.02, -0.20, 1.02
198, 0.00, 64335.79, 0.00, 0.00, 0.00, 0.00, 0.00, 0.00, 0.02, -0.20, 1.02
199, 0.00, 64336.45, 0.00, 0.00, 0.00, 0.00, 0.00, 0.00, 0.02, -0.20, 1.02
200, 0.00, 64312.34, 0.00, 0.00, 0.00, 0.00, 0.00, 0.00, 0.01, -0.20, 1.02
201, 0.00, 64295.64, 0.00, 0.00, 0.00, 0.00, 0.00, 0.00, 0.01, -0.20, 1.02
202, 0.00, 64298.77, 0.00, 0.00, 0.00, 0.00, 0.00, 0.00, 0.01, -0.20, 1.02
203, 0.00, 64293.38, 0.00, 0.00, 0.00, 0.00, 0.00, 0.00, 0.01, -0.20, 1.02
204, 0.00, 64272.19, 0.00, 0.00, 0.00, 0.00, 0.00, 0.00, 0.01, -0.20, 1.02
205, 0.00, 64309.79, 0.00, 0.00, 0.00, 0.00, 0.00, 0.00, 0.02, -0.20, 1.02
206, 0.00, 64306.70, 0.00, 0.00, 0.00, 0.00, 0.00, 0.00, 0.02, -0.20, 1.02
207, 0.00, 64364.86, 0.00, 0.00, 0.00, 0.00, 0.00, 0.00, 0.02, -0.20, 1.02
208, 0.00, 64377.63, 0.00, 0.00, 0.00, 0.00, 0.00, 0.00, 0.02, -0.20, 1.02
209, 0.00, 64350.45, 0.00, 0.00, 0.00, 0.00, 0.00, 0.00, 0.02, -0.20, 1.02
210, 0.00, 64331.47, 0.00, 0.00, 0.00, 0.00, 0.00, 0.00, 0.01, -0.20, 1.01
211, 0.00, 64385.98, 0.00, 0.00, 0.00, 0.00, 0.00, 0.00, 0.01, -0.20, 1.01
212, 0.00, 64433.24, 0.00, 0.00, 0.00, 0.00, 0.00, 0.00, 0.01, -0.20, 1.01
213, 0.00, 64496.20, 0.00, 0.00, 0.00, 0.00, 0.00, 0.00, 0.01, -0.20, 1.01
214, 0.00, 64512.96, 0.00, 0.00, 0.00, 0.00, 0.00, 0.00, 0.01, -0.20, 1.01
215, 0.00, 64512.54, 0.00, 0.00, 0.00, 0.00, 0.00, 0.00, 0.02, -0.20, 1.01
216, 0.00, 64539.70, 0.00, 0.00, 0.00, 0.00, 0.00, 0.00, 0.02, -0.20, 1.01
217, 0.00, 64582.95, 0.00, 0.00, 0.00, 0.00, 0.00, 0.00, 0.02, -0.20, 1.01
218, 0.00, 64625.46, 0.00, 0.00, 0.00, 0.00, 0.00, 0.00, 0.02, -0.20, 1.01
219, 0.00, 64641.82, 0.00, 0.00, 0.00, 0.00, 0.00, 0.00, 0.02, -0.20, 1.01
220, 0.00, 64640.89, 0.00, 0.00, 0.00, 0.00, 0.00, 0.00, 0.02, -0.20, 1.01
221, 0.00, 64647.19, 0.00, 0.00, 0.00, 0.00, 0.00, 0.00, 0.02, -0.20, 1.01
222, 0.00, 64667.75, 0.00, 0.00, 0.00, 0.00, 0.00, 0.00, 0.02, -0.20, 1.01
223, 0.00, 64714.51, 0.00, 0.00, 0.00, 0.00, 0.00, 0.00, 0.02, -0.20, 1.01
224, 0.00, 64745.38, 0.00, 0.00, 0.00, 0.00, 0.00, 0.00, 0.02, -0.20, 1.01
225, 0.00, 64734.38, 0.00, 0.00, 0.00, 0.00, 0.00, 0.00, 0.02, -0.20, 1.01
226, 0.00, 64770.35, 0.00, 0.00, 0.00, 0.00, 0.00, 0.00, 0.02, -0.20, 1.01
227, 0.00, 64787.73, 0.00, 0.00, 0.00, 0.00, 0.00, 0.00, 0.02, -0.20, 1.01
228, 0.00, 64804.97, 0.00, 0.00, 0.00, 0.00, 0.00, 0.00, 0.02, -0.20, 1.01
229, 0.00, 64844.69, 0.00, 0.00, 0.00, 0.00, 0.00, 0.00, 0.02, -0.20, 1.01
230, 0.00, 64846.95, 0.00, 0.00, 0.00, 0.00, 0.00, 0.00, 0.02, -0.20, 1.01
231, 0.00, 64835.34, 0.00, 0.00, 0.00, 0.00, 0.00, 0.00, 0.02, -0.20, 1.01
232, 0.00, 64873.77, 0.00, 0.00, 0.00, 0.00, 0.00, 0.00, 0.02, -0.20, 1.01
233, 0.00, 64904.77, 0.00, 0.00, 0.00, 0.00, 0.00, 0.00, 0.02, -0.20, 1.01
234, 0.00, 64868.54, 0.00, 0.00, 0.00, 0.00, 0.00, 0.00, 0.02, -0.20, 1.01
235, 0.00, 64844.29, 0.00, 0.00, 0.00, 0.00, 0.00, 0.00, 0.02, -0.20, 1.01
236, 0.00, 64864.09, 0.00, 0.00, 0.00, 0.00, 0.00, 0.00, 0.02, -0.20, 1.01
237, 0.00, 64885.59, 0.00, 0.00, 0.00, 0.00, 0.00, 0.00, 0.02, -0.20, 1.01
238, 0.00, 64910.20, 0.00, 0.00, 0.00, 0.00, 0.00, 0.00, 0.02, -0.20, 1.01
239, 0.00, 64887.31, 0.00, 0.00, 0.00, 0.00, 0.00, 0.00, 0.02, -0.20, 1.01
240, 0.00, 64879.78, 0.00, 0.00, 0.00, 0.00, 0.00, 0.00, 0.02, -0.19, 1.01
241, 0.00, 64879.36, 0.00, 0.00, 0.00, 0.00, 0.00, 0.00, 0.02, -0.19, 1.01
242, 0.00, 64863.89, 0.00, 0.00, 0.00, 0.00, 0.00, 0.00, 0.02, -0.19, 1.01
243, 0.00, 64891.89, 0.00, 0.00, 0.00, 0.00, 0.00, 0.00, 0.02, -0.19, 1.01
244, 0.00, 64884.25, 0.00, 0.00, 0.00, 0.00, 0.00, 0.00, 0.02, -0.19, 1.01
245, 0.00, 64857.12, 0.00, 0.00, 0.00, 0.00, 0.00, 0.00, 0.02, -0.20, 1.01
246, 0.00, 64897.98, 0.00, 0.00, 0.00, 0.00, 0.00, 0.00, 0.02, -0.20, 1.01
247, 0.00, 64917.02, 0.00, 0.00, 0.00, 0.00, 0.00, 0.00, 0.02, -0.20, 1.01
248, 0.00, 64920.30, 0.00, 0.00, 0.00, 0.00, 0.00, 0.00, 0.02, -0.20, 1.01
249, 0.00, 64926.61, 0.00, 0.00, 0.00, 0.00, 0.00, 0.00, 0.02, -0.20, 1.01
250, 0.00, 64896.12, 0.00, 0.00, 0.00, 0.00, 0.00, 0.00, 0.02, -0.20, 1.02
251, 0.00, 64910.63, 0.00, 0.00, 0.00, 0.00, 0.00, 0.00, 0.02, -0.20, 1.02
252, 0.00, 64912.19, 0.00, 0.00, 0.00, 0.00, 0.00, 0.00, 0.02, -0.20, 1.02
253, 0.00, 64926.96, 0.00, 0.00, 0.00, 0.00, 0.00, 0.00, 0.02, -0.20, 1.02
254, 0.00, 64921.27, 0.00, 0.00, 0.00, 0.00, 0.00, 0.00, 0.02, -0.20, 1.02
255, 0.00, 64898.62, 0.00, 0.00, 0.00, 0.00, 0.00, 0.00, 0.02, -0.20, 1.02
0, 0.00, 64843.17, 0.00, 0.00, 0.00, 0.00, 0.00, 0.00, 0.02, -0.20, 1.02
1, 0.00, 64917.51, 0.00, 0.00, 0.00, 0.00, 0.00, 0.00, 0.02, -0.20, 1.02
2, 0.00, 64991.14, 0.00, 0.00, 0.00, 0.00, 0.00, 0.00, 0.02, -0.20, 1.02
3, 0.00, 64985.15, 0.00, 0.00, 0.00, 0.00, 0.00, 0.00, 0.02, -0.20, 1.02
4, 0.00, 64959.24, 0.00, 0.00, 0.00, 0.00, 0.00, 0.00, 0.02, -0.21, 1.02
5, 0.00, 64945.54, 0.00, 0.00, 0.00, 0.00, 0.00, 0.00, 0.02, -0.21, 1.02
6, 0.00, 64928.89, 0.00, 0.00, 0.00, 0.00, 0.00, 0.00, 0.02, -0.21, 1.02
7, 0.00, 64909.02, 0.00, 0.00, 0.00, 0.00, 0.00, 0.00, 0.02, -0.21, 1.02
8, 0.00, 64944.18, 0.00, 0.00, 0.00, 0.00, 0.00, 0.00, 0.02, -0.21, 1.02
9, 0.00, 64940.67, 0.00, 0.00, 0.00, 0.00, 0.00, 0.00, 0.02, -0.21, 1.02
10, 0.00, 64947.57, 0.00, 0.00, 0.00, 0.00, 0.00, 0.00, 0.02, -0.21, 1.02
11, 0.00, 64945.41, 0.00, 0.00, 0.00, 0.00, 0.00, 0.00, 0.02, -0.21, 1.02
12, 0.00, 64954.52, 0.00, 0.00, 0.00, 0.00, 0.00, 0.00, 0.02, -0.21, 1.02
13, 0.00, 64956.94, 0.00, 0.00, 0.00, 0.00, 0.00, 0.00, 0.02, -0.21, 1.02
14, 0.00, 64938.36, 0.00, 0.00, 0.00, 0.00, 0.00, 0.00, 0.02, -0.21, 1.03
15, 0.00, 64936.53, 0.00, 0.00, 0.00, 0.00, 0.00, 0.00, 0.02, -0.21, 1.03
16, 0.00, 64931.35, 0.00, 0.00, 0.00, 0.00, 0.00, 0.00, 0.02, -0.21, 1.03
17, 0.00, 64955.08, 0.00, 0.00, 0.00, 0.00, 0.00, 0.00, 0.02, -0.21, 1.03
18, 0.00, 64946.79, 0.00, 0.00, 0.00, 0.00, 0.00, 0.00, 0.02, -0.21, 1.03
19, 0.00, 64944.58, 0.00, 0.00, 0.00, 0.00, 0.00, 0.00, 0.02, -0.20, 1.02
20, 0.00, 64928.53, 0.00, 0.00, 0.00, 0.00, 0.00, 0.00, 0.02, -0.20, 1.02
21, 0.00, 64947.17, 0.00, 0.00, 0.00, 0.00, 0.00, 0.00, 0.02, -0.20, 1.02
22, 0.00, 64972.79, 0.00, 0.00, 0.00, 0.00, 0.00, 0.00, 0.02, -0.20, 1.02
23, 0.00, 64944.69, 0.00, 0.00, 0.00, 0.00, 0.00, 0.00, 0.02, -0.20, 1.02
24, 0.00, 64932.06, 0.00, 0.00, 0.00, 0.00, 0.00, 0.00, 0.02, -0.20, 1.02
25, 0.00, 64960.89, 0.00, 0.00, 0.00, 0.00, 0.00, 0.00, 0.02, -0.20, 1.02
26, 0.00, 64986.46, 0.00, 0.00, 0.00, 0.00, 0.00, 0.00, 0.02, -0.20, 1.02
27, 0.00, 64995.74, 0.00, 0.00, 0.00, 0.00, 0.00, 0.00, 0.02, -0.20, 1.02
28, 0.00, 64992.55, 0.00, 0.00, 0.00, 0.00, 0.00, 0.00, 0.02, -0.20, 1.02
29, 0.00, 64959.73, 0.00, 0.00, 0.00, 0.00, 0.00, 0.00, 0.02, -0.20, 1.02
30, 0.00, 64938.10, 0.00, 0.00, 0.00, 0.00, 0.00, 0.00, 0.02, -0.20, 1.02
31, 0.00, 64941.79, 0.00, 0.00, 0.00, 0.00, 0.00, 0.00, 0.02, -0.20, 1.02
32, 0.00, 64935.66, 0.00, 0.00, 0.00, 0.00, 0.00, 0.00, 0.02, -0.20, 1.02
33, 0.00, 64954.64, 0.00, 0.00, 0.00, 0.00, 0.00, 0.00, 0.02, -0.20, 1.02
34, 0.00, 65010.43, 0.00, 0.00, 0.00, 0.00, 0.00, 0.00, 0.02, -0.20, 1.02
35, 0.00, 64979.85, 0.00, 0.00, 0.00, 0.00, 0.00, 0.00, 0.02, -0.20, 1.02
36, 0.00, 64992.63, 0.00, 0.00, 0.00, 0.00, 0.00, 0.00, 0.02, -0.20, 1.02
37, 0.00, 64991.23, 0.00, 0.00, 0.00, 0.00, 0.00, 0.00, 0.02, -0.20, 1.02
38, 0.00, 65008.50, 0.00, 0.00, 0.00, 0.00, 0.00, 0.00, 0.02, -0.20, 1.02
39, 0.00, 64968.65, 0.00, 0.00, 0.00, 0.00, 0.00, 0.00, 0.02, -0.20, 1.02
40, 0.00, 64950.12, 0.00, 0.00, 0.00, 0.00, 0.00, 0.00, 0.02, -0.20, 1.02
41, 0.00, 64959.00, 0.00, 0.00, 0.00, 0.00, 0.00, 0.00, 0.02, -0.20, 1.02
42, 0.00, 64956.49, 0.00, 0.00, 0.00, 0.00, 0.00, 0.00, 0.02, -0.20, 1.02
43, 0.00, 64961.52, 0.00, 0.00, 0.00, 0.00, 0.00, 0.00, 0.02, -0.20, 1.02
44, 0.00, 64990.67, 0.00, 0.00, 0.00, 0.00, 0.00, 0.00, 0.02, -0.20, 1.01
45, 0.00, 64979.18, 0.00, 0.00, 0.00, 0.00, 0.00, 0.00, 0.02, -0.20, 1.01
46, 0.00, 64959.44, 0.00, 0.00, 0.00, 0.00, 0.00, 0.00, 0.02, -0.20, 1.01
47, 0.00, 64968.76, 0.00, 0.00, 0.00, 0.00, 0.00, 0.00, 0.02, -0.20, 1.01
48, 0.00, 64986.60, 0.00, 0.00, 0.00, 0.00, 0.00, 0.00, 0.02, -0.20, 1.01
49, 0.00, 64971.02, 0.00, 0.00, 0.00, 0.00, 0.00, 0.00, 0.02, -0.20, 1.02
50, 0.00, 64985.13, 0.00, 0.00, 0.00, 0.00, 0.00, 0.00, 0.02, -0.20, 1.02
51, 0.00, 64976.74, 0.00, 0.00, 0.00, 0.00, 0.00, 0.00, 0.02, -0.20, 1.02
52, 0.00, 64917.80, 0.00, 0.00, 0.00, 0.00, 0.00, 0.00, 0.02, -0.20, 1.02
53, 0.00, 64908.68, 0.00, 0.00, 0.00, 0.00, 0.00, 0.00, 0.02, -0.20, 1.02
54, 0.00, 64999.30, 0.00, 0.00, 0.00, 0.00, 0.00, 0.00, 0.02, -0.20, 1.03
55, 0.00, 65009.06, 0.00, 0.00, 0.00, 0.00, 0.00, 0.00, 0.02, -0.20, 1.03
56, 0.00, 64994.63, 0.00, 0.00, 0.00, 0.00, 0.00, 0.00, 0.02, -0.20, 1.03
57, 0.00, 65004.64, 0.00, 0.00, 0.00, 0.00, 0.00, 0.00, 0.02, -0.20, 1.03
58, 0.00, 64934.86, 0.00, 0.00, 0.00, 0.00, 0.00, 0.00, 0.02, -0.20, 1.03
59, 0.00, 64956.83, 0.00, 0.00, 0.00, 0.00, 0.00, 0.00, 0.02, -0.20, 1.02
60, 0.00, 65007.95, 0.00, 0.00, 0.00, 0.00, 0.00, 0.00, 0.02, -0.20, 1.02
61, 0.00, 65016.66, 0.00, 0.00, 0.00, 0.00, 0.00, 0.00, 0.02, -0.20, 1.02
62, 0.00, 64986.89, 0.00, 0.00, 0.00, 0.00, 0.00, 0.00, 0.02, -0.20, 1.02
63, 0.00, 64909.42, 0.00, 0.00, 0.00, 0.00, 0.00, 0.00, 0.02, -0.20, 1.02
64, 0.00, 64814.91, 0.00, 0.00, 0.00, 0.00, 0.00, 0.00, 0.02, -0.20, 1.02
65, 0.00, 64950.01, 0.00, 0.00, 0.00, 0.00, 0.00, 0.00, 0.02, -0.20, 1.03
66, 0.00, 65003.65, 0.00, 0.00, 0.00, 0.00, 0.00, 0.00, 0.02, -0.20, 1.03
67, 0.00, 64949.14, 0.00, 0.00, 0.00, 0.00, 0.00, 0.00, 0.02, -0.20, 1.03
68, 0.00, 64939.62, 0.00, 0.00, 0.00, 0.00, 0.00, 0.00, 0.02, -0.20, 1.03
69, 0.00, 64942.25, 0.00, 0.00, 0.00, 0.00, 0.00, 0.00, 0.02, -0.20, 1.03
70, 0.00, 64896.99, 0.00, 0.00, 0.00, 0.00, 0.00, 0.00, 0.01, -0.20, 1.02
71, 0.00, 64878.37, 0.00, 0.00, 0.00, 0.00, 0.00, 0.00, 0.01, -0.20, 1.02
72, 0.00, 64918.88, 0.00, 0.00, 0.00, 0.00, 0.00, 0.00, 0.01, -0.20, 1.02
73, 0.00, 64939.93, 0.00, 0.00, 0.00, 0.00, 0.00, 0.00, 0.01, -0.20, 1.02
74, 0.00, 64926.92, 0.00, 0.00, 0.00, 0.00, 0.00, 0.00, 0.01, -0.20, 1.02
75, 0.00, 64912.77, 0.00, 0.00, 0.00, 0.00, 0.00, 0.00, 0.02, -0.21, 1.01
76, 0.00, 64851.21, 0.00, 0.00, 0.00, 0.00, 0.00, 0.00, 0.02, -0.21, 1.01
77, 0.00, 64766.59, 0.00, 0.00, 0.00, 0.00, 0.00, 0.00, 0.02, -0.21, 1.01
78, 0.00, 64805.06, 0.00, 0.00, 0.00, 0.00, 0.00, 0.00, 0.02, -0.21, 1.01
79, 0.00, 64944.11, 0.00, 0.00, 0.00, 0.00, 0.00, 0.00, 0.02, -0.21, 1.01
80, 0.00, 64933.22, 0.00, 0.00, 0.00, 0.00, 0.00, 0.00, 0.02, -0.20, 1.02
81, 0.00, 64871.40, 0.00, 0.00, 0.00, 0.00, 0.00, 0.00, 0.02, -0.20, 1.02
82, 0.00, 64871.09, 0.00, 0.00, 0.00, 0.00, 0.00, 0.00, 0.02, -0.20, 1.02
83, 0.00, 64858.57, 0.00, 0.00, 0.00, 0.00, 0.00, 0.00, 0.02, -0.20, 1.02
84, 0.00, 64796.05, 0.00, 0.00, 0.00, 0.00, 0.00, 0.00, 0.02, -0.20, 1.02
85, 0.00, 64794.71, 0.00, 0.00, 0.00, 0.00, 0.00, 0.00, 0.02, -0.20, 1.03
86, 0.00, 64817.75, 0.00, 0.00, 0.00, 0.00, 0.00, 0.00, 0.02, -0.20, 1.03
87, 0.00, 64885.30, 0.00, 0.00, 0.00, 0.00, 0.00, 0.00, 0.02, -0.20, 1.03
88, 0.00, 64809.77, 0.00, 0.00, 0.00, 0.00, 0.00, 0.00, 0.02, -0.20, 1.03
89, 0.00, 64804.50, 0.00, 0.00, 0.00, 0.00, 0.00, 0.00, 0.02, -0.20, 1.03
90, 0.00, 64802.89, 0.00, 0.00, 0.00, 0.00, 0.00, 0.00, 0.02, -0.19, 1.02
91, 0.00, 64822.83, 0.00, 0.00, 0.00, 0.00, 0.00, 0.00, 0.02, -0.19, 1.02
92, 0.00, 64842.32, 0.00, 0.00, 0.00, 0.00, 0.00, 0.00, 0.02, -0.19, 1.02
93, 0.00, 64764.36, 0.00, 0.00, 0.00, 0.00, 0.00, 0.00, 0.02, -0.19, 1.02
94, 0.00, 64733.87, 0.00, 0.00, 0.00, 0.00, 0.00, 0.00, 0.02, -0.19, 1.02
95, 0.00, 64789.30, 0.00, 0.00, 0.00, 0.00, 0.00, 0.00, 0.02, -0.19, 1.01
96, 0.00, 64888.59, 0.00, 0.00, 0.00, 0.00, 0.00, 0.00, 0.02, -0.19, 1.01
97, 0.00, 64834.09, 0.00, 0.00, 0.00, 0.00, 0.00, 0.00, 0.02, -0.19, 1.01
98, 0.00, 64782.13, 0.00, 0.00, 0.00, 0.00, 0.00, 0.00, 0.02, -0.19, 1.01
99, 0.00, 64788.81, 0.00, 0.00, 0.00, 0.00, 0.00, 0.00, 0.02, -0.19, 1.01
100, 0.00, 64796.97, 0.00, 0.00, 0.00, 0.00, 0.00, 0.00, 0.02, -0.20, 1.01
101, 0.00, 64825.29, 0.00, 0.00, 0.00, 0.00, 0.00, 0.00, 0.02, -0.20, 1.01
102, 0.00, 64802.18, 0.00, 0.00, 0.00, 0.00, 0.00, 0.00, 0.02, -0.20, 1.01
103, 0.00, 64814.38, 0.00, 0.00, 0.00, 0.00, 0.00, 0.00, 0.02, -0.20, 1.01
104, 0.00, 64844.82, 0.00, 0.00, 0.00, 0.00, 0.00, 0.00, 0.02, -0.20, 1.01
105, 0.00, 64878.86, 0.00, 0.00, 0.00, 0.00, 0.00, 0.00, 0.01, -0.19, 1.01
106, 0.00, 64865.95, 0.00, 0.00, 0.00, 0.00, 0.00, 0.00, 0.01, -0.19, 1.01
107, 0.00, 64860.49, 0.00, 0.00, 0.00, 0.00, 0.00, 0.00, 0.01, -0.19, 1.01
108, 0.00, 64852.22, 0.00, 0.00, 0.00, 0.00, 0.00, 0.00, 0.01, -0.19, 1.01
109, 0.00, 64882.55, 0.00, 0.00, 0.00, 0.00, 0.00, 0.00, 0.01, -0.19, 1.01
110, 0.00, 64830.76, 0.00, 0.00, 0.00, 0.00, 0.00, 0.00, 0.02, -0.19, 1.00
111, 0.00, 64821.58, 0.00, 0.00, 0.00, 0.00, 0.00, 0.00, 0.02, -0.19, 1.00
112, 0.00, 64914.16, 0.00, 0.00, 0.00, 0.00, 0.00, 0.00, 0.02, -0.19, 1.00
113, 0.00, 64915.59, 0.00, 0.00, 0.00, 0.00, 0.00, 0.00, 0.02, -0.19, 1.00
114, 0.00, 64889.75, 0.00, 0.00, 0.00, 0.00, 0.00, 0.00, 0.02, -0.19, 1.00
115, 0.00, 64870.01, 0.00, 0.00, 0.00, 0.00, 0.00, 0.00, 0.02, -0.20, 1.01
116, 0.00, 64875.40, 0.00, 0.00, 0.00, 0.00, 0.00, 0.00, 0.02, -0.20, 1.01
117, 0.00, 64851.08, 0.00, 0.00, 0.00, 0.00, 0.00, 0.00, 0.02, -0.20, 1.01
118, 0.00, 64830.59, 0.00, 0.00, 0.00, 0.00, 0.00, 0.00, 0.02, -0.20, 1.01
119, 0.00, 64904.41, 0.00, 0.00, 0.00, 0.00, 0.00, 0.00, 0.02, -0.20, 1.01
120, 0.00, 64906.58, 0.00, 0.00, 0.00, 0.00, 0.00, 0.00, 0.02, -0.20, 1.01
121, 0.00, 64885.86, 0.00, 0.00, 0.00, 0.00, 0.00, 0.00, 0.02, -0.20, 1.01
122, 0.00, 64886.98, 0.00, 0.00, 0.00, 0.00, 0.00, 0.00, 0.02, -0.20, 1.01
123, 0.00, 64875.24, 0.00, 0.00, 0.00, 0.00, 0.00, 0.00, 0.02, -0.20, 1.01
124, 0.00, 64863.06, 0.00, 0.00, 0.00, 0.00, 0.00, 0.00, 0.02, -0.20, 1.01
125, 0.00, 64824.59, 0.00, 0.00, 0.00, 0.00, 0.00, 0.00, 0.02, -0.20, 1.01
126, 0.00, 64889.41, 0.00, 0.00, 0.00, 0.00, 0.00, 0.00, 0.02, -0.20, 1.01
127, 0.00, 64914.87, 0.00, 0.00, 0.00, 0.00, 0.00, 0.00, 0.02, -0.20, 1.01
128, 0.00, 64892.12, 0.00, 0.00, 0.00, 0.00, 0.00, 0.00, 0.02, -0.20, 1.01
129, 0.00, 64878.02, 0.00, 0.00, 0.00, 0.00, 0.00, 0.00, 0.02, -0.20, 1.01
130, 0.00, 64828.35, 0.00, 0.00, 0.00, 0.00, 0.00, 0.00, 0.03, -0.20, 1.01
131, 0.00, 64816.01, 0.00, 0.00, 0.00, 0.00, 0.00, 0.00, 0.03, -0.20, 1.01
132, 0.00, 64864.47, 0.00, 0.00, 0.00, 0.00, 0.00, 0.00, 0.03, -0.20, 1.01
133, 0.00, 64936.40, 0.00, 0.00, 0.00, 0.00, 0.00, 0.00, 0.03, -0.20, 1.01
134, 0.00, 64948.13, 0.00, 0.00, 0.00, 0.00, 0.00, 0.00, 0.03, -0.20, 1.01
135, 0.00, 64902.22, 0.00, 0.00, 0.00, 0.00, 0.00, 0.00, 0.02, -0.20, 1.01
136, 0.00, 64906.04, 0.00, 0.00, 0.00, 0.00, 0.00, 0.00, 0.02, -0.20, 1.01
137, 0.00, 64868.87, 0.00, 0.00, 0.00, 0.00, 0.00, 0.00, 0.02, -0.20, 1.01
138, 0.00, 64886.66, 0.00, 0.00, 0.00, 0.00, 0.00, 0.00, 0.02, -0.20, 1.01
139, 0.00, 64949.85, 0.00, 0.00, 0.00, 0.00, 0.00, 0.00, 0.02, -0.20, 1.01
140, 0.00, 64923.79, 0.00, 0.00, 0.00, 0.00, 0.00, 0.00, 0.02, -0.20, 1.01
141, 0.00, 64885.75, 0.00, 0.00, 0.00, 0.00, 0.00, 0.00, 0.02, -0.20, 1.01
142, 0.00, 64871.49, 0.00, 0.00, 0.00, 0.00, 0.00, 0.00, 0.02, -0.20, 1.01
143, 0.00, 64882.55, 0.00, 0.00, 0.00, 0.00, 0.00, 0.00, 0.02, -0.20, 1.01
144, 0.00, 64903.63, 0.00, 0.00, 0.00, 0.00, 0.00, 0.00, 0.02, -0.20, 1.01
145, 0.00, 64891.31, 0.00, 0.00, 0.00, 0.00, 0.00, 0.00, 0.02, -0.20, 1.01
146, 0.00, 64826.27, 0.00, 0.00, 0.00, 0.00, 0.00, 0.00, 0.02, -0.20, 1.01
147, 0.00, 64881.34, 0.00, 0.00, 0.00, 0.00, 0.00, 0.00, 0.02, -0.20, 1.01
148, 0.00, 64860.04, 0.00, 0.00, 0.00, 0.00, 0.00, 0.00, 0.02, -0.20, 1.01
149, 0.00, 64890.00, 0.00, 0.00, 0.00, 0.00, 0.00, 0.00, 0.02, -0.20, 1.01
150, 0.00, 64916.64, 0.00, 0.00, 0.00, 0.00, 0.00, 0.00, 0.01, -0.20, 1.01
151, 0.00, 64892.66, 0.00, 0.00, 0.00, 0.00, 0.00, 0.00, 0.01, -0.20, 1.01
152, 0.00, 64905.24, 0.00, 0.00, 0.00, 0.00, 0.00, 0.00, 0.01, -0.20, 1.01
153, 0.00, 64877.32, 0.00, 0.00, 0.00, 0.00, 0.00, 0.00, 0.01, -0.20, 1.01
154, 0.00, 64882.53, 0.00, 0.00, 0.00, 0.00, 0.00, 0.00, 0.01, -0.20, 1.01
155, 0.00, 64887.43, 0.00, 0.00, 0.00, 0.00, 0.00, 0.00, 0.01, -0.20, 1.01
156, 0.00, 64909.53, 0.00, 0.00, 0.00, 0.00, 0.00, 0.00, 0.01, -0.20, 1.01
157, 0.00, 64910.45, 0.00, 0.00, 0.00, 0.00, 0.00, 0.00, 0.01, -0.20, 1.01
158, 0.00, 64883.00, 0.00, 0.00, 0.00, 0.00, 0.00, 0.00, 0.01, -0.20, 1.01
159, 0.00, 64889.08, 0.00, 0.00, 0.00, 0.00, 0.00, 0.00, 0.01, -0.20, 1.01
160, 0.00, 64903.21, 0.00, 0.00, 0.00, 0.00, 0.00, 0.00, 0.01, -0.20, 1.01
161, 0.00, 64912.32, 0.00, 0.00, 0.00, 0.00, 0.00, 0.00, 0.01, -0.20, 1.01
162, 0.00, 64883.18, 0.00, 0.00, 0.00, 0.00, 0.00, 0.00, 0.01, -0.20, 1.01
163, 0.00, 64873.21, 0.00, 0.00, 0.00, 0.00, 0.00, 0.00, 0.01, -0.20, 1.01
164, 0.00, 64923.77, 0.00, 0.00, 0.00, 0.00, 0.00, 0.00, 0.01, -0.20, 1.01
165, 0.00, 64937.76, 0.00, 0.00, 0.00, 0.00, 0.00, 0.00, 0.01, -0.20, 1.02
166, 0.00, 64948.09, 0.00, 0.00, 0.00, 0.00, 0.00, 0.00, 0.01, -0.20, 1.02
167, 0.00, 64909.75, 0.00, 0.00, 0.00, 0.00, 0.00, 0.00, 0.01, -0.20, 1.02
168, 0.00, 64922.85, 0.00, 0.00, 0.00, 0.00, 0.00, 0.00, 0.01, -0.20, 1.02
169, 0.00, 64941.83, 0.00, 0.00, 0.00, 0.00, 0.00, 0.00, 0.01, -0.20, 1.02
170, 0.00, 64984.54, 0.00, 0.00, 0.00, 0.00, 0.00, 0.00, 0.01, -0.20, 1.02
171, 0.00, 64936.29, 0.00, 0.00, 0.00, 0.00, 0.00, 0.00, 0.01, -0.20, 1.02
172, 0.00, 64919.93, 0.00, 0.00, 0.00, 0.00, 0.00, 0.00, 0.01, -0.20, 1.02
173, 0.00, 64950.75, 0.00, 0.00, 0.00, 0.00, 0.00, 0.00, 0.01, -0.20, 1.02
174, 0.00, 64968.50, 0.00, 0.00, 0.00, 0.00, 0.00, 0.00, 0.01, -0.20, 1.02
175, 0.00, 64975.76, 0.00, 0.00, 0.00, 0.00, 0.00, 0.00, 0.02, -0.21, 1.02
176, 0.00, 64965.41, 0.00, 0.00, 0.00, 0.00, 0.00, 0.00, 0.02, -0.21, 1.02
177, 0.00, 64972.09, 0.00, 0.00, 0.00, 0.00, 0.00, 0.00, 0.02, -0.21, 1.02
178, 0.00, 64953.54, 0.00, 0.00, 0.00, 0.00, 0.00, 0.00, 0.02, -0.21, 1.02
179, 0.00, 64943.86, 0.00, 0.00, 0.00, 0.00, 0.00, 0.00, 0.02, -0.21, 1.02
180, 0.00, 64970.39, 0.00, 0.00, 0.00, 0.00, 0.00, 0.00, 0.02, -0.20, 1.02
181, 0.00, 64980.70, 0.00, 0.00, 0.00, 0.00, 0.00, 0.00, 0.02, -0.20, 1.02
182, 0.00, 65018.00, 0.00, 0.00, 0.00, 0.00, 0.00, 0.00, 0.02, -0.20, 1.02
183, 0.00, 64986.58, 0.00, 0.00, 0.00, 0.00, 0.00, 0.00, 0.02, -0.20, 1.02
184, 0.00, 64991.02, 0.00, 0.00, 0.00, 0.00, 0.00, 0.00, 0.02, -0.20, 1.02
185, 0.00, 65009.73, 0.00, 0.00, 0.00, 0.00, 0.00, 0.00, 0.02, -0.20, 1.02
186, 0.00, 65008.26, 0.00, 0.00, 0.00, 0.00, 0.00, 0.00, 0.02, -0.20, 1.02
187, 0.00, 64983.74, 0.00, 0.00, 0.00, 0.00, 0.00, 0.00, 0.02, -0.20, 1.02
188, 0.00, 64992.01, 0.00, 0.00, 0.00, 0.00, 0.00, 0.00, 0.02, -0.20, 1.02
189, 0.00, 65009.62, 0.00, 0.00, 0.00, 0.00, 0.00, 0.00, 0.02, -0.20, 1.02
190, 0.00, 64995.81, 0.00, 0.00, 0.00, 0.00, 0.00, 0.00, 0.02, -0.20, 1.02
191, 0.00, 64979.52, 0.00, 0.00, 0.00, 0.00, 0.00, 0.00, 0.02, -0.20, 1.02
192, 0.00, 64973.28, 0.00, 0.00, 0.00, 0.00, 0.00, 0.00, 0.02, -0.20, 1.02
193, 0.00, 65012.37, 0.00, 0.00, 0.00, 0.00, 0.00, 0.00, 0.02, -0.20, 1.02
194, 0.00, 65029.14, 0.00, 0.00, 0.00, 0.00, 0.00, 0.00, 0.02, -0.20, 1.02
195, 0.00, 65043.71, 0.00, 0.00, 0.00, 0.00, 0.00, 0.00, 0.02, -0.20, 1.02
196, 0.00, 65033.94, 0.00, 0.00, 0.00, 0.00, 0.00, 0.00, 0.02, -0.20, 1.02
197, 0.00, 65033.63, 0.00, 0.00, 0.00, 0.00, 0.00, 0.00, 0.02, -0.20, 1.02
198, 0.00, 65028.20, 0.00, 0.00, 0.00, 0.00, 0.00, 0.00, 0.02, -0.20, 1.02
199, 0.00, 65037.00, 0.00, 0.00, 0.00, 0.00, 0.00, 0.00, 0.02, -0.20, 1.02
200, 0.00, 65018.29, 0.00, 0.00, 0.00, 0.00, 0.00, 0.00, 0.02, -0.20, 1.02
201, 0.00, 65022.50, 0.00, 0.00, 0.00, 0.00, 0.00, 0.00, 0.02, -0.20, 1.02
202, 0.00, 65037.79, 0.00, 0.00, 0.00, 0.00, 0.00, 0.00, 0.02, -0.20, 1.02
203, 0.00, 65022.25, 0.00, 0.00, 0.00, 0.00, 0.00, 0.00, 0.02, -0.20, 1.02
204, 0.00, 65021.96, 0.00, 0.00, 0.00, 0.00, 0.00, 0.00, 0.02, -0.20, 1.02
205, 0.00, 65034.05, 0.00, 0.00, 0.00, 0.00, 0.00, 0.00, 0.02, -0.19, 1.02
206, 0.00, 65046.59, 0.00, 0.00, 0.00, 0.00, 0.00, 0.00, 0.02, -0.19, 1.02
207, 0.00, 65031.75, 0.00, 0.00, 0.00, 0.00, 0.00, 0.00, 0.02, -0.19, 1.02
208, 0.00, 65040.78, 0.00, 0.00, 0.00, 0.00, 0.00, 0.00, 0.02, -0.19, 1.02
209, 0.00, 65021.69, 0.00, 0.00, 0.00, 0.00, 0.00, 0.00, 0.02, -0.19, 1.02
210, 0.00, 65022.74, 0.00, 0.00, 0.00, 0.00, 0.00, 0.00, 0.02, -0.20, 1.02
211, 0.00, 65054.53, 0.00, 0.00, 0.00, 0.00, 0.00, 0.00, 0.02, -0.20, 1.02
212, 0.00, 65041.74, 0.00, 0.00, 0.00, 0.00, 0.00, 0.00, 0.02, -0.20, 1.02
213, 0.00, 65036.49, 0.00, 0.00, 0.00, 0.00, 0.00, 0.00, 0.02, -0.20, 1.02
214, 0.00, 65055.82, 0.00, 0.00, 0.00, 0.00, 0.00, 0.00, 0.02, -0.20, 1.02
215, 0.00, 65025.43, 0.00, 0.00, 0.00, 0.00, 0.00, 0.00, 0.02, -0.20, 1.01
216, 0.00, 64998.40, 0.00, 0.00, 0.00, 0.00, 0.00, 0.00, 0.02, -0.20, 1.01
217, 0.00, 65028.89, 0.00, 0.00, 0.00, 0.00, 0.00, 0.00, 0.02, -0.20, 1.01
218, 0.00, 65062.89, 0.00, 0.00, 0.00, 0.00, 0.00, 0.00, 0.02, -0.20, 1.01
219, 0.00, 65052.61, 0.00, 0.00, 0.00, 0.00, 0.00, 0.00, 0.02, -0.20, 1.01
220, 0.00, 65041.99, 0.00, 0.00, 0.00, 0.00, 0.00, 0.00, 0.03, -0.20, 1.01
221, 0.00, 65057.79, 0.00, 0.00, 0.00, 0.00, 0.00, 0.00, 0.03, -0.20, 1.01
222, 0.00, 65074.49, 0.00, 0.00, 0.00, 0.00, 0.00, 0.00, 0.03, -0.20, 1.01
223, 0.00, 65088.95, 0.00, 0.00, 0.00, 0.00, 0.00, 0.00, 0.03, -0.20, 1.01
224, 0.00, 65056.85, 0.00, 0.00, 0.00, 0.00, 0.00, 0.00, 0.03, -0.20, 1.01
225, 0.00, 65033.49, 0.00, 0.00, 0.00, 0.00, 0.00, 0.00, 0.02, -0.21, 1.01
226, 0.00, 65045.34, 0.00, 0.00, 0.00, 0.00, 0.00, 0.00, 0.02, -0.21, 1.01
227, 0.00, 65047.33, 0.00, 0.00, 0.00, 0.00, 0.00, 0.00, 0.02, -0.21, 1.01
228, 0.00, 65050.55, 0.00, 0.00, 0.00, 0.00, 0.00, 0.00, 0.02, -0.21, 1.01
229, 0.00, 65045.00, 0.00, 0.00, 0.00, 0.00, 0.00, 0.00, 0.02, -0.21, 1.01
230, 0.00, 65066.73, 0.00, 0.00, 0.00, 0.00, 0.00, 0.00, 0.02, -0.20, 1.02
231, 0.00, 65045.07, 0.00, 0.00, 0.00, 0.00, 0.00, 0.00, 0.02, -0.20, 1.02
232, 0.00, 65035.77, 0.00, 0.00, 0.00, 0.00, 0.00, 0.00, 0.02, -0.20, 1.02
233, 0.00, 65030.01, 0.00, 0.00, 0.00, 0.00, 0.00, 0.00, 0.02, -0.20, 1.02
234, 0.00, 65051.13, 0.00, 0.00, 0.00, 0.00, 0.00, 0.00, 0.02, -0.20, 1.02
235, 0.00, 65064.65, 0.00, 0.00, 0.00, 0.00, 0.00, 0.00, 0.02, -0.20, 1.02
236, 0.00, 65052.27, 0.00, 0.00, 0.00, 0.00, 0.00, 0.00, 0.02, -0.20, 1.02
237, 0.00, 65058.21, 0.00, 0.00, 0.00, 0.00, 0.00, 0.00, 0.02, -0.20, 1.02
238, 0.00, 65023.48, 0.00, 0.00, 0.00, 0.00, 0.00, 0.00, 0.02, -0.20, 1.02
239, 0.00, 65039.89, 0.00, 0.00, 0.00, 0.00, 0.00, 0.00, 0.02, -0.20, 1.02
240, 0.00, 65065.77, 0.00, 0.00, 0.00, 0.00, 0.00, 0.00, 0.02, -0.20, 1.02
241, 0.00, 65057.01, 0.00, 0.00, 0.00, 0.00, 0.00, 0.00, 0.02, -0.20, 1.02
242, 0.00, 65049.07, 0.00, 0.00, 0.00, 0.00, 0.00, 0.00, 0.02, -0.20, 1.02
243, 0.00, 65054.84, 0.00, 0.00, 0.00, 0.00, 0.00, 0.00, 0.02, -0.20, 1.02
244, 0.00, 65065.14, 0.00, 0.00, 0.00, 0.00, 0.00, 0.00, 0.02, -0.20, 1.02
245, 0.00, 65043.24, 0.00, 0.00, 0.00, 0.00, 0.00, 0.00, 0.02, -0.20, 1.02
246, 0.00, 65040.24, 0.00, 0.00, 0.00, 0.00, 0.00, 0.00, 0.02, -0.20, 1.03
247, 0.00, 65063.96, 0.00, 0.00, 0.00, 0.00, 0.00, 0.00, 0.02, -0.20, 1.03
248, 0.00, 65049.00, 0.00, 0.00, 0.00, 0.00, 0.00, 0.00, 0.02, -0.20, 1.03
249, 0.00, 65071.31, 0.00, 0.00, 0.00, 0.00, 0.00, 0.00, 0.02, -0.20, 1.03
250, 0.00, 65083.79, 0.00, 0.00, 0.00, 0.00, 0.00, 0.00, 0.02, -0.20, 1.03
251, 0.00, 65074.20, 0.00, 0.00, 0.00, 0.00, 0.00, 0.00, 0.02, -0.20, 1.02
252, 0.00, 65074.29, 0.00, 0.00, 0.00, 0.00, 0.00, 0.00, 0.02, -0.20, 1.02
253, 0.00, 65069.23, 0.00, 0.00, 0.00, 0.00, 0.00, 0.00, 0.02, -0.20, 1.02
254, 0.00, 65043.48, 0.00, 0.00, 0.00, 0.00, 0.00, 0.00, 0.02, -0.20, 1.02
255, 0.00, 65030.63, 0.00, 0.00, 0.00, 0.00, 0.00, 0.00, 0.02, -0.20, 1.02
0, 0.00, 65072.92, 0.00, 0.00, 0.00, 0.00, 0.00, 0.00, 0.02, -0.20, 1.02
1, 0.00, 65072.34, 0.00, 0.00, 0.00, 0.00, 0.00, 0.00, 0.02, -0.20, 1.02
2, 0.00, 65051.60, 0.00, 0.00, 0.00, 0.00, 0.00, 0.00, 0.02, -0.20, 1.02
3, 0.00, 65046.26, 0.00, 0.00, 0.00, 0.00, 0.00, 0.00, 0.02, -0.20, 1.02
4, 0.00, 65060.14, 0.00, 0.00, 0.00, 0.00, 0.00, 0.00, 0.02, -0.20, 1.02
5, 0.00, 65087.25, 0.00, 0.00, 0.00, 0.00, 0.00, 0.00, 0.02, -0.20, 1.02
6, 0.00, 65055.73, 0.00, 0.00, 0.00, 0.00, 0.00, 0.00, 0.02, -0.20, 1.02
7, 0.00, 65045.23, 0.00, 0.00, 0.00, 0.00, 0.00, 0.00, 0.02, -0.20, 1.02
8, 0.00, 65090.20, 0.00, 0.00, 0.00, 0.00, 0.00, 0.00, 0.02, -0.20, 1.02
9, 0.00, 65081.66, 0.00, 0.00, 0.00, 0.00, 0.00, 0.00, 0.02, -0.20, 1.02
10, 0.00, 65082.11, 0.00, 0.00, 0.00, 0.00, 0.00, 0.00, 0.02, -0.20, 1.02
11, 0.00, 65103.10, 0.00, 0.00, 0.00, 0.00, 0.00, 0.00, 0.02, -0.20, 1.02
12, 0.00, 65075.07, 0.00, 0.00, 0.00, 0.00, 0.00, 0.00, 0.02, -0.20, 1.02
13, 0.00, 65078.09, 0.00, 0.00, 0.00, 0.00, 0.00, 0.00, 0.02, -0.20, 1.02
14, 0.00, 65088.19, 0.00, 0.00, 0.00, 0.00, 0.00, 0.00, 0.02, -0.20, 1.02
15, 0.00, 65094.65, 0.00, 0.00, 0.00, 0.00, 0.00, 0.00, 0.03, -0.20, 1.01
16, 0.00, 65101.31, 0.00, 0.00, 0.00, 0.00, 0.00, 0.00, 0.03, -0.20, 1.01
17, 0.00, 65111.55, 0.00, 0.00, 0.00, 0.00, 0.00, 0.00, 0.03, -0.20, 1.01
18, 0.00, 65108.46, 0.00, 0.00, 0.00, 0.00, 0.00, 0.00, 0.03, -0.20, 1.01
19, 0.00, 65102.07, 0.00, 0.00, 0.00, 0.00, 0.00, 0.00, 0.03, -0.20, 1.01
20, 0.00, 65089.77, 0.00, 0.00, 0.00, 0.00, 0.00, 0.00, 0.02, -0.20, 1.02
21, 0.00, 65147.64, 0.00, 0.00, 0.00, 0.00, 0.00, 0.00, 0.02, -0.20, 1.02
22, 0.00, 65110.99, 0.00, 0.00, 0.00, 0.00, 0.00, 0.00, 0.02, -0.20, 1.02
23, 0.00, 65067.47, 0.00, 0.00, 0.00, 0.00, 0.00, 0.00, 0.02, -0.20, 1.02
24, 0.00, 65086.29, 0.00, 0.00, 0.00, 0.00, 0.00, 0.00, 0.02, -0.20, 1.02
25, 0.00, 65151.51, 0.00, 0.00, 0.00, 0.00, 0.00, 0.00, 0.02, -0.20, 1.02
26, 0.00, 65134.32, 0.00, 0.00, 0.00, 0.00, 0.00, 0.00, 0.02, -0.20, 1.02
27, 0.00, 65060.58, 0.00, 0.00, 0.00, 0.00, 0.00, 0.00, 0.02, -0.20, 1.02
28, 0.00, 65012.59, 0.00, 0.00, 0.00, 0.00, 0.00, 0.00, 0.02, -0.20, 1.02
29, 0.00, 64993.82, 0.00, 0.00, 0.00, 0.00, 0.00, 0.00, 0.02, -0.20, 1.02
30, 0.00, 65000.84, 0.00, 0.00, 0.00, 0.00, 0.00, 0.00, 0.02, -0.20, 1.01
31, 0.00, 64990.24, 0.00, 0.00, 0.00, 0.00, 0.00, 0.00, 0.02, -0.20, 1.01
32, 0.00, 64948.42, 0.00, 0.00, 0.00, 0.00, 0.00, 0.00, 0.02, -0.20, 1.01
33, 0.00, 64913.80, 0.00, 0.00, 0.00, 0.00, 0.00, 0.00, 0.02, -0.20, 1.01
34, 0.00, 64874.55, 0.00, 0.00, 0.00, 0.00, 0.00, 0.00, 0.02, -0.20, 1.01
35, 0.00, 64915.05, 0.00, 0.00, 0.00, 0.00, 0.00, 0.00, 0.02, -0.20, 1.01
36, 0.00, 64880.50, 0.00, 0.00, 0.00, 0.00, 0.00, 0.00, 0.02, -0.20, 1.01
37, 0.00, 64835.46, 0.00, 0.00, 0.00, 0.00, 0.00, 0.00, 0.02, -0.20, 1.01
38, 0.00, 64785.07, 0.00, 0.00, 0.00, 0.00, 0.00, 0.00, 0.02, -0.20, 1.01
39, 0.00, 64753.43, 0.00, 0.00, 0.00, 0.00, 0.00, 0.00, 0.02, -0.20, 1.01
40, 0.00, 64791.60, 0.00, 0.00, 0.00, 0.00, 0.00, 0.00, 0.02, -0.20, 1.01
41, 0.00, 64847.28, 0.00, 0.00, 0.00, 0.00, 0.00, 0.00, 0.02, -0.20, 1.01
42, 0.00, 64802.82, 0.00, 0.00, 0.00, 0.00, 0.00, 0.00, 0.02, -0.20, 1.01
43, 0.00, 64810.36, 0.00, 0.00, 0.00, 0.00, 0.00, 0.00, 0.02, -0.20, 1.01
44, 0.00, 64810.02, 0.00, 0.00, 0.00, 0.00, 0.00, 0.00, 0.02, -0.20, 1.01
45, 0.00, 64849.67, 0.00, 0.00, 0.00, 0.00, 0.00, 0.00, 0.02, -0.20, 1.01
46, 0.00, 64850.45, 0.00, 0.00, 0.00, 0.00, 0.00, 0.00, 0.02, -0.20, 1.01
47, 0.00, 64803.07, 0.00, 0.00, 0.00, 0.00, 0.00, 0.00, 0.02, -0.20, 1.01
48, 0.00, 64823.77, 0.00, 0.00, 0.00, 0.00, 0.00, 0.00, 0.02, -0.20, 1.01
49, 0.00, 64831.97, 0.00, 0.00, 0.00, 0.00, 0.00, 0.00, 0.02, -0.20, 1.01
50, 0.00, 64821.58, 0.00, 0.00, 0.00, 0.00, 0.00, 0.00, 0.02, -0.21, 1.01
51, 0.00, 64818.67, 0.00, 0.00, 0.00, 0.00, 0.00, 0.00, 0.02, -0.21, 1.01
52, 0.00, 64844.33, 0.00, 0.00, 0.00, 0.00, 0.00, 0.00, 0.02, -0.21, 1.01
53, 0.00, 64844.75, 0.00, 0.00, 0.00, 0.00, 0.00, 0.00, 0.02, -0.21, 1.01
54, 0.00, 64884.05, 0.00, 0.00, 0.00, 0.00, 0.00, 0.00, 0.02, -0.21, 1.01
55, 0.00, 64881.73, 0.00, 0.00, 0.00, 0.00, 0.00, 0.00, 0.02, -0.20, 1.02
56, 0.00, 64885.82, 0.00, 0.00, 0.00, 0.00, 0.00, 0.00, 0.02, -0.20, 1.02
57, 0.00, 64910.27, 0.00, 0.00, 0.00, 0.00, 0.00, 0.00, 0.02, -0.20, 1.02
58, 0.00, 64901.02, 0.00, 0.00, 0.00, 0.00, 0.00, 0.00, 0.02, -0.20, 1.02
59, 0.00, 64889.97, 0.00, 0.00, 0.00, 0.00, 0.00, 0.00, 0.02, -0.20, 1.02
60, 0.00, 64889.41, 0.00, 0.00, 0.00, 0.00, 0.00, 0.00, 0.02, -0.20, 1.01
61, 0.00, 64921.22, 0.00, 0.00, 0.00, 0.00, 0.00, 0.00, 0.02, -0.20, 1.01
62, 0.00, 64930.09, 0.00, 0.00, 0.00, 0.00, 0.00, 0.00, 0.02, -0.20, 1.01
63, 0.00, 64913.91, 0.00, 0.00, 0.00, 0.00, 0.00, 0.00, 0.02, -0.20, 1.01
64, 0.00, 64927.81, 0.00, 0.00, 0.00, 0.00, 0.00, 0.00, 0.02, -0.20, 1.01
65, 0.00, 64953.43, 0.00, 0.00, 0.00, 0.00, 0.00, 0.00, 0.02, -0.20, 1.01
66, 0.00, 64959.29, 0.00, 0.00, 0.00, 0.00, 0.00, 0.00, 0.02, -0.20, 1.01
67, 0.00, 64937.43, 0.00, 0.00, 0.00, 0.00, 0.00, 0.00, 0.02, -0.20, 1.01
68, 0.00, 64917.91, 0.00, 0.00, 0.00, 0.00, 0.00, 0.00, 0.02, -0.20, 1.01
69, 0.00, 64957.03, 0.00, 0.00, 0.00, 0.00, 0.00, 0.00, 0.02, -0.20, 1.01
70, 0.00, 64956.54, 0.00, 0.00, 0.00, 0.00, 0.00, 0.00, 0.02, -0.20, 1.02
