%OpenBCI Raw EEG Data
%
%Sample Rate = 250.0 Hz
%First Column = SampleIndex
%Other Columns = EEG data in microvolts followed by Accel Data (in G) interleaved with Aux Data
112, 0.00, 86446.28, 0.00, 0.00, 0.00, 0.00, 0.00, 0.00, 0.01, -0.01, 1.03
113, 0.00, 86435.76, 0.00, 0.00, 0.00, 0.00, 0.00, 0.00, 0.01, -0.01, 1.03
114, 0.00, 86440.61, 0.00, 0.00, 0.00, 0.00, 0.00, 0.00, 0.01, -0.01, 1.03
115, 0.00, 86420.80, 0.00, 0.00, 0.00, 0.00, 0.00, 0.00, 0.01, -0.01, 1.03
116, 0.00, 86406.23, 0.00, 0.00, 0.00, 0.00, 0.00, 0.00, 0.01, -0.01, 1.03
117, 0.00, 86445.81, 0.00, 0.00, 0.00, 0.00, 0.00, 0.00, 0.01, -0.01, 1.03
118, 0.00, 86468.64, 0.00, 0.00, 0.00, 0.00, 0.00, 0.00, 0.01, -0.01, 1.03
119, 0.00, 86498.63, 0.00, 0.00, 0.00, 0.00, 0.00, 0.00, 0.01, -0.01, 1.03
120, 0.00, 86495.68, 0.00, 0.00, 0.00, 0.00, 0.00, 0.00, 0.01, -0.01, 1.03
121, 0.00, 86465.69, 0.00, 0.00, 0.00, 0.00, 0.00, 0.00, 0.01, -0.01, 1.03
122, 0.00, 86485.29, 0.00, 0.00, 0.00, 0.00, 0.00, 0.00, 0.01, -0.01, 1.03
123, 0.00, 86474.34, 0.00, 0.00, 0.00, 0.00, 0.00, 0.00, 0.01, -0.01, 1.03
124, 0.00, 86433.50, 0.00, 0.00, 0.00, 0.00, 0.00, 0.00, 0.01, 0.00, 1.03
125, 0.00, 86457.22, 0.00, 0.00, 0.00, 0.00, 0.00, 0.00, 0.01, 0.00, 1.03
126, 0.00, 86452.37, 0.00, 0.00, 0.00, 0.00, 0.00, 0.00, 0.01, 0.00, 1.03
127, 0.00, 86432.59, 0.00, 0.00, 0.00, 0.00, 0.00, 0.00, 0.01, 0.00, 1.03
128, 0.00, 86461.80, 0.00, 0.00, 0.00, 0.00, 0.00, 0.00, 0.01, 0.00, 1.03
129, 0.00, 86471.27, 0.00, 0.00, 0.00, 0.00, 0.00, 0.00, 0.02, 0.00, 1.03
130, 0.00, 86477.64, 0.00, 0.00, 0.00, 0.00, 0.00, 0.00, 0.02, 0.00, 1.03
131, 0.00, 86460.21, 0.00, 0.00, 0.00, 0.00, 0.00, 0.00, 0.02, 0.00, 1.03
132, 0.00, 86475.39, 0.00, 0.00, 0.00, 0.00, 0.00, 0.00, 0.02, 0.00, 1.03
133, 0.00, 86491.37, 0.00, 0.00, 0.00, 0.00, 0.00, 0.00, 0.02, 0.00, 1.03
134, 0.00, 86477.35, 0.00, 0.00, 0.00, 0.00, 0.00, 0.00, 0.01, 0.00, 1.03
135, 0.00, 86478.09, 0.00, 0.00, 0.00, 0.00, 0.00, 0.00, 0.01, 0.00, 1.03
136, 0.00, 86504.66, 0.00, 0.00, 0.00, 0.00, 0.00, 0.00, 0.01, 0.00, 1.03
137, 0.00, 86492.44, 0.00, 0.00, 0.00, 0.00, 0.00, 0.00, 0.01, 0.00, 1.03
138, 0.00, 86458.58, 0.00, 0.00, 0.00, 0.00, 0.00, 0.00, 0.01, 0.00, 1.03
139, 0.00, 86437.95, 0.00, 0.00, 0.00, 0.00, 0.00, 0.00, 0.02, -0.00, 1.03
140, 0.00, 86451.59, 0.00, 0.00, 0.00, 0.00, 0.00, 0.00, 0.02, -0.00, 1.03
141, 0.00, 86482.25, 0.00, 0.00, 0.00, 0.00, 0.00, 0.00, 0.02, -0.00, 1.03
142, 0.00, 86478.92, 0.00, 0.00, 0.00, 0.00, 0.00, 0.00, 0.02, -0.00, 1.03
143, 0.00, 86479.68, 0.00, 0.00, 0.00, 0.00, 0.00, 0.00, 0.02, -0.00, 1.03
144, 0.00, 86484.82, 0.00, 0.00, 0.00, 0.00, 0.00, 0.00, 0.02, -0.00, 1.03
145, 0.00, 86498.99, 0.00, 0.00, 0.00, 0.00, 0.00, 0.00, 0.02, 0.00, 1.03
146, 0.00, 86492.51, 0.00, 0.00, 0.00, 0.00, 0.00, 0.00, 0.02, 0.00, 1.03
147, 0.00, 86469.06, 0.00, 0.00, 0.00, 0.00, 0.00, 0.00, 0.02, 0.00, 1.03
148, 0.00, 86475.99, 0.00, 0.00, 0.00, 0.00, 0.00, 0.00, 0.02, 0.00, 1.03
149, 0.00, 86470.56, 0.00, 0.00, 0.00, 0.00, 0.00, 0.00, 0.02, 0.00, 1.03
150, 0.00, 86464.81, 0.00, 0.00, 0.00, 0.00, 0.00, 0.00, 0.02, 0.00, 1.03
151, 0.00, 86468.55, 0.00, 0.00, 0.00, 0.00, 0.00, 0.00, 0.02, 0.00, 1.03
152, 0.00, 86482.49, 0.00, 0.00, 0.00, 0.00, 0.00, 0.00, 0.02, 0.00, 1.03
153, 0.00, 86455.67, 0.00, 0.00, 0.00, 0.00, 0.00, 0.00, 0.02, 0.00, 1.03
154, 0.00, 86479.77, 0.00, 0.00, 0.00, 0.00, 0.00, 0.00, 0.02, 0.00, 1.03
155, 0.00, 86465.73, 0.00, 0.00, 0.00, 0.00, 0.00, 0.00, 0.02, 0.00, 1.03
156, 0.00, 86442.09, 0.00, 0.00, 0.00, 0.00, 0.00, 0.00, 0.02, 0.00, 1.03
157, 0.00, 86455.52, 0.00, 0.00, 0.00, 0.00, 0.00, 0.00, 0.02, 0.00, 1.03
158, 0.00, 86450.48, 0.00, 0.00, 0.00, 0.00, 0.00, 0.00, 0.02, 0.00, 1.03
159, 0.00, 86453.66, 0.00, 0.00, 0.00, 0.00, 0.00, 0.00, 0.02, 0.00, 1.03
160, 0.00, 86480.88, 0.00, 0.00, 0.00, 0.00, 0.00, 0.00, 0.02, 0.00, 1.03
161, 0.00, 86478.77, 0.00, 0.00, 0.00, 0.00, 0.00, 0.00, 0.02, 0.00, 1.03
162, 0.00, 86487.45, 0.00, 0.00, 0.00, 0.00, 0.00, 0.00, 0.02, 0.00, 1.03
163, 0.00, 86501.56, 0.00, 0.00, 0.00, 0.00, 0.00, 0.00, 0.02, 0.00, 1.03
164, 0.00, 86511.53, 0.00, 0.00, 0.00, 0.00, 0.00, 0.00, 0.02, 0.00, 1.03
165, 0.00, 86504.65, 0.00, 0.00, 0.00, 0.00, 0.00, 0.00, 0.02, -0.00, 1.03
166, 0.00, 86487.34, 0.00, 0.00, 0.00, 0.00, 0.00, 0.00, 0.02, -0.00, 1.03
167, 0.00, 86509.48, 0.00, 0.00, 0.00, 0.00, 0.00, 0.00, 0.02, -0.00, 1.03
168, 0.00, 86497.13, 0.00, 0.00, 0.00, 0.00, 0.00, 0.00, 0.02, -0.00, 1.03
169, 0.00, 86461.71, 0.00, 0.00, 0.00, 0.00, 0.00, 0.00, 0.02, -0.00, 1.03
170, 0.00, 86454.45, 0.00, 0.00, 0.00, 0.00, 0.00, 0.00, 0.01, -0.01, 1.03
171, 0.00, 86456.34, 0.00, 0.00, 0.00, 0.00, 0.00, 0.00, 0.01, -0.01, 1.03
172, 0.00, 86473.45, 0.00, 0.00, 0.00, 0.00, 0.00, 0.00, 0.01, -0.01, 1.03
173, 0.00, 86502.73, 0.00, 0.00, 0.00, 0.00, 0.00, 0.00, 0.01, -0.01, 1.03
174, 0.00, 86510.14, 0.00, 0.00, 0.00, 0.00, 0.00, 0.00, 0.01, -0.01, 1.03
175, 0.00, 86517.41, 0.00, 0.00, 0.00, 0.00, 0.00, 0.00, 0.01, -0.01, 1.03
176, 0.00, 86462.16, 0.00, 0.00, 0.00, 0.00, 0.00, 0.00, 0.01, -0.01, 1.03
177, 0.00, 86479.57, 0.00, 0.00, 0.00, 0.00, 0.00, 0.00, 0.01, -0.01, 1.03
178, 0.00, 86502.41, 0.00, 0.00, 0.00, 0.00, 0.00, 0.00, 0.01, -0.01, 1.03
179, 0.00, 86507.71, 0.00, 0.00, 0.00, 0.00, 0.00, 0.00, 0.01, -0.01, 1.03
180, 0.00, 86472.15, 0.00, 0.00, 0.00, 0.00, 0.00, 0.00, 0.02, -0.00, 1.03
181, 0.00, 86454.00, 0.00, 0.00, 0.00, 0.00, 0.00, 0.00, 0.02, -0.00, 1.03
182, 0.00, 86455.72, 0.00, 0.00, 0.00, 0.00, 0.00, 0.00, 0.02, -0.00, 1.03
183, 0.00, 86454.35, 0.00, 0.00, 0.00, 0.00, 0.00, 0.00, 0.02, -0.00, 1.03
184, 0.00, 86463.05, 0.00, 0.00, 0.00, 0.00, 0.00, 0.00, 0.02, -0.00, 1.03
185, 0.00, 86504.16, 0.00, 0.00, 0.00, 0.00, 0.00, 0.00, 0.01, -0.01, 1.03
186, 0.00, 86483.34, 0.00, 0.00, 0.00, 0.00, 0.00, 0.00, 0.01, -0.01, 1.03
187, 0.00, 86484.91, 0.00, 0.00, 0.00, 0.00, 0.00, 0.00, 0.01, -0.01, 1.03
188, 0.00, 86507.28, 0.00, 0.00, 0.00, 0.00, 0.00, 0.00, 0.01, -0.01, 1.03
189, 0.00, 86507.98, 0.00, 0.00, 0.00, 0.00, 0.00, 0.00, 0.01, -0.01, 1.03
190, 0.00, 86481.00, 0.00, 0.00, 0.00, 0.00, 0.00, 0.00, 0.02, -0.01, 1.03
191, 0.00, 86486.74, 0.00, 0.00, 0.00, 0.00, 0.00, 0.00, 0.02, -0.01, 1.03
192, 0.00, 86526.08, 0.00, 0.00, 0.00, 0.00, 0.00, 0.00, 0.02, -0.01, 1.03
193, 0.00, 86543.52, 0.00, 0.00, 0.00, 0.00, 0.00, 0.00, 0.02, -0.01, 1.03
194, 0.00, 86516.41, 0.00, 0.00, 0.00, 0.00, 0.00, 0.00, 0.02, -0.01, 1.03
195, 0.00, 86498.74, 0.00, 0.00, 0.00, 0.00, 0.00, 0.00, 0.02, -0.01, 1.04
196, 0.00, 86509.88, 0.00, 0.00, 0.00, 0.00, 0.00, 0.00, 0.02, -0.01, 1.04
197, 0.00, 86478.12, 0.00, 0.00, 0.00, 0.00, 0.00, 0.00, 0.02, -0.01, 1.04
198, 0.00, 86462.27, 0.00, 0.00, 0.00, 0.00, 0.00, 0.00, 0.02, -0.01, 1.04
199, 0.00, 86487.52, 0.00, 0.00, 0.00, 0.00, 0.00, 0.00, 0.02, -0.01, 1.04
200, 0.00, 86520.45, 0.00, 0.00, 0.00, 0.00, 0.00, 0.00, 0.02, -0.01, 1.04
201, 0.00, 86493.31, 0.00, 0.00, 0.00, 0.00, 0.00, 0.00, 0.02, -0.01, 1.04
202, 0.00, 86491.23, 0.00, 0.00, 0.00, 0.00, 0.00, 0.00, 0.02, -0.01, 1.04
203, 0.00, 86483.27, 0.00, 0.00, 0.00, 0.00, 0.00, 0.00, 0.02, -0.01, 1.04
204, 0.00, 86498.27, 0.00, 0.00, 0.00, 0.00, 0.00, 0.00, 0.02, -0.01, 1.04
205, 0.00, 86497.47, 0.00, 0.00, 0.00, 0.00, 0.00, 0.00, 0.01, -0.01, 1.04
206, 0.00, 86492.55, 0.00, 0.00, 0.00, 0.00, 0.00, 0.00, 0.01, -0.01, 1.04
207, 0.00, 86507.08, 0.00, 0.00, 0.00, 0.00, 0.00, 0.00, 0.01, -0.01, 1.04
208, 0.00, 86510.10, 0.00, 0.00, 0.00, 0.00, 0.00, 0.00, 0.01, -0.01, 1.04
209, 0.00, 86493.07, 0.00, 0.00, 0.00, 0.00, 0.00, 0.00, 0.01, -0.01, 1.04
210, 0.00, 86481.87, 0.00, 0.00, 0.00, 0.00, 0.00, 0.00, 0.01, -0.01, 1.04
211, 0.00, 86479.30, 0.00, 0.00, 0.00, 0.00, 0.00, 0.00, 0.01, -0.01, 1.04
212, 0.00, 86486.92, 0.00, 0.00, 0.00, 0.00, 0.00, 0.00, 0.01, -0.01, 1.04
213, 0.00, 86506.86, 0.00, 0.00, 0.00, 0.00, 0.00, 0.00, 0.01, -0.01, 1.04
214, 0.00, 86498.70, 0.00, 0.00, 0.00, 0.00, 0.00, 0.00, 0.01, -0.01, 1.04
215, 0.00, 86495.26, 0.00, 0.00, 0.00, 0.00, 0.00, 0.00, 0.02, -0.01, 1.03
216, 0.00, 86478.63, 0.00, 0.00, 0.00, 0.00, 0.00, 0.00, 0.02, -0.01, 1.03
217, 0.00, 86508.89, 0.00, 0.00, 0.00, 0.00, 0.00, 0.00, 0.02, -0.01, 1.03
218, 0.00, 86530.51, 0.00, 0.00, 0.00, 0.00, 0.00, 0.00, 0.02, -0.01, 1.03
219, 0.00, 86499.08, 0.00, 0.00, 0.00, 0.00, 0.00, 0.00, 0.02, -0.01, 1.03
220, 0.00, 86480.73, 0.00, 0.00, 0.00, 0.00, 0.00, 0.00, 0.02, 0.00, 1.03
221, 0.00, 86505.61, 0.00, 0.00, 0.00, 0.00, 0.00, 0.00, 0.02, 0.00, 1.03
222, 0.00, 86514.68, 0.00, 0.00, 0.00, 0.00, 0.00, 0.00, 0.02, 0.00, 1.03
223, 0.00, 86493.34, 0.00, 0.00, 0.00, 0.00, 0.00, 0.00, 0.02, 0.00, 1.03
224, 0.00, 86492.55, 0.00, 0.00, 0.00, 0.00, 0.00, 0.00, 0.02, 0.00, 1.03
225, 0.00, 86504.84, 0.00, 0.00, 0.00, 0.00, 0.00, 0.00, 0.02, 0.00, 1.03
226, 0.00, 86496.69, 0.00, 0.00, 0.00, 0.00, 0.00, 0.00, 0.02, 0.00, 1.03
227, 0.00, 86518.08, 0.00, 0.00, 0.00, 0.00, 0.00, 0.00, 0.02, 0.00, 1.03
228, 0.00, 86501.85, 0.00, 0.00, 0.00, 0.00, 0.00, 0.00, 0.02, 0.00, 1.03
229, 0.00, 86470.94, 0.00, 0.00, 0.00, 0.00, 0.00, 0.00, 0.02, 0.00, 1.03
230, 0.00, 86489.16, 0.00, 0.00, 0.00, 0.00, 0.00, 0.00, 0.01, 0.00, 1.03
231, 0.00, 86517.63, 0.00, 0.00, 0.00, 0.00, 0.00, 0.00, 0.01, 0.00, 1.03
232, 0.00, 86502.23, 0.00, 0.00, 0.00, 0.00, 0.00, 0.00, 0.01, 0.00, 1.03
233, 0.00, 86500.09, 0.00, 0.00, 0.00, 0.00, 0.00, 0.00, 0.01, 0.00, 1.03
234, 0.00, 86511.15, 0.00, 0.00, 0.00, 0.00, 0.00, 0.00, 0.01, 0.00, 1.03
235, 0.00, 86535.96, 0.00, 0.00, 0.00, 0.00, 0.00, 0.00, 0.02, 0.00, 1.03
236, 0.00, 86532.79, 0.00, 0.00, 0.00, 0.00, 0.00, 0.00, 0.02, 0.00, 1.03
237, 0.00, 86528.70, 0.00, 0.00, 0.00, 0.00, 0.00, 0.00, 0.02, 0.00, 1.03
238, 0.00, 86514.10, 0.00, 0.00, 0.00, 0.00, 0.00, 0.00, 0.02, 0.00, 1.03
239, 0.00, 86508.20, 0.00, 0.00, 0.00, 0.00, 0.00, 0.00, 0.02, 0.00, 1.03
240, 0.00, 86523.48, 0.00, 0.00, 0.00, 0.00, 0.00, 0.00, 0.01, 0.00, 1.03
241, 0.00, 86494.45, 0.00, 0.00, 0.00, 0.00, 0.00, 0.00, 0.01, 0.00, 1.03
242, 0.00, 86488.42, 0.00, 0.00, 0.00, 0.00, 0.00, 0.00, 0.01, 0.00, 1.03
243, 0.00, 86495.82, 0.00, 0.00, 0.00, 0.00, 0.00, 0.00, 0.01, 0.00, 1.03
244, 0.00, 86493.56, 0.00, 0.00, 0.00, 0.00, 0.00, 0.00, 0.01, 0.00, 1.03
245, 0.00, 86501.07, 0.00, 0.00, 0.00, 0.00, 0.00, 0.00, 0.01, 0.00, 1.03
246, 0.00, 86495.50, 0.00, 0.00, 0.00, 0.00, 0.00, 0.00, 0.01, 0.00, 1.03
247, 0.00, 86507.71, 0.00, 0.00, 0.00, 0.00, 0.00, 0.00, 0.01, 0.00, 1.03
248, 0.00, 86500.42, 0.00, 0.00, 0.00, 0.00, 0.00, 0.00, 0.01, 0.00, 1.03
249, 0.00, 86486.77, 0.00, 0.00, 0.00, 0.00, 0.00, 0.00, 0.01, 0.00, 1.03
250, 0.00, 86508.27, 0.00, 0.00, 0.00, 0.00, 0.00, 0.00, 0.01, -0.01, 1.03
251, 0.00, 86503.80, 0.00, 0.00, 0.00, 0.00, 0.00, 0.00, 0.01, -0.01, 1.03
252, 0.00, 86506.68, 0.00, 0.00, 0.00, 0.00, 0.00, 0.00, 0.01, -0.01, 1.03
253, 0.00, 86500.89, 0.00, 0.00, 0.00, 0.00, 0.00, 0.00, 0.01, -0.01, 1.03
254, 0.00, 86506.63, 0.00, 0.00, 0.00, 0.00, 0.00, 0.00, 0.01, -0.01, 1.03
255, 0.00, 86527.60, 0.00, 0.00, 0.00, 0.00, 0.00, 0.00, 0.01, -0.00, 1.02
0, 0.00, 86506.59, 0.00, 0.00, 0.00, 0.00, 0.00, 0.00, 0.01, -0.00, 1.02
1, 0.00, 86488.06, 0.00, 0.00, 0.00, 0.00, 0.00, 0.00, 0.01, -0.00, 1.02
2, 0.00, 86507.13, 0.00, 0.00, 0.00, 0.00, 0.00, 0.00, 0.01, -0.00, 1.02
3, 0.00, 86504.73, 0.00, 0.00, 0.00, 0.00, 0.00, 0.00, 0.01, -0.00, 1.02
4, 0.00, 86525.86, 0.00, 0.00, 0.00, 0.00, 0.00, 0.00, 0.01, -0.01, 1.02
5, 0.00, 86524.92, 0.00, 0.00, 0.00, 0.00, 0.00, 0.00, 0.01, -0.01, 1.02
6, 0.00, 86511.26, 0.00, 0.00, 0.00, 0.00, 0.00, 0.00, 0.01, -0.01, 1.02
7, 0.00, 86519.51, 0.00, 0.00, 0.00, 0.00, 0.00, 0.00, 0.01, -0.01, 1.02
8, 0.00, 86500.33, 0.00, 0.00, 0.00, 0.00, 0.00, 0.00, 0.01, -0.01, 1.02
9, 0.00, 86494.14, 0.00, 0.00, 0.00, 0.00, 0.00, 0.00, 0.01, -0.01, 1.02
10, 0.00, 86487.21, 0.00, 0.00, 0.00, 0.00, 0.00, 0.00, 0.01, -0.01, 1.02
11, 0.00, 86514.88, 0.00, 0.00, 0.00, 0.00, 0.00, 0.00, 0.01, -0.01, 1.02
12, 0.00, 86522.46, 0.00, 0.00, 0.00, 0.00, 0.00, 0.00, 0.01, -0.01, 1.02
13, 0.00, 86503.46, 0.00, 0.00, 0.00, 0.00, 0.00, 0.00, 0.01, -0.01, 1.02
14, 0.00, 86495.23, 0.00, 0.00, 0.00, 0.00, 0.00, 0.00, 0.02, -0.01, 1.02
15, 0.00, 86486.43, 0.00, 0.00, 0.00, 0.00, 0.00, 0.00, 0.02, -0.01, 1.02
16, 0.00, 86482.95, 0.00, 0.00, 0.00, 0.00, 0.00, 0.00, 0.02, -0.01, 1.02
17, 0.00, 86491.26, 0.00, 0.00, 0.00, 0.00, 0.00, 0.00, 0.02, -0.01, 1.02
18, 0.00, 86482.83, 0.00, 0.00, 0.00, 0.00, 0.00, 0.00, 0.02, -0.01, 1.02
19, 0.00, 86496.20, 0.00, 0.00, 0.00, 0.00, 0.00, 0.00, 0.01, -0.01, 1.02
20, 0.00, 86511.64, 0.00, 0.00, 0.00, 0.00, 0.00, 0.00, 0.01, -0.01, 1.02
21, 0.00, 86508.27, 0.00, 0.00, 0.00, 0.00, 0.00, 0.00, 0.01, -0.01, 1.02
22, 0.00, 86502.09, 0.00, 0.00, 0.00, 0.00, 0.00, 0.00, 0.01, -0.01, 1.02
23, 0.00, 86496.38, 0.00, 0.00, 0.00, 0.00, 0.00, 0.00, 0.01, -0.01, 1.02
24, 0.00, 86514.23, 0.00, 0.00, 0.00, 0.00, 0.00, 0.00, 0.02, -0.00, 1.02
25, 0.00, 86519.89, 0.00, 0.00, 0.00, 0.00, 0.00, 0.00, 0.02, -0.00, 1.02
26, 0.00, 86505.00, 0.00, 0.00, 0.00, 0.00, 0.00, 0.00, 0.02, -0.00, 1.02
27, 0.00, 86487.21, 0.00, 0.00, 0.00, 0.00, 0.00, 0.00, 0.02, -0.00, 1.02
28, 0.00, 86483.81, 0.00, 0.00, 0.00, 0.00, 0.00, 0.00, 0.02, -0.00, 1.02
29, 0.00, 86488.95, 0.00, 0.00, 0.00, 0.00, 0.00, 0.00, 0.02, -0.01, 1.02
30, 0.00, 86497.56, 0.00, 0.00, 0.00, 0.00, 0.00, 0.00, 0.02, -0.01, 1.02
31, 0.00, 86516.78, 0.00, 0.00, 0.00, 0.00, 0.00, 0.00, 0.02, -0.01, 1.02
32, 0.00, 86511.73, 0.00, 0.00, 0.00, 0.00, 0.00, 0.00, 0.02, -0.01, 1.02
33, 0.00, 86496.84, 0.00, 0.00, 0.00, 0.00, 0.00, 0.00, 0.02, -0.01, 1.02
34, 0.00, 86506.19, 0.00, 0.00, 0.00, 0.00, 0.00, 0.00, 0.02, -0.01, 1.03
35, 0.00, 86491.03, 0.00, 0.00, 0.00, 0.00, 0.00, 0.00, 0.02, -0.01, 1.03
36, 0.00, 86498.05, 0.00, 0.00, 0.00, 0.00, 0.00, 0.00, 0.02, -0.01, 1.03
37, 0.00, 86523.31, 0.00, 0.00, 0.00, 0.00, 0.00, 0.00, 0.02, -0.01, 1.03
38, 0.00, 86493.49, 0.00, 0.00, 0.00, 0.00, 0.00, 0.00, 0.02, -0.01, 1.03
39, 0.00, 86477.35, 0.00, 0.00, 0.00, 0.00, 0.00, 0.00, 0.02, -0.01, 1.03
40, 0.00, 86508.89, 0.00, 0.00, 0.00, 0.00, 0.00, 0.00, 0.02, -0.01, 1.03
41, 0.00, 86519.48, 0.00, 0.00, 0.00, 0.00, 0.00, 0.00, 0.02, -0.01, 1.03
42, 0.00, 86504.49, 0.00, 0.00, 0.00, 0.00, 0.00, 0.00, 0.02, -0.01, 1.03
43, 0.00, 86509.12, 0.00, 0.00, 0.00, 0.00, 0.00, 0.00, 0.02, -0.01, 1.03
44, 0.00, 86491.21, 0.00, 0.00, 0.00, 0.00, 0.00, 0.00, 0.02, 0.00, 1.03
45, 0.00, 86491.62, 0.00, 0.00, 0.00, 0.00, 0.00, 0.00, 0.02, 0.00, 1.03
46, 0.00, 86503.80, 0.00, 0.00, 0.00, 0.00, 0.00, 0.00, 0.02, 0.00, 1.03
47, 0.00, 86506.70, 0.00, 0.00, 0.00, 0.00, 0.00, 0.00, 0.02, 0.00, 1.03
48, 0.00, 86519.51, 0.00, 0.00, 0.00, 0.00, 0.00, 0.00, 0.02, 0.00, 1.03
49, 0.00, 86532.65, 0.00, 0.00, 0.00, 0.00, 0.00, 0.00, 0.02, 0.00, 1.03
50, 0.00, 86493.36, 0.00, 0.00, 0.00, 0.00, 0.00, 0.00, 0.02, 0.00, 1.03
51, 0.00, 86487.55, 0.00, 0.00, 0.00, 0.00, 0.00, 0.00, 0.02, 0.00, 1.03
52, 0.00, 86503.23, 0.00, 0.00, 0.00, 0.00, 0.00, 0.00, 0.02, 0.00, 1.03
53, 0.00, 86518.82, 0.00, 0.00, 0.00, 0.00, 0.00, 0.00, 0.02, 0.00, 1.03
54, 0.00, 86538.38, 0.00, 0.00, 0.00, 0.00, 0.00, 0.00, 0.01, 0.00, 1.02
55, 0.00, 86547.34, 0.00, 0.00, 0.00, 0.00, 0.00, 0.00, 0.01, 0.00, 1.02
56, 0.00, 86514.91, 0.00, 0.00, 0.00, 0.00, 0.00, 0.00, 0.01, 0.00, 1.02
57, 0.00, 86518.46, 0.00, 0.00, 0.00, 0.00, 0.00, 0.00, 0.01, 0.00, 1.02
58, 0.00, 86507.64, 0.00, 0.00, 0.00, 0.00, 0.00, 0.00, 0.01, 0.00, 1.02
59, 0.00, 86514.95, 0.00, 0.00, 0.00, 0.00, 0.00, 0.00, 0.02, 0.00, 1.03
60, 0.00, 86497.20, 0.00, 0.00, 0.00, 0.00, 0.00, 0.00, 0.02, 0.00, 1.03
61, 0.00, 86469.53, 0.00, 0.00, 0.00, 0.00, 0.00, 0.00, 0.02, 0.00, 1.03
62, 0.00, 86481.34, 0.00, 0.00, 0.00, 0.00, 0.00, 0.00, 0.02, 0.00, 1.03
63, 0.00, 86494.72, 0.00, 0.00, 0.00, 0.00, 0.00, 0.00, 0.02, 0.00, 1.03
64, 0.00, 86520.56, 0.00, 0.00, 0.00, 0.00, 0.00, 0.00, 0.02, 0.00, 1.03
65, 0.00, 86523.00, 0.00, 0.00, 0.00, 0.00, 0.00, 0.00, 0.02, 0.00, 1.03
66, 0.00, 86504.73, 0.00, 0.00, 0.00, 0.00, 0.00, 0.00, 0.02, 0.00, 1.03
67, 0.00, 86478.34, 0.00, 0.00, 0.00, 0.00, 0.00, 0.00, 0.02, 0.00, 1.03
68, 0.00, 86450.89, 0.00, 0.00, 0.00, 0.00, 0.00, 0.00, 0.02, 0.00, 1.03
69, 0.00, 86494.97, 0.00, 0.00, 0.00, 0.00, 0.00, 0.00, 0.02, 0.00, 1.03
70, 0.00, 86541.99, 0.00, 0.00, 0.00, 0.00, 0.00, 0.00, 0.02, 0.00, 1.03
71, 0.00, 86523.66, 0.00, 0.00, 0.00, 0.00, 0.00, 0.00, 0.02, 0.00, 1.03
72, 0.00, 86455.27, 0.00, 0.00, 0.00, 0.00, 0.00, 0.00, 0.02, 0.00, 1.03
73, 0.00, 86465.89, 0.00, 0.00, 0.00, 0.00, 0.00, 0.00, 0.02, 0.00, 1.03
74, 0.00, 86501.43, 0.00, 0.00, 0.00, 0.00, 0.00, 0.00, 0.02, 0.00, 1.03
75, 0.00, 86488.22, 0.00, 0.00, 0.00, 0.00, 0.00, 0.00, 0.02, 0.00, 1.03
76, 0.00, 86477.48, 0.00, 0.00, 0.00, 0.00, 0.00, 0.00, 0.02, 0.00, 1.03
77, 0.00, 86489.65, 0.00, 0.00, 0.00, 0.00, 0.00, 0.00, 0.02, 0.00, 1.03
78, 0.00, 86496.55, 0.00, 0.00, 0.00, 0.00, 0.00, 0.00, 0.02, 0.00, 1.03
79, 0.00, 86469.82, 0.00, 0.00, 0.00, 0.00, 0.00, 0.00, 0.02, 0.00, 1.04
80, 0.00, 86479.41, 0.00, 0.00, 0.00, 0.00, 0.00, 0.00, 0.02, 0.00, 1.04
81, 0.00, 86494.90, 0.00, 0.00, 0.00, 0.00, 0.00, 0.00, 0.02, 0.00, 1.04
82, 0.00, 86505.36, 0.00, 0.00, 0.00, 0.00, 0.00, 0.00, 0.02, 0.00, 1.04
83, 0.00, 86523.78, 0.00, 0.00, 0.00, 0.00, 0.00, 0.00, 0.02, 0.00, 1.04
84, 0.00, 86516.07, 0.00, 0.00, 0.00, 0.00, 0.00, 0.00, 0.02, 0.00, 1.04
85, 0.00, 86501.70, 0.00, 0.00, 0.00, 0.00, 0.00, 0.00, 0.02, 0.00, 1.02
86, 0.00, 86527.58, 0.00, 0.00, 0.00, 0.00, 0.00, 0.00, 0.02, 0.00, 1.02
87, 0.00, 86532.43, 0.00, 0.00, 0.00, 0.00, 0.00, 0.00, 0.02, 0.00, 1.02
88, 0.00, 86499.59, 0.00, 0.00, 0.00, 0.00, 0.00, 0.00, 0.02, 0.00, 1.02
89, 0.00, 86478.43, 0.00, 0.00, 0.00, 0.00, 0.00, 0.00, 0.02, 0.00, 1.02
90, 0.00, 86473.04, 0.00, 0.00, 0.00, 0.00, 0.00, 0.00, 0.02, -0.00, 1.03
91, 0.00, 86484.17, 0.00, 0.00, 0.00, 0.00, 0.00, 0.00, 0.02, -0.00, 1.03
92, 0.00, 86488.73, 0.00, 0.00, 0.00, 0.00, 0.00, 0.00, 0.02, -0.00, 1.03
93, 0.00, 86505.00, 0.00, 0.00, 0.00, 0.00, 0.00, 0.00, 0.02, -0.00, 1.03
94, 0.00, 86540.79, 0.00, 0.00, 0.00, 0.00, 0.00, 0.00, 0.02, -0.00, 1.03
95, 0.00, 86512.60, 0.00, 0.00, 0.00, 0.00, 0.00, 0.00, 0.02, 0.00, 1.03
96, 0.00, 86487.81, 0.00, 0.00, 0.00, 0.00, 0.00, 0.00, 0.02, 0.00, 1.03
97, 0.00, 86498.72, 0.00, 0.00, 0.00, 0.00, 0.00, 0.00, 0.02, 0.00, 1.03
98, 0.00, 86496.78, 0.00, 0.00, 0.00, 0.00, 0.00, 0.00, 0.02, 0.00, 1.03
99, 0.00, 86501.94, 0.00, 0.00, 0.00, 0.00, 0.00, 0.00, 0.02, 0.00, 1.03
100, 0.00, 86485.22, 0.00, 0.00, 0.00, 0.00, 0.00, 0.00, 0.02, -0.00, 1.03
101, 0.00, 86481.47, 0.00, 0.00, 0.00, 0.00, 0.00, 0.00, 0.02, -0.00, 1.03
102, 0.00, 86485.58, 0.00, 0.00, 0.00, 0.00, 0.00, 0.00, 0.02, -0.00, 1.03
103, 0.00, 86462.52, 0.00, 0.00, 0.00, 0.00, 0.00, 0.00, 0.02, -0.00, 1.03
104, 0.00, 86500.16, 0.00, 0.00, 0.00, 0.00, 0.00, 0.00, 0.02, -0.00, 1.03
105, 0.00, 86504.40, 0.00, 0.00, 0.00, 0.00, 0.00, 0.00, 0.01, -0.01, 1.02
106, 0.00, 86498.41, 0.00, 0.00, 0.00, 0.00, 0.00, 0.00, 0.01, -0.01, 1.02
107, 0.00, 86519.20, 0.00, 0.00, 0.00, 0.00, 0.00, 0.00, 0.01, -0.01, 1.02
108, 0.00, 86536.48, 0.00, 0.00, 0.00, 0.00, 0.00, 0.00, 0.01, -0.01, 1.02
109, 0.00, 86507.75, 0.00, 0.00, 0.00, 0.00, 0.00, 0.00, 0.01, -0.01, 1.02
110, 0.00, 86512.24, 0.00, 0.00, 0.00, 0.00, 0.00, 0.00, 0.02, -0.01, 1.03
111, 0.00, 86489.23, 0.00, 0.00, 0.00, 0.00, 0.00, 0.00, 0.02, -0.01, 1.03
112, 0.00, 86518.13, 0.00, 0.00, 0.00, 0.00, 0.00, 0.00, 0.02, -0.01, 1.03
113, 0.00, 86516.88, 0.00, 0.00, 0.00, 0.00, 0.00, 0.00, 0.02, -0.01, 1.03
114, 0.00, 86523.55, 0.00, 0.00, 0.00, 0.00, 0.00, 0.00, 0.02, -0.01, 1.03
115, 0.00, 86526.98, 0.00, 0.00, 0.00, 0.00, 0.00, 0.00, 0.02, -0.00, 1.03
116, 0.00, 86503.95, 0.00, 0.00, 0.00, 0.00, 0.00, 0.00, 0.02, -0.00, 1.03
117, 0.00, 86493.52, 0.00, 0.00, 0.00, 0.00, 0.00, 0.00, 0.02, -0.00, 1.03
118, 0.00, 86485.83, 0.00, 0.00, 0.00, 0.00, 0.00, 0.00, 0.02, -0.00, 1.03
119, 0.00, 86487.13, 0.00, 0.00, 0.00, 0.00, 0.00, 0.00, 0.02, -0.00, 1.03
120, 0.00, 86520.07, 0.00, 0.00, 0.00, 0.00, 0.00, 0.00, 0.02, -0.01, 1.03
121, 0.00, 86526.80, 0.00, 0.00, 0.00, 0.00, 0.00, 0.00, 0.02, -0.01, 1.03
122, 0.00, 86511.33, 0.00, 0.00, 0.00, 0.00, 0.00, 0.00, 0.02, -0.01, 1.03
123, 0.00, 86524.27, 0.00, 0.00, 0.00, 0.00, 0.00, 0.00, 0.02, -0.01, 1.03
124, 0.00, 86516.11, 0.00, 0.00, 0.00, 0.00, 0.00, 0.00, 0.02, -0.01, 1.03
125, 0.00, 86492.69, 0.00, 0.00, 0.00, 0.00, 0.00, 0.00, 0.02, -0.00, 1.03
126, 0.00, 86473.76, 0.00, 0.00, 0.00, 0.00, 0.00, 0.00, 0.02, -0.00, 1.03
127, 0.00, 86443.58, 0.00, 0.00, 0.00, 0.00, 0.00, 0.00, 0.02, -0.00, 1.03
128, 0.00, 86433.73, 0.00, 0.00, 0.00, 0.00, 0.00, 0.00, 0.02, -0.00, 1.03
129, 0.00, 86412.04, 0.00, 0.00, 0.00, 0.00, 0.00, 0.00, 0.02, -0.00, 1.03
130, 0.00, 86378.38, 0.00, 0.00, 0.00, 0.00, 0.00, 0.00, 0.02, -0.00, 1.03
131, 0.00, 86357.34, 0.00, 0.00, 0.00, 0.00, 0.00, 0.00, 0.02, -0.00, 1.03
132, 0.00, 86327.62, 0.00, 0.00, 0.00, 0.00, 0.00, 0.00, 0.02, -0.00, 1.03
133, 0.00, 86311.39, 0.00, 0.00, 0.00, 0.00, 0.00, 0.00, 0.02, -0.00, 1.03
134, 0.00, 86262.77, 0.00, 0.00, 0.00, 0.00, 0.00, 0.00, 0.02, -0.00, 1.03
135, 0.00, 86211.66, 0.00, 0.00, 0.00, 0.00, 0.00, 0.00, 0.01, -0.01, 1.03
136, 0.00, 86226.57, 0.00, 0.00, 0.00, 0.00, 0.00, 0.00, 0.01, -0.01, 1.03
137, 0.00, 86196.68, 0.00, 0.00, 0.00, 0.00, 0.00, 0.00, 0.01, -0.01, 1.03
138, 0.00, 86198.88, 0.00, 0.00, 0.00, 0.00, 0.00, 0.00, 0.01, -0.01, 1.03
139, 0.00, 86217.88, 0.00, 0.00, 0.00, 0.00, 0.00, 0.00, 0.01, -0.01, 1.03
140, 0.00, 86160.95, 0.00, 0.00, 0.00, 0.00, 0.00, 0.00, 0.01, -0.01, 1.03
141, 0.00, 86119.84, 0.00, 0.00, 0.00, 0.00, 0.00, 0.00, 0.01, -0.01, 1.03
142, 0.00, 86112.23, 0.00, 0.00, 0.00, 0.00, 0.00, 0.00, 0.01, -0.01, 1.03
143, 0.00, 86114.02, 0.00, 0.00, 0.00, 0.00, 0.00, 0.00, 0.01, -0.01, 1.03
144, 0.00, 86125.07, 0.00, 0.00, 0.00, 0.00, 0.00, 0.00, 0.01, -0.01, 1.03
145, 0.00, 86083.85, 0.00, 0.00, 0.00, 0.00, 0.00, 0.00, 0.02, -0.01, 1.03
146, 0.00, 86083.31, 0.00, 0.00, 0.00, 0.00, 0.00, 0.00, 0.02, -0.01, 1.03
147, 0.00, 86083.52, 0.00, 0.00, 0.00, 0.00, 0.00, 0.00, 0.02, -0.01, 1.03
148, 0.00, 86099.88, 0.00, 0.00, 0.00, 0.00, 0.00, 0.00, 0.02, -0.01, 1.03
149, 0.00, 86123.41, 0.00, 0.00, 0.00, 0.00, 0.00, 0.00, 0.02, -0.01, 1.03
150, 0.00, 86118.41, 0.00, 0.00, 0.00, 0.00, 0.00, 0.00, 0.02, -0.00, 1.03
151, 0.00, 86129.85, 0.00, 0.00, 0.00, 0.00, 0.00, 0.00, 0.02, -0.00, 1.03
152, 0.00, 86174.87, 0.00, 0.00, 0.00, 0.00, 0.00, 0.00, 0.02, -0.00, 1.03
153, 0.00, 86239.15, 0.00, 0.00, 0.00, 0.00, 0.00, 0.00, 0.02, -0.00, 1.03
154, 0.00, 86232.63, 0.00, 0.00, 0.00, 0.00, 0.00, 0.00, 0.02, -0.00, 1.03
155, 0.00, 86193.22, 0.00, 0.00, 0.00, 0.00, 0.00, 0.00, 0.01, -0.00, 1.04
156, 0.00, 86157.16, 0.00, 0.00, 0.00, 0.00, 0.00, 0.00, 0.01, -0.00, 1.04
157, 0.00, 86168.30, 0.00, 0.00, 0.00, 0.00, 0.00, 0.00, 0.01, -0.00, 1.04
158, 0.00, 86229.07, 0.00, 0.00, 0.00, 0.00, 0.00, 0.00, 0.01, -0.00, 1.04
159, 0.00, 86261.93, 0.00, 0.00, 0.00, 0.00, 0.00, 0.00, 0.01, -0.00, 1.04
160, 0.00, 86276.70, 0.00, 0.00, 0.00, 0.00, 0.00, 0.00, 0.02, -0.01, 1.03
161, 0.00, 86275.43, 0.00, 0.00, 0.00, 0.00, 0.00, 0.00, 0.02, -0.01, 1.03
162, 0.00, 86266.29, 0.00, 0.00, 0.00, 0.00, 0.00, 0.00, 0.02, -0.01, 1.03
163, 0.00, 86271.05, 0.00, 0.00, 0.00, 0.00, 0.00, 0.00, 0.02, -0.01, 1.03
164, 0.00, 86262.62, 0.00, 0.00, 0.00, 0.00, 0.00, 0.00, 0.02, -0.01, 1.03
165, 0.00, 86283.05, 0.00, 0.00, 0.00, 0.00, 0.00, 0.00, 0.01, -0.01, 1.03
166, 0.00, 86300.22, 0.00, 0.00, 0.00, 0.00, 0.00, 0.00, 0.01, -0.01, 1.03
167, 0.00, 86272.97, 0.00, 0.00, 0.00, 0.00, 0.00, 0.00, 0.01, -0.01, 1.03
168, 0.00, 86248.80, 0.00, 0.00, 0.00, 0.00, 0.00, 0.00, 0.01, -0.01, 1.03
169, 0.00, 86281.98, 0.00, 0.00, 0.00, 0.00, 0.00, 0.00, 0.01, -0.01, 1.03
170, 0.00, 86305.13, 0.00, 0.00, 0.00, 0.00, 0.00, 0.00, 0.02, -0.01, 1.03
171, 0.00, 86317.98, 0.00, 0.00, 0.00, 0.00, 0.00, 0.00, 0.02, -0.01, 1.03
172, 0.00, 86287.99, 0.00, 0.00, 0.00, 0.00, 0.00, 0.00, 0.02, -0.01, 1.03
173, 0.00, 86306.84, 0.00, 0.00, 0.00, 0.00, 0.00, 0.00, 0.02, -0.01, 1.03
174, 0.00, 86324.70, 0.00, 0.00, 0.00, 0.00, 0.00, 0.00, 0.02, -0.01, 1.03
175, 0.00, 86331.77, 0.00, 0.00, 0.00, 0.00, 0.00, 0.00, 0.01, 0.00, 1.02
176, 0.00, 86367.25, 0.00, 0.00, 0.00, 0.00, 0.00, 0.00, 0.01, 0.00, 1.02
177, 0.00, 86349.84, 0.00, 0.00, 0.00, 0.00, 0.00, 0.00, 0.01, 0.00, 1.02
178, 0.00, 86303.03, 0.00, 0.00, 0.00, 0.00, 0.00, 0.00, 0.01, 0.00, 1.02
179, 0.00, 86321.79, 0.00, 0.00, 0.00, 0.00, 0.00, 0.00, 0.01, 0.00, 1.02
180, 0.00, 86313.78, 0.00, 0.00, 0.00, 0.00, 0.00, 0.00, 0.02, -0.00, 1.03
181, 0.00, 86307.55, 0.00, 0.00, 0.00, 0.00, 0.00, 0.00, 0.02, -0.00, 1.03
182, 0.00, 86325.09, 0.00, 0.00, 0.00, 0.00, 0.00, 0.00, 0.02, -0.00, 1.03
183, 0.00, 86323.38, 0.00, 0.00, 0.00, 0.00, 0.00, 0.00, 0.02, -0.00, 1.03
184, 0.00, 86333.12, 0.00, 0.00, 0.00, 0.00, 0.00, 0.00, 0.02, -0.00, 1.03
185, 0.00, 86347.91, 0.00, 0.00, 0.00, 0.00, 0.00, 0.00, 0.01, -0.00, 1.03
186, 0.00, 86360.61, 0.00, 0.00, 0.00, 0.00, 0.00, 0.00, 0.01, -0.00, 1.03
187, 0.00, 86345.05, 0.00, 0.00, 0.00, 0.00, 0.00, 0.00, 0.01, -0.00, 1.03
188, 0.00, 86340.85, 0.00, 0.00, 0.00, 0.00, 0.00, 0.00, 0.01, -0.00, 1.03
189, 0.00, 86356.12, 0.00, 0.00, 0.00, 0.00, 0.00, 0.00, 0.01, -0.00, 1.03
190, 0.00, 86348.27, 0.00, 0.00, 0.00, 0.00, 0.00, 0.00, 0.01, -0.00, 1.03
191, 0.00, 86327.87, 0.00, 0.00, 0.00, 0.00, 0.00, 0.00, 0.01, -0.00, 1.03
192, 0.00, 86309.67, 0.00, 0.00, 0.00, 0.00, 0.00, 0.00, 0.01, -0.00, 1.03
193, 0.00, 86325.66, 0.00, 0.00, 0.00, 0.00, 0.00, 0.00, 0.01, -0.00, 1.03
194, 0.00, 86341.79, 0.00, 0.00, 0.00, 0.00, 0.00, 0.00, 0.01, -0.00, 1.03
195, 0.00, 86370.31, 0.00, 0.00, 0.00, 0.00, 0.00, 0.00, 0.01, -0.01, 1.03
196, 0.00, 86397.78, 0.00, 0.00, 0.00, 0.00, 0.00, 0.00, 0.01, -0.01, 1.03
197, 0.00, 86363.98, 0.00, 0.00, 0.00, 0.00, 0.00, 0.00, 0.01, -0.01, 1.03
198, 0.00, 86339.60, 0.00, 0.00, 0.00, 0.00, 0.00, 0.00, 0.01, -0.01, 1.03
199, 0.00, 86334.41, 0.00, 0.00, 0.00, 0.00, 0.00, 0.00, 0.01, -0.01, 1.03
200, 0.00, 86345.63, 0.00, 0.00, 0.00, 0.00, 0.00, 0.00, 0.02, -0.01, 1.04
201, 0.00, 86329.56, 0.00, 0.00, 0.00, 0.00, 0.00, 0.00, 0.02, -0.01, 1.04
202, 0.00, 86337.95, 0.00, 0.00, 0.00, 0.00, 0.00, 0.00, 0.02, -0.01, 1.04
203, 0.00, 86362.06, 0.00, 0.00, 0.00, 0.00, 0.00, 0.00, 0.02, -0.01, 1.04
204, 0.00, 86352.74, 0.00, 0.00, 0.00, 0.00, 0.00, 0.00, 0.02, -0.01, 1.04
205, 0.00, 86360.86, 0.00, 0.00, 0.00, 0.00, 0.00, 0.00, 0.02, -0.01, 1.02
206, 0.00, 86369.33, 0.00, 0.00, 0.00, 0.00, 0.00, 0.00, 0.02, -0.01, 1.02
207, 0.00, 86331.69, 0.00, 0.00, 0.00, 0.00, 0.00, 0.00, 0.02, -0.01, 1.02
208, 0.00, 86335.58, 0.00, 0.00, 0.00, 0.00, 0.00, 0.00, 0.02, -0.01, 1.02
209, 0.00, 86346.35, 0.00, 0.00, 0.00, 0.00, 0.00, 0.00, 0.02, -0.01, 1.02
210, 0.00, 86359.91, 0.00, 0.00, 0.00, 0.00, 0.00, 0.00, 0.02, -0.01, 1.03
211, 0.00, 86380.34, 0.00, 0.00, 0.00, 0.00, 0.00, 0.00, 0.02, -0.01, 1.03
212, 0.00, 86368.75, 0.00, 0.00, 0.00, 0.00, 0.00, 0.00, 0.02, -0.01, 1.03
213, 0.00, 86361.55, 0.00, 0.00, 0.00, 0.00, 0.00, 0.00, 0.02, -0.01, 1.03
214, 0.00, 86354.09, 0.00, 0.00, 0.00, 0.00, 0.00, 0.00, 0.02, -0.01, 1.03
215, 0.00, 86377.55, 0.00, 0.00, 0.00, 0.00, 0.00, 0.00, 0.02, -0.00, 1.02
216, 0.00, 86381.87, 0.00, 0.00, 0.00, 0.00, 0.00, 0.00, 0.02, -0.00, 1.02
217, 0.00, 86376.05, 0.00, 0.00, 0.00, 0.00, 0.00, 0.00, 0.02, -0.00, 1.02
218, 0.00, 86362.63, 0.00, 0.00, 0.00, 0.00, 0.00, 0.00, 0.02, -0.00, 1.02
219, 0.00, 86334.91, 0.00, 0.00, 0.00, 0.00, 0.00, 0.00, 0.02, -0.00, 1.02
220, 0.00, 86336.54, 0.00, 0.00, 0.00, 0.00, 0.00, 0.00, 0.02, -0.00, 1.03
221, 0.00, 86346.80, 0.00, 0.00, 0.00, 0.00, 0.00, 0.00, 0.02, -0.00, 1.03
222, 0.00, 86370.87, 0.00, 0.00, 0.00, 0.00, 0.00, 0.00, 0.02, -0.00, 1.03
223, 0.00, 86348.56, 0.00, 0.00, 0.00, 0.00, 0.00, 0.00, 0.02, -0.00, 1.03
224, 0.00, 86342.70, 0.00, 0.00, 0.00, 0.00, 0.00, 0.00, 0.02, -0.00, 1.03
225, 0.00, 86354.42, 0.00, 0.00, 0.00, 0.00, 0.00, 0.00, 0.01, -0.01, 1.02
226, 0.00, 86354.02, 0.00, 0.00, 0.00, 0.00, 0.00, 0.00, 0.01, -0.01, 1.02
227, 0.00, 86342.98, 0.00, 0.00, 0.00, 0.00, 0.00, 0.00, 0.01, -0.01, 1.02
228, 0.00, 86345.41, 0.00, 0.00, 0.00, 0.00, 0.00, 0.00, 0.01, -0.01, 1.02
229, 0.00, 86369.15, 0.00, 0.00, 0.00, 0.00, 0.00, 0.00, 0.01, -0.01, 1.02
230, 0.00, 86373.93, 0.00, 0.00, 0.00, 0.00, 0.00, 0.00, 0.02, -0.01, 1.02
231, 0.00, 86334.13, 0.00, 0.00, 0.00, 0.00, 0.00, 0.00, 0.02, -0.01, 1.02
232, 0.00, 86351.85, 0.00, 0.00, 0.00, 0.00, 0.00, 0.00, 0.02, -0.01, 1.02
233, 0.00, 86355.36, 0.00, 0.00, 0.00, 0.00, 0.00, 0.00, 0.02, -0.01, 1.02
234, 0.00, 86353.75, 0.00, 0.00, 0.00, 0.00, 0.00, 0.00, 0.02, -0.01, 1.02
235, 0.00, 86356.30, 0.00, 0.00, 0.00, 0.00, 0.00, 0.00, 0.02, -0.01, 1.02
236, 0.00, 86343.47, 0.00, 0.00, 0.00, 0.00, 0.00, 0.00, 0.02, -0.01, 1.02
237, 0.00, 86354.11, 0.00, 0.00, 0.00, 0.00, 0.00, 0.00, 0.02, -0.01, 1.02
238, 0.00, 86389.63, 0.00, 0.00, 0.00, 0.00, 0.00, 0.00, 0.02, -0.01, 1.02
239, 0.00, 86365.87, 0.00, 0.00, 0.00, 0.00, 0.00, 0.00, 0.02, -0.01, 1.02
240, 0.00, 86363.09, 0.00, 0.00, 0.00, 0.00, 0.00, 0.00, 0.02, -0.01, 1.03
241, 0.00, 86376.48, 0.00, 0.00, 0.00, 0.00, 0.00, 0.00, 0.02, -0.01, 1.03
242, 0.00, 86368.68, 0.00, 0.00, 0.00, 0.00, 0.00, 0.00, 0.02, -0.01, 1.03
243, 0.00, 86371.66, 0.00, 0.00, 0.00, 0.00, 0.00, 0.00, 0.02, -0.01, 1.03
244, 0.00, 86386.61, 0.00, 0.00, 0.00, 0.00, 0.00, 0.00, 0.02, -0.01, 1.03
245, 0.00, 86409.83, 0.00, 0.00, 0.00, 0.00, 0.00, 0.00, 0.02, 0.00, 1.03
246, 0.00, 86398.27, 0.00, 0.00, 0.00, 0.00, 0.00, 0.00, 0.02, 0.00, 1.03
247, 0.00, 86410.86, 0.00, 0.00, 0.00, 0.00, 0.00, 0.00, 0.02, 0.00, 1.03
248, 0.00, 86411.26, 0.00, 0.00, 0.00, 0.00, 0.00, 0.00, 0.02, 0.00, 1.03
249, 0.00, 86434.33, 0.00, 0.00, 0.00, 0.00, 0.00, 0.00, 0.02, 0.00, 1.03
250, 0.00, 86447.52, 0.00, 0.00, 0.00, 0.00, 0.00, 0.00, 0.02, 0.01, 1.03
251, 0.00, 86441.30, 0.00, 0.00, 0.00, 0.00, 0.00, 0.00, 0.02, 0.01, 1.03
252, 0.00, 86441.97, 0.00, 0.00, 0.00, 0.00, 0.00, 0.00, 0.02, 0.01, 1.03
253, 0.00, 86431.65, 0.00, 0.00, 0.00, 0.00, 0.00, 0.00, 0.02, 0.01, 1.03
254, 0.00, 86403.59, 0.00, 0.00, 0.00, 0.00, 0.00, 0.00, 0.02, 0.01, 1.03
255, 0.00, 86403.48, 0.00, 0.00, 0.00, 0.00, 0.00, 0.00, 0.02, 0.01, 1.03
0, 0.00, 86416.98, 0.00, 0.00, 0.00, 0.00, 0.00, 0.00, 0.02, 0.01, 1.03
1, 0.00, 86411.69, 0.00, 0.00, 0.00, 0.00, 0.00, 0.00, 0.02, 0.01, 1.03
2, 0.00, 86418.97, 0.00, 0.00, 0.00, 0.00, 0.00, 0.00, 0.02, 0.01, 1.03
3, 0.00, 86432.34, 0.00, 0.00, 0.00, 0.00, 0.00, 0.00, 0.02, 0.01, 1.03
4, 0.00, 86410.48, 0.00, 0.00, 0.00, 0.00, 0.00, 0.00, 0.01, 0.00, 1.03
5, 0.00, 86404.06, 0.00, 0.00, 0.00, 0.00, 0.00, 0.00, 0.01, 0.00, 1.03
6, 0.00, 86416.09, 0.00, 0.00, 0.00, 0.00, 0.00, 0.00, 0.01, 0.00, 1.03
7, 0.00, 86396.62, 0.00, 0.00, 0.00, 0.00, 0.00, 0.00, 0.01, 0.00, 1.03
8, 0.00, 86407.51, 0.00, 0.00, 0.00, 0.00, 0.00, 0.00, 0.01, 0.00, 1.03
9, 0.00, 86415.73, 0.00, 0.00, 0.00, 0.00, 0.00, 0.00, 0.02, -0.00, 1.03
10, 0.00, 86400.22, 0.00, 0.00, 0.00, 0.00, 0.00, 0.00, 0.02, -0.00, 1.03
11, 0.00, 86405.45, 0.00, 0.00, 0.00, 0.00, 0.00, 0.00, 0.02, -0.00, 1.03
12, 0.00, 86410.37, 0.00, 0.00, 0.00, 0.00, 0.00, 0.00, 0.02, -0.00, 1.03
13, 0.00, 86398.43, 0.00, 0.00, 0.00, 0.00, 0.00, 0.00, 0.02, -0.00, 1.03
14, 0.00, 86400.62, 0.00, 0.00, 0.00, 0.00, 0.00, 0.00, 0.01, -0.01, 1.03
15, 0.00, 86414.92, 0.00, 0.00, 0.00, 0.00, 0.00, 0.00, 0.01, -0.01, 1.03
16, 0.00, 86449.52, 0.00, 0.00, 0.00, 0.00, 0.00, 0.00, 0.01, -0.01, 1.03
17, 0.00, 86442.04, 0.00, 0.00, 0.00, 0.00, 0.00, 0.00, 0.01, -0.01, 1.03
18, 0.00, 86427.63, 0.00, 0.00, 0.00, 0.00, 0.00, 0.00, 0.01, -0.01, 1.03
19, 0.00, 86426.10, 0.00, 0.00, 0.00, 0.00, 0.00, 0.00, 0.01, -0.01, 1.02
20, 0.00, 86397.27, 0.00, 0.00, 0.00, 0.00, 0.00, 0.00, 0.01, -0.01, 1.02
21, 0.00, 86402.68, 0.00, 0.00, 0.00, 0.00, 0.00, 0.00, 0.01, -0.01, 1.02
22, 0.00, 86421.97, 0.00, 0.00, 0.00, 0.00, 0.00, 0.00, 0.01, -0.01, 1.02
23, 0.00, 86443.54, 0.00, 0.00, 0.00, 0.00, 0.00, 0.00, 0.01, -0.01, 1.02
24, 0.00, 86445.84, 0.00, 0.00, 0.00, 0.00, 0.00, 0.00, 0.01, -0.01, 1.02
25, 0.00, 86428.23, 0.00, 0.00, 0.00, 0.00, 0.00, 0.00, 0.01, -0.01, 1.02
26, 0.00, 86408.96, 0.00, 0.00, 0.00, 0.00, 0.00, 0.00, 0.01, -0.01, 1.02
27, 0.00, 86419.38, 0.00, 0.00, 0.00, 0.00, 0.00, 0.00, 0.01, -0.01, 1.02
28, 0.00, 86457.26, 0.00, 0.00, 0.00, 0.00, 0.00, 0.00, 0.01, -0.01, 1.02
29, 0.00, 86444.27, 0.00, 0.00, 0.00, 0.00, 0.00, 0.00, 0.01, -0.01, 1.02
30, 0.00, 86413.61, 0.00, 0.00, 0.00, 0.00, 0.00, 0.00, 0.01, -0.00, 1.02
31, 0.00, 86397.16, 0.00, 0.00, 0.00, 0.00, 0.00, 0.00, 0.01, -0.00, 1.02
32, 0.00, 86422.66, 0.00, 0.00, 0.00, 0.00, 0.00, 0.00, 0.01, -0.00, 1.02
33, 0.00, 86429.30, 0.00, 0.00, 0.00, 0.00, 0.00, 0.00, 0.01, -0.00, 1.02
34, 0.00, 86434.55, 0.00, 0.00, 0.00, 0.00, 0.00, 0.00, 0.01, -0.00, 1.02
35, 0.00, 86444.30, 0.00, 0.00, 0.00, 0.00, 0.00, 0.00, 0.01, 0.00, 1.03
36, 0.00, 86452.12, 0.00, 0.00, 0.00, 0.00, 0.00, 0.00, 0.01, 0.00, 1.03
37, 0.00, 86436.67, 0.00, 0.00, 0.00, 0.00, 0.00, 0.00, 0.01, 0.00, 1.03
38, 0.00, 86431.71, 0.00, 0.00, 0.00, 0.00, 0.00, 0.00, 0.01, 0.00, 1.03
39, 0.00, 86421.67, 0.00, 0.00, 0.00, 0.00, 0.00, 0.00, 0.01, 0.00, 1.03
40, 0.00, 86415.53, 0.00, 0.00, 0.00, 0.00, 0.00, 0.00, 0.01, -0.01, 1.04
41, 0.00, 86407.17, 0.00, 0.00, 0.00, 0.00, 0.00, 0.00, 0.01, -0.01, 1.04
42, 0.00, 86417.83, 0.00, 0.00, 0.00, 0.00, 0.00, 0.00, 0.01, -0.01, 1.04
43, 0.00, 86428.31, 0.00, 0.00, 0.00, 0.00, 0.00, 0.00, 0.01, -0.01, 1.04
44, 0.00, 86441.30, 0.00, 0.00, 0.00, 0.00, 0.00, 0.00, 0.01, -0.01, 1.04
45, 0.00, 86412.47, 0.00, 0.00, 0.00, 0.00, 0.00, 0.00, 0.02, -0.01, 1.03
46, 0.00, 86424.20, 0.00, 0.00, 0.00, 0.00, 0.00, 0.00, 0.02, -0.01, 1.03
47, 0.00, 86448.95, 0.00, 0.00, 0.00, 0.00, 0.00, 0.00, 0.02, -0.01, 1.03
48, 0.00, 86429.61, 0.00, 0.00, 0.00, 0.00, 0.00, 0.00, 0.02, -0.01, 1.03
49, 0.00, 86428.74, 0.00, 0.00, 0.00, 0.00, 0.00, 0.00, 0.02, -0.01, 1.03
50, 0.00, 86443.96, 0.00, 0.00, 0.00, 0.00, 0.00, 0.00, 0.02, -0.01, 1.03
51, 0.00, 86437.75, 0.00, 0.00, 0.00, 0.00, 0.00, 0.00, 0.02, -0.01, 1.03
52, 0.00, 86404.64, 0.00, 0.00, 0.00, 0.00, 0.00, 0.00, 0.02, -0.01, 1.03
53, 0.00, 86399.50, 0.00, 0.00, 0.00, 0.00, 0.00, 0.00, 0.02, -0.01, 1.03
54, 0.00, 86399.91, 0.00, 0.00, 0.00, 0.00, 0.00, 0.00, 0.02, -0.01, 1.03
55, 0.00, 86419.20, 0.00, 0.00, 0.00, 0.00, 0.00, 0.00, 0.02, -0.01, 1.03
56, 0.00, 86464.19, 0.00, 0.00, 0.00, 0.00, 0.00, 0.00, 0.02, -0.01, 1.03
57, 0.00, 86434.23, 0.00, 0.00, 0.00, 0.00, 0.00, 0.00, 0.02, -0.01, 1.03
58, 0.00, 86430.68, 0.00, 0.00, 0.00, 0.00, 0.00, 0.00, 0.02, -0.01, 1.03
59, 0.00, 86456.34, 0.00, 0.00, 0.00, 0.00, 0.00, 0.00, 0.02, -0.01, 1.03
60, 0.00, 86437.45, 0.00, 0.00, 0.00, 0.00, 0.00, 0.00, 0.02, -0.01, 1.03
61, 0.00, 86429.19, 0.00, 0.00, 0.00, 0.00, 0.00, 0.00, 0.02, -0.01, 1.03
62, 0.00, 86428.63, 0.00, 0.00, 0.00, 0.00, 0.00, 0.00, 0.02, -0.01, 1.03
63, 0.00, 86451.02, 0.00, 0.00, 0.00, 0.00, 0.00, 0.00, 0.02, -0.01, 1.03
64, 0.00, 86463.79, 0.00, 0.00, 0.00, 0.00, 0.00, 0.00, 0.02, -0.01, 1.03
65, 0.00, 86416.31, 0.00, 0.00, 0.00, 0.00, 0.00, 0.00, 0.01, -0.01, 1.03
66, 0.00, 86418.14, 0.00, 0.00, 0.00, 0.00, 0.00, 0.00, 0.01, -0.01, 1.03
67, 0.00, 86421.99, 0.00, 0.00, 0.00, 0.00, 0.00, 0.00, 0.01, -0.01, 1.03
68, 0.00, 86443.71, 0.00, 0.00, 0.00, 0.00, 0.00, 0.00, 0.01, -0.01, 1.03
69, 0.00, 86467.45, 0.00, 0.00, 0.00, 0.00, 0.00, 0.00, 0.01, -0.01, 1.03
70, 0.00, 86476.91, 0.00, 0.00, 0.00, 0.00, 0.00, 0.00, 0.01, -0.00, 1.03
71, 0.00, 86430.20, 0.00, 0.00, 0.00, 0.00, 0.00, 0.00, 0.01, -0.00, 1.03
72, 0.00, 86438.08, 0.00, 0.00, 0.00, 0.00, 0.00, 0.00, 0.01, -0.00, 1.03
73, 0.00, 86461.98, 0.00, 0.00, 0.00, 0.00, 0.00, 0.00, 0.01, -0.00, 1.03
74, 0.00, 86450.42, 0.00, 0.00, 0.00, 0.00, 0.00, 0.00, 0.01, -0.00, 1.03
75, 0.00, 86451.88, 0.00, 0.00, 0.00, 0.00, 0.00, 0.00, 0.01, -0.00, 1.03
76, 0.00, 86447.13, 0.00, 0.00, 0.00, 0.00, 0.00, 0.00, 0.01, -0.00, 1.03
77, 0.00, 86473.40, 0.00, 0.00, 0.00, 0.00, 0.00, 0.00, 0.01, -0.00, 1.03
78, 0.00, 86471.27, 0.00, 0.00, 0.00, 0.00, 0.00, 0.00, 0.01, -0.00, 1.03
79, 0.00, 86416.94, 0.00, 0.00, 0.00, 0.00, 0.00, 0.00, 0.01, -0.00, 1.03
80, 0.00, 86441.99, 0.00, 0.00, 0.00, 0.00, 0.00, 0.00, 0.01, -0.01, 1.03
81, 0.00, 86477.17, 0.00, 0.00, 0.00, 0.00, 0.00, 0.00, 0.01, -0.01, 1.03
82, 0.00, 86460.12, 0.00, 0.00, 0.00, 0.00, 0.00, 0.00, 0.01, -0.01, 1.03
83, 0.00, 86448.34, 0.00, 0.00, 0.00, 0.00, 0.00, 0.00, 0.01, -0.01, 1.03
84, 0.00, 86458.31, 0.00, 0.00, 0.00, 0.00, 0.00, 0.00, 0.01, -0.01, 1.03
85, 0.00, 86457.98, 0.00, 0.00, 0.00, 0.00, 0.00, 0.00, 0.01, -0.01, 1.04
86, 0.00, 86449.57, 0.00, 0.00, 0.00, 0.00, 0.00, 0.00, 0.01, -0.01, 1.04
87, 0.00, 86431.42, 0.00, 0.00, 0.00, 0.00, 0.00, 0.00, 0.01, -0.01, 1.04
88, 0.00, 86472.23, 0.00, 0.00, 0.00, 0.00, 0.00, 0.00, 0.01, -0.01, 1.04
89, 0.00, 86467.23, 0.00, 0.00, 0.00, 0.00, 0.00, 0.00, 0.01, -0.01, 1.04
90, 0.00, 86447.76, 0.00, 0.00, 0.00, 0.00, 0.00, 0.00, 0.01, -0.01, 1.03
91, 0.00, 86473.22, 0.00, 0.00, 0.00, 0.00, 0.00, 0.00, 0.01, -0.01, 1.03
92, 0.00, 86475.66, 0.00, 0.00, 0.00, 0.00, 0.00, 0.00, 0.01, -0.01, 1.03
93, 0.00, 86419.17, 0.00, 0.00, 0.00, 0.00, 0.00, 0.00, 0.01, -0.01, 1.03
94, 0.00, 86416.69, 0.00, 0.00, 0.00, 0.00, 0.00, 0.00, 0.01, -0.01, 1.03
95, 0.00, 86444.01, 0.00, 0.00, 0.00, 0.00, 0.00, 0.00, 0.01, -0.01, 1.04
96, 0.00, 86448.70, 0.00, 0.00, 0.00, 0.00, 0.00, 0.00, 0.01, -0.01, 1.04
97, 0.00, 86450.42, 0.00, 0.00, 0.00, 0.00, 0.00, 0.00, 0.01, -0.01, 1.04
98, 0.00, 86483.44, 0.00, 0.00, 0.00, 0.00, 0.00, 0.00, 0.01, -0.01, 1.04
99, 0.00, 86474.00, 0.00, 0.00, 0.00, 0.00, 0.00, 0.00, 0.01, -0.01, 1.04
100, 0.00, 86436.47, 0.00, 0.00, 0.00, 0.00, 0.00, 0.00, 0.01, -0.01, 1.04
101, 0.00, 86439.47, 0.00, 0.00, 0.00, 0.00, 0.00, 0.00, 0.01, -0.01, 1.04
102, 0.00, 86456.63, 0.00, 0.00, 0.00, 0.00, 0.00, 0.00, 0.01, -0.01, 1.04
103, 0.00, 86427.27, 0.00, 0.00, 0.00, 0.00, 0.00, 0.00, 0.01, -0.01, 1.04
104, 0.00, 86406.90, 0.00, 0.00, 0.00, 0.00, 0.00, 0.00, 0.01, -0.01, 1.04
105, 0.00, 86450.13, 0.00, 0.00, 0.00, 0.00, 0.00, 0.00, 0.01, -0.00, 1.03
106, 0.00, 86475.41, 0.00, 0.00, 0.00, 0.00, 0.00, 0.00, 0.01, -0.00, 1.03
107, 0.00, 86473.17, 0.00, 0.00, 0.00, 0.00, 0.00, 0.00, 0.01, -0.00, 1.03
108, 0.00, 86431.94, 0.00, 0.00, 0.00, 0.00, 0.00, 0.00, 0.01, -0.00, 1.03
109, 0.00, 86422.30, 0.00, 0.00, 0.00, 0.00, 0.00, 0.00, 0.01, -0.00, 1.03
110, 0.00, 86429.27, 0.00, 0.00, 0.00, 0.00, 0.00, 0.00, 0.02, -0.00, 1.03
111, 0.00, 86425.30, 0.00, 0.00, 0.00, 0.00, 0.00, 0.00, 0.02, -0.00, 1.03
112, 0.00, 86457.08, 0.00, 0.00, 0.00, 0.00, 0.00, 0.00, 0.02, -0.00, 1.03
113, 0.00, 86480.02, 0.00, 0.00, 0.00, 0.00, 0.00, 0.00, 0.02, -0.00, 1.03
114, 0.00, 86450.80, 0.00, 0.00, 0.00, 0.00, 0.00, 0.00, 0.02, -0.00, 1.03
115, 0.00, 86441.57, 0.00, 0.00, 0.00, 0.00, 0.00, 0.00, 0.01, -0.00, 1.03
116, 0.00, 86433.61, 0.00, 0.00, 0.00, 0.00, 0.00, 0.00, 0.01, -0.00, 1.03
117, 0.00, 86439.27, 0.00, 0.00, 0.00, 0.00, 0.00, 0.00, 0.01, -0.00, 1.03
118, 0.00, 86444.20, 0.00, 0.00, 0.00, 0.00, 0.00, 0.00, 0.01, -0.00, 1.03
119, 0.00, 86454.82, 0.00, 0.00, 0.00, 0.00, 0.00, 0.00, 0.01, -0.00, 1.03
120, 0.00, 86443.91, 0.00, 0.00, 0.00, 0.00, 0.00, 0.00, 0.01, 0.00, 1.03
121, 0.00, 86438.08, 0.00, 0.00, 0.00, 0.00, 0.00, 0.00, 0.01, 0.00, 1.03
122, 0.00, 86442.93, 0.00, 0.00, 0.00, 0.00, 0.00, 0.00, 0.01, 0.00, 1.03
123, 0.00, 86445.91, 0.00, 0.00, 0.00, 0.00, 0.00, 0.00, 0.01, 0.00, 1.03
124, 0.00, 86420.91, 0.00, 0.00, 0.00, 0.00, 0.00, 0.00, 0.01, 0.00, 1.03
125, 0.00, 86441.26, 0.00, 0.00, 0.00, 0.00, 0.00, 0.00, 0.02, 0.00, 1.03
126, 0.00, 86455.72, 0.00, 0.00, 0.00, 0.00, 0.00, 0.00, 0.02, 0.00, 1.03
127, 0.00, 86460.45, 0.00, 0.00, 0.00, 0.00, 0.00, 0.00, 0.02, 0.00, 1.03
128, 0.00, 86461.77, 0.00, 0.00, 0.00, 0.00, 0.00, 0.00, 0.02, 0.00, 1.03
129, 0.00, 86418.46, 0.00, 0.00, 0.00, 0.00, 0.00, 0.00, 0.02, 0.00, 1.03
130, 0.00, 86439.80, 0.00, 0.00, 0.00, 0.00, 0.00, 0.00, 0.01, -0.00, 1.03
131, 0.00, 86479.21, 0.00, 0.00, 0.00, 0.00, 0.00, 0.00, 0.01, -0.00, 1.03
132, 0.00, 86461.82, 0.00, 0.00, 0.00, 0.00, 0.00, 0.00, 0.01, -0.00, 1.03
133, 0.00, 86429.70, 0.00, 0.00, 0.00, 0.00, 0.00, 0.00, 0.01, -0.00, 1.03
134, 0.00, 86426.77, 0.00, 0.00, 0.00, 0.00, 0.00, 0.00, 0.01, -0.00, 1.03
135, 0.00, 86445.10, 0.00, 0.00, 0.00, 0.00, 0.00, 0.00, 0.02, -0.01, 1.02
136, 0.00, 86466.02, 0.00, 0.00, 0.00, 0.00, 0.00, 0.00, 0.02, -0.01, 1.02
137, 0.00, 86438.91, 0.00, 0.00, 0.00, 0.00, 0.00, 0.00, 0.02, -0.01, 1.02
138, 0.00, 86445.48, 0.00, 0.00, 0.00, 0.00, 0.00, 0.00, 0.02, -0.01, 1.02
139, 0.00, 86453.77, 0.00, 0.00, 0.00, 0.00, 0.00, 0.00, 0.02, -0.01, 1.02
140, 0.00, 86438.02, 0.00, 0.00, 0.00, 0.00, 0.00, 0.00, 0.02, -0.01, 1.03
141, 0.00, 86441.81, 0.00, 0.00, 0.00, 0.00, 0.00, 0.00, 0.02, -0.01, 1.03
142, 0.00, 86443.78, 0.00, 0.00, 0.00, 0.00, 0.00, 0.00, 0.02, -0.01, 1.03
143, 0.00, 86437.27, 0.00, 0.00, 0.00, 0.00, 0.00, 0.00, 0.02, -0.01, 1.03
144, 0.00, 86451.25, 0.00, 0.00, 0.00, 0.00, 0.00, 0.00, 0.02, -0.01, 1.03
145, 0.00, 86446.28, 0.00, 0.00, 0.00, 0.00, 0.00, 0.00, 0.02, -0.01, 1.03
146, 0.00, 86436.83, 0.00, 0.00, 0.00, 0.00, 0.00, 0.00, 0.02, -0.01, 1.03
147, 0.00, 86443.78, 0.00, 0.00, 0.00, 0.00, 0.00, 0.00, 0.02, -0.01, 1.03
148, 0.00, 86463.09, 0.00, 0.00, 0.00, 0.00, 0.00, 0.00, 0.02, -0.01, 1.03
149, 0.00, 86455.43, 0.00, 0.00, 0.00, 0.00, 0.00, 0.00, 0.02, -0.01, 1.03
150, 0.00, 86430.10, 0.00, 0.00, 0.00, 0.00, 0.00, 0.00, 0.01, -0.00, 1.02
151, 0.00, 86450.20, 0.00, 0.00, 0.00, 0.00, 0.00, 0.00, 0.01, -0.00, 1.02
152, 0.00, 86451.91, 0.00, 0.00, 0.00, 0.00, 0.00, 0.00, 0.01, -0.00, 1.02
153, 0.00, 86438.24, 0.00, 0.00, 0.00, 0.00, 0.00, 0.00, 0.01, -0.00, 1.02
154, 0.00, 86442.53, 0.00, 0.00, 0.00, 0.00, 0.00, 0.00, 0.01, -0.00, 1.02
155, 0.00, 86445.01, 0.00, 0.00, 0.00, 0.00, 0.00, 0.00, 0.01, -0.01, 1.02
156, 0.00, 86437.12, 0.00, 0.00, 0.00, 0.00, 0.00, 0.00, 0.01, -0.01, 1.02
157, 0.00, 86431.35, 0.00, 0.00, 0.00, 0.00, 0.00, 0.00, 0.01, -0.01, 1.02
158, 0.00, 86425.70, 0.00, 0.00, 0.00, 0.00, 0.00, 0.00, 0.01, -0.01, 1.02
159, 0.00, 86435.04, 0.00, 0.00, 0.00, 0.00, 0.00, 0.00, 0.01, -0.01, 1.02
160, 0.00, 86440.52, 0.00, 0.00, 0.00, 0.00, 0.00, 0.00, 0.02, -0.01, 1.02
161, 0.00, 86463.52, 0.00, 0.00, 0.00, 0.00, 0.00, 0.00, 0.02, -0.01, 1.02
162, 0.00, 86457.41, 0.00, 0.00, 0.00, 0.00, 0.00, 0.00, 0.02, -0.01, 1.02
163, 0.00, 86402.74, 0.00, 0.00, 0.00, 0.00, 0.00, 0.00, 0.02, -0.01, 1.02
164, 0.00, 86408.53, 0.00, 0.00, 0.00, 0.00, 0.00, 0.00, 0.02, -0.01, 1.02
165, 0.00, 86438.69, 0.00, 0.00, 0.00, 0.00, 0.00, 0.00, 0.02, -0.01, 1.02
166, 0.00, 86417.61, 0.00, 0.00, 0.00, 0.00, 0.00, 0.00, 0.02, -0.01, 1.02
167, 0.00, 86442.46, 0.00, 0.00, 0.00, 0.00, 0.00, 0.00, 0.02, -0.01, 1.02
168, 0.00, 86472.86, 0.00, 0.00, 0.00, 0.00, 0.00, 0.00, 0.02, -0.01, 1.02
169, 0.00, 86447.91, 0.00, 0.00, 0.00, 0.00, 0.00, 0.00, 0.02, -0.01, 1.02
170, 0.00, 86446.55, 0.00, 0.00, 0.00, 0.00, 0.00, 0.00, 0.02, -0.01, 1.03
171, 0.00, 86433.21, 0.00, 0.00, 0.00, 0.00, 0.00, 0.00, 0.02, -0.01, 1.03
172, 0.00, 86433.81, 0.00, 0.00, 0.00, 0.00, 0.00, 0.00, 0.02, -0.01, 1.03
173, 0.00, 86452.16, 0.00, 0.00, 0.00, 0.00, 0.00, 0.00, 0.02, -0.01, 1.03
174, 0.00, 86467.41, 0.00, 0.00, 0.00, 0.00, 0.00, 0.00, 0.02, -0.01, 1.03
175, 0.00, 86426.37, 0.00, 0.00, 0.00, 0.00, 0.00, 0.00, 0.01, -0.01, 1.03
176, 0.00, 86431.78, 0.00, 0.00, 0.00, 0.00, 0.00, 0.00, 0.01, -0.01, 1.03
177, 0.00, 86462.42, 0.00, 0.00, 0.00, 0.00, 0.00, 0.00, 0.01, -0.01, 1.03
178, 0.00, 86479.81, 0.00, 0.00, 0.00, 0.00, 0.00, 0.00, 0.01, -0.01, 1.03
179, 0.00, 86453.91, 0.00, 0.00, 0.00, 0.00, 0.00, 0.00, 0.01, -0.01, 1.03
180, 0.00, 86457.44, 0.00, 0.00, 0.00, 0.00, 0.00, 0.00, 0.01, -0.01, 1.03
181, 0.00, 86445.66, 0.00, 0.00, 0.00, 0.00, 0.00, 0.00, 0.01, -0.01, 1.03
182, 0.00, 86446.76, 0.00, 0.00, 0.00, 0.00, 0.00, 0.00, 0.01, -0.01, 1.03
183, 0.00, 86451.45, 0.00, 0.00, 0.00, 0.00, 0.00, 0.00, 0.01, -0.01, 1.03
184, 0.00, 86442.66, 0.00, 0.00, 0.00, 0.00, 0.00, 0.00, 0.01, -0.01, 1.03
185, 0.00, 86417.97, 0.00, 0.00, 0.00, 0.00, 0.00, 0.00, 0.01, -0.00, 1.02
186, 0.00, 86459.96, 0.00, 0.00, 0.00, 0.00, 0.00, 0.00, 0.01, -0.00, 1.02
187, 0.00, 86450.29, 0.00, 0.00, 0.00, 0.00, 0.00, 0.00, 0.01, -0.00, 1.02
188, 0.00, 86429.74, 0.00, 0.00, 0.00, 0.00, 0.00, 0.00, 0.01, -0.00, 1.02
189, 0.00, 86442.15, 0.00, 0.00, 0.00, 0.00, 0.00, 0.00, 0.01, -0.00, 1.02
190, 0.00, 86462.53, 0.00, 0.00, 0.00, 0.00, 0.00, 0.00, 0.02, -0.00, 1.02
191, 0.00, 86440.63, 0.00, 0.00, 0.00, 0.00, 0.00, 0.00, 0.02, -0.00, 1.02
192, 0.00, 86408.29, 0.00, 0.00, 0.00, 0.00, 0.00, 0.00, 0.02, -0.00, 1.02
193, 0.00, 86428.80, 0.00, 0.00, 0.00, 0.00, 0.00, 0.00, 0.02, -0.00, 1.02
194, 0.00, 86450.82, 0.00, 0.00, 0.00, 0.00, 0.00, 0.00, 0.02, -0.00, 1.02
195, 0.00, 86461.41, 0.00, 0.00, 0.00, 0.00, 0.00, 0.00, 0.02, -0.00, 1.02
196, 0.00, 86442.84, 0.00, 0.00, 0.00, 0.00, 0.00, 0.00, 0.02, -0.00, 1.02
197, 0.00, 86428.47, 0.00, 0.00, 0.00, 0.00, 0.00, 0.00, 0.02, -0.00, 1.02
198, 0.00, 86453.68, 0.00, 0.00, 0.00, 0.00, 0.00, 0.00, 0.02, -0.00, 1.02
199, 0.00, 86451.90, 0.00, 0.00, 0.00, 0.00, 0.00, 0.00, 0.02, -0.00, 1.02
200, 0.00, 86437.68, 0.00, 0.00, 0.00, 0.00, 0.00, 0.00, 0.02, -0.01, 1.03
201, 0.00, 86441.45, 0.00, 0.00, 0.00, 0.00, 0.00, 0.00, 0.02, -0.01, 1.03
202, 0.00, 86431.82, 0.00, 0.00, 0.00, 0.00, 0.00, 0.00, 0.02, -0.01, 1.03
203, 0.00, 86434.66, 0.00, 0.00, 0.00, 0.00, 0.00, 0.00, 0.02, -0.01, 1.03
204, 0.00, 86440.88, 0.00, 0.00, 0.00, 0.00, 0.00, 0.00, 0.02, -0.01, 1.03
205, 0.00, 86412.63, 0.00, 0.00, 0.00, 0.00, 0.00, 0.00, 0.02, -0.01, 1.03
206, 0.00, 86431.94, 0.00, 0.00, 0.00, 0.00, 0.00, 0.00, 0.02, -0.01, 1.03
207, 0.00, 86472.08, 0.00, 0.00, 0.00, 0.00, 0.00, 0.00, 0.02, -0.01, 1.03
208, 0.00, 86450.73, 0.00, 0.00, 0.00, 0.00, 0.00, 0.00, 0.02, -0.01, 1.03
209, 0.00, 86419.69, 0.00, 0.00, 0.00, 0.00, 0.00, 0.00, 0.02, -0.01, 1.03
210, 0.00, 86430.26, 0.00, 0.00, 0.00, 0.00, 0.00, 0.00, 0.01, -0.00, 1.03
211, 0.00, 86435.96, 0.00, 0.00, 0.00, 0.00, 0.00, 0.00, 0.01, -0.00, 1.03
212, 0.00, 86439.45, 0.00, 0.00, 0.00, 0.00, 0.00, 0.00, 0.01, -0.00, 1.03
213, 0.00, 86425.01, 0.00, 0.00, 0.00, 0.00, 0.00, 0.00, 0.01, -0.00, 1.03
214, 0.00, 86431.27, 0.00, 0.00, 0.00, 0.00, 0.00, 0.00, 0.01, -0.00, 1.03
215, 0.00, 86454.29, 0.00, 0.00, 0.00, 0.00, 0.00, 0.00, 0.01, -0.00, 1.03
216, 0.00, 86476.17, 0.00, 0.00, 0.00, 0.00, 0.00, 0.00, 0.01, -0.01, 1.03
217, 0.00, 86471.25, 0.00, 0.00, 0.00, 0.00, 0.00, 0.00, 0.01, -0.01, 1.03
218, 0.00, 86438.71, 0.00, 0.00, 0.00, 0.00, 0.00, 0.00, 0.01, -0.01, 1.03
219, 0.00, 86433.92, 0.00, 0.00, 0.00, 0.00, 0.00, 0.00, 0.01, -0.01, 1.03
220, 0.00, 86447.52, 0.00, 0.00, 0.00, 0.00, 0.00, 0.00, 0.01, -0.01, 1.03
221, 0.00, 86452.84, 0.00, 0.00, 0.00, 0.00, 0.00, 0.00, 0.01, -0.00, 1.03
222, 0.00, 86446.66, 0.00, 0.00, 0.00, 0.00, 0.00, 0.00, 0.01, -0.00, 1.03
223, 0.00, 86461.82, 0.00, 0.00, 0.00, 0.00, 0.00, 0.00, 0.01, -0.00, 1.03
224, 0.00, 86485.22, 0.00, 0.00, 0.00, 0.00, 0.00, 0.00, 0.01, -0.00, 1.03
225, 0.00, 86457.15, 0.00, 0.00, 0.00, 0.00, 0.00, 0.00, 0.01, -0.00, 1.03
226, 0.00, 86415.13, 0.00, 0.00, 0.00, 0.00, 0.00, 0.00, 0.01, -0.01, 1.03
227, 0.00, 86414.03, 0.00, 0.00, 0.00, 0.00, 0.00, 0.00, 0.01, -0.01, 1.03
228, 0.00, 86428.13, 0.00, 0.00, 0.00, 0.00, 0.00, 0.00, 0.01, -0.01, 1.03
229, 0.00, 86428.59, 0.00, 0.00, 0.00, 0.00, 0.00, 0.00, 0.01, -0.01, 1.03
230, 0.00, 86425.25, 0.00, 0.00, 0.00, 0.00, 0.00, 0.00, 0.01, -0.01, 1.03
231, 0.00, 86453.88, 0.00, 0.00, 0.00, 0.00, 0.00, 0.00, 0.01, -0.00, 1.03
232, 0.00, 86497.13, 0.00, 0.00, 0.00, 0.00, 0.00, 0.00, 0.01, -0.00, 1.03
233, 0.00, 86472.10, 0.00, 0.00, 0.00, 0.00, 0.00, 0.00, 0.01, -0.00, 1.03
234, 0.00, 86422.75, 0.00, 0.00, 0.00, 0.00, 0.00, 0.00, 0.01, -0.00, 1.03
235, 0.00, 86413.83, 0.00, 0.00, 0.00, 0.00, 0.00, 0.00, 0.01, -0.00, 1.03
236, 0.00, 86391.75, 0.00, 0.00, 0.00, 0.00, 0.00, 0.00, 0.01, -0.00, 1.03
237, 0.00, 86367.56, 0.00, 0.00, 0.00, 0.00, 0.00, 0.00, 0.01, -0.00, 1.03
238, 0.00, 86367.27, 0.00, 0.00, 0.00, 0.00, 0.00, 0.00, 0.01, -0.00, 1.03
239, 0.00, 86353.81, 0.00, 0.00, 0.00, 0.00, 0.00, 0.00, 0.01, -0.00, 1.03
240, 0.00, 86335.78, 0.00, 0.00, 0.00, 0.00, 0.00, 0.00, 0.01, -0.00, 1.03
241, 0.00, 86320.22, 0.00, 0.00, 0.00, 0.00, 0.00, 0.00, 0.01, -0.00, 1.03
242, 0.00, 86302.20, 0.00, 0.00, 0.00, 0.00, 0.00, 0.00, 0.01, -0.00, 1.03
243, 0.00, 86295.34, 0.00, 0.00, 0.00, 0.00, 0.00, 0.00, 0.01, -0.00, 1.03
244, 0.00, 86287.54, 0.00, 0.00, 0.00, 0.00, 0.00, 0.00, 0.01, -0.00, 1.03
245, 0.00, 86242.26, 0.00, 0.00, 0.00, 0.00, 0.00, 0.00, 0.01, -0.00, 1.03
246, 0.00, 86237.41, 0.00, 0.00, 0.00, 0.00, 0.00, 0.00, 0.02, 0.00, 1.03
247, 0.00, 86239.87, 0.00, 0.00, 0.00, 0.00, 0.00, 0.00, 0.02, 0.00, 1.03
248, 0.00, 86179.41, 0.00, 0.00, 0.00, 0.00, 0.00, 0.00, 0.02, 0.00, 1.03
249, 0.00, 86118.34, 0.00, 0.00, 0.00, 0.00, 0.00, 0.00, 0.02, 0.00, 1.03
250, 0.00, 86101.55, 0.00, 0.00, 0.00, 0.00, 0.00, 0.00, 0.02, 0.00, 1.03
251, 0.00, 86119.77, 0.00, 0.00, 0.00, 0.00, 0.00, 0.00, 0.02, -0.00, 1.03
252, 0.00, 86143.13, 0.00, 0.00, 0.00, 0.00, 0.00, 0.00, 0.02, -0.00, 1.03
253, 0.00, 86067.71, 0.00, 0.00, 0.00, 0.00, 0.00, 0.00, 0.02, -0.00, 1.03
254, 0.00, 86053.56, 0.00, 0.00, 0.00, 0.00, 0.00, 0.00, 0.02, -0.00, 1.03
255, 0.00, 86063.13, 0.00, 0.00, 0.00, 0.00, 0.00, 0.00, 0.02, -0.00, 1.03
0, 0.00, 86085.57, 0.00, 0.00, 0.00, 0.00, 0.00, 0.00, 0.01, -0.00, 1.03
1, 0.00, 86084.01, 0.00, 0.00, 0.00, 0.00, 0.00, 0.00, 0.01, -0.00, 1.03
2, 0.00, 86071.29, 0.00, 0.00, 0.00, 0.00, 0.00, 0.00, 0.01, -0.00, 1.03
3, 0.00, 86086.09, 0.00, 0.00, 0.00, 0.00, 0.00, 0.00, 0.01, -0.00, 1.03
4, 0.00, 86073.57, 0.00, 0.00, 0.00, 0.00, 0.00, 0.00, 0.01, -0.00, 1.03
5, 0.00, 86083.07, 0.00, 0.00, 0.00, 0.00, 0.00, 0.00, 0.02, -0.00, 1.02
6, 0.00, 86092.10, 0.00, 0.00, 0.00, 0.00, 0.00, 0.00, 0.02, -0.00, 1.02
7, 0.00, 86108.48, 0.00, 0.00, 0.00, 0.00, 0.00, 0.00, 0.02, -0.00, 1.02
8, 0.00, 86119.13, 0.00, 0.00, 0.00, 0.00, 0.00, 0.00, 0.02, -0.00, 1.02
9, 0.00, 86148.00, 0.00, 0.00, 0.00, 0.00, 0.00, 0.00, 0.02, -0.00, 1.02
10, 0.00, 86196.88, 0.00, 0.00, 0.00, 0.00, 0.00, 0.00, 0.01, -0.00, 1.03
11, 0.00, 86230.37, 0.00, 0.00, 0.00, 0.00, 0.00, 0.00, 0.01, -0.00, 1.03
12, 0.00, 86146.01, 0.00, 0.00, 0.00, 0.00, 0.00, 0.00, 0.01, -0.00, 1.03
13, 0.00, 86165.73, 0.00, 0.00, 0.00, 0.00, 0.00, 0.00, 0.01, -0.00, 1.03
14, 0.00, 86173.33, 0.00, 0.00, 0.00, 0.00, 0.00, 0.00, 0.01, -0.00, 1.03
15, 0.00, 86199.74, 0.00, 0.00, 0.00, 0.00, 0.00, 0.00, 0.02, -0.01, 1.03
16, 0.00, 86236.40, 0.00, 0.00, 0.00, 0.00, 0.00, 0.00, 0.02, -0.01, 1.03
17, 0.00, 86233.48, 0.00, 0.00, 0.00, 0.00, 0.00, 0.00, 0.02, -0.01, 1.03
18, 0.00, 86211.16, 0.00, 0.00, 0.00, 0.00, 0.00, 0.00, 0.02, -0.01, 1.03
19, 0.00, 86218.70, 0.00, 0.00, 0.00, 0.00, 0.00, 0.00, 0.02, -0.01, 1.03
20, 0.00, 86244.00, 0.00, 0.00, 0.00, 0.00, 0.00, 0.00, 0.01, -0.01, 1.03
21, 0.00, 86256.67, 0.00, 0.00, 0.00, 0.00, 0.00, 0.00, 0.01, -0.01, 1.03
22, 0.00, 86266.27, 0.00, 0.00, 0.00, 0.00, 0.00, 0.00, 0.01, -0.01, 1.03
23, 0.00, 86279.16, 0.00, 0.00, 0.00, 0.00, 0.00, 0.00, 0.01, -0.01, 1.03
24, 0.00, 86290.65, 0.00, 0.00, 0.00, 0.00, 0.00, 0.00, 0.01, -0.01, 1.03
25, 0.00, 86317.80, 0.00, 0.00, 0.00, 0.00, 0.00, 0.00, 0.01, -0.01, 1.04
26, 0.00, 86362.76, 0.00, 0.00, 0.00, 0.00, 0.00, 0.00, 0.01, -0.01, 1.04
27, 0.00, 86373.10, 0.00, 0.00, 0.00, 0.00, 0.00, 0.00, 0.01, -0.01, 1.04
28, 0.00, 86318.21, 0.00, 0.00, 0.00, 0.00, 0.00, 0.00, 0.01, -0.01, 1.04
29, 0.00, 86320.45, 0.00, 0.00, 0.00, 0.00, 0.00, 0.00, 0.01, -0.01, 1.04
30, 0.00, 86280.46, 0.00, 0.00, 0.00, 0.00, 0.00, 0.00, 0.02, -0.01, 1.03
31, 0.00, 86327.55, 0.00, 0.00, 0.00, 0.00, 0.00, 0.00, 0.02, -0.01, 1.03
32, 0.00, 86335.35, 0.00, 0.00, 0.00, 0.00, 0.00, 0.00, 0.02, -0.01, 1.03
33, 0.00, 86304.13, 0.00, 0.00, 0.00, 0.00, 0.00, 0.00, 0.02, -0.01, 1.03
34, 0.00, 86312.24, 0.00, 0.00, 0.00, 0.00, 0.00, 0.00, 0.02, -0.01, 1.03
35, 0.00, 86302.88, 0.00, 0.00, 0.00, 0.00, 0.00, 0.00, 0.01, -0.00, 1.03
36, 0.00, 86321.90, 0.00, 0.00, 0.00, 0.00, 0.00, 0.00, 0.01, -0.00, 1.03
37, 0.00, 86346.55, 0.00, 0.00, 0.00, 0.00, 0.00, 0.00, 0.01, -0.00, 1.03
38, 0.00, 86332.27, 0.00, 0.00, 0.00, 0.00, 0.00, 0.00, 0.01, -0.00, 1.03
39, 0.00, 86351.40, 0.00, 0.00, 0.00, 0.00, 0.00, 0.00, 0.01, -0.00, 1.03
40, 0.00, 86381.80, 0.00, 0.00, 0.00, 0.00, 0.00, 0.00, 0.02, -0.01, 1.04
41, 0.00, 86382.72, 0.00, 0.00, 0.00, 0.00, 0.00, 0.00, 0.02, -0.01, 1.04
42, 0.00, 86362.69, 0.00, 0.00, 0.00, 0.00, 0.00, 0.00, 0.02, -0.01, 1.04
43, 0.00, 86368.44, 0.00, 0.00, 0.00, 0.00, 0.00, 0.00, 0.02, -0.01, 1.04
44, 0.00, 86365.95, 0.00, 0.00, 0.00, 0.00, 0.00, 0.00, 0.02, -0.01, 1.04
45, 0.00, 86364.08, 0.00, 0.00, 0.00, 0.00, 0.00, 0.00, 0.02, -0.01, 1.03
46, 0.00, 86368.14, 0.00, 0.00, 0.00, 0.00, 0.00, 0.00, 0.02, -0.01, 1.03
47, 0.00, 86367.23, 0.00, 0.00, 0.00, 0.00, 0.00, 0.00, 0.02, -0.01, 1.03
48, 0.00, 86379.72, 0.00, 0.00, 0.00, 0.00, 0.00, 0.00, 0.02, -0.01, 1.03
49, 0.00, 86402.25, 0.00, 0.00, 0.00, 0.00, 0.00, 0.00, 0.02, -0.01, 1.03
50, 0.00, 86404.82, 0.00, 0.00, 0.00, 0.00, 0.00, 0.00, 0.01, -0.01, 1.03
51, 0.00, 86368.16, 0.00, 0.00, 0.00, 0.00, 0.00, 0.00, 0.01, -0.01, 1.03
52, 0.00, 86369.17, 0.00, 0.00, 0.00, 0.00, 0.00, 0.00, 0.01, -0.01, 1.03
53, 0.00, 86404.89, 0.00, 0.00, 0.00, 0.00, 0.00, 0.00, 0.01, -0.01, 1.03
54, 0.00, 86389.34, 0.00, 0.00, 0.00, 0.00, 0.00, 0.00, 0.01, -0.01, 1.03
55, 0.00, 86365.38, 0.00, 0.00, 0.00, 0.00, 0.00, 0.00, 0.02, 0.00, 1.03
56, 0.00, 86354.89, 0.00, 0.00, 0.00, 0.00, 0.00, 0.00, 0.02, 0.00, 1.03
57, 0.00, 86355.38, 0.00, 0.00, 0.00, 0.00, 0.00, 0.00, 0.02, 0.00, 1.03
58, 0.00, 86386.98, 0.00, 0.00, 0.00, 0.00, 0.00, 0.00, 0.02, 0.00, 1.03
59, 0.00, 86393.53, 0.00, 0.00, 0.00, 0.00, 0.00, 0.00, 0.02, 0.00, 1.03
60, 0.00, 86341.23, 0.00, 0.00, 0.00, 0.00, 0.00, 0.00, 0.02, 0.00, 1.04
61, 0.00, 86357.70, 0.00, 0.00, 0.00, 0.00, 0.00, 0.00, 0.02, 0.00, 1.04
62, 0.00, 86384.59, 0.00, 0.00, 0.00, 0.00, 0.00, 0.00, 0.02, 0.00, 1.04
63, 0.00, 86382.49, 0.00, 0.00, 0.00, 0.00, 0.00, 0.00, 0.02, 0.00, 1.04
64, 0.00, 86365.08, 0.00, 0.00, 0.00, 0.00, 0.00, 0.00, 0.02, 0.00, 1.04
65, 0.00, 86370.60, 0.00, 0.00, 0.00, 0.00, 0.00, 0.00, 0.01, -0.00, 1.04
66, 0.00, 86358.87, 0.00, 0.00, 0.00, 0.00, 0.00, 0.00, 0.01, -0.00, 1.04
67, 0.00, 86372.57, 0.00, 0.00, 0.00, 0.00, 0.00, 0.00, 0.01, -0.00, 1.04
68, 0.00, 86389.80, 0.00, 0.00, 0.00, 0.00, 0.00, 0.00, 0.01, -0.00, 1.04
69, 0.00, 86384.75, 0.00, 0.00, 0.00, 0.00, 0.00, 0.00, 0.01, -0.00, 1.04
70, 0.00, 86376.70, 0.00, 0.00, 0.00, 0.00, 0.00, 0.00, 0.02, -0.00, 1.04
71, 0.00, 86415.26, 0.00, 0.00, 0.00, 0.00, 0.00, 0.00, 0.02, -0.00, 1.04
72, 0.00, 86406.68, 0.00, 0.00, 0.00, 0.00, 0.00, 0.00, 0.02, -0.00, 1.04
73, 0.00, 86373.22, 0.00, 0.00, 0.00, 0.00, 0.00, 0.00, 0.02, -0.00, 1.04
74, 0.00, 86390.45, 0.00, 0.00, 0.00, 0.00, 0.00, 0.00, 0.02, -0.00, 1.04
75, 0.00, 86392.24, 0.00, 0.00, 0.00, 0.00, 0.00, 0.00, 0.01, -0.01, 1.03
76, 0.00, 86381.04, 0.00, 0.00, 0.00, 0.00, 0.00, 0.00, 0.01, -0.01, 1.03
77, 0.00, 86387.84, 0.00, 0.00, 0.00, 0.00, 0.00, 0.00, 0.01, -0.01, 1.03
78, 0.00, 86383.45, 0.00, 0.00, 0.00, 0.00, 0.00, 0.00, 0.01, -0.01, 1.03
79, 0.00, 86368.52, 0.00, 0.00, 0.00, 0.00, 0.00, 0.00, 0.01, -0.01, 1.03
80, 0.00, 86372.34, 0.00, 0.00, 0.00, 0.00, 0.00, 0.00, 0.02, -0.01, 1.04
81, 0.00, 86382.74, 0.00, 0.00, 0.00, 0.00, 0.00, 0.00, 0.02, -0.01, 1.04
82, 0.00, 86386.16, 0.00, 0.00, 0.00, 0.00, 0.00, 0.00, 0.02, -0.01, 1.04
83, 0.00, 86403.48, 0.00, 0.00, 0.00, 0.00, 0.00, 0.00, 0.02, -0.01, 1.04
84, 0.00, 86398.45, 0.00, 0.00, 0.00, 0.00, 0.00, 0.00, 0.02, -0.01, 1.04
85, 0.00, 86407.91, 0.00, 0.00, 0.00, 0.00, 0.00, 0.00, 0.02, -0.01, 1.03
86, 0.00, 86443.94, 0.00, 0.00, 0.00, 0.00, 0.00, 0.00, 0.02, -0.01, 1.03
87, 0.00, 86414.57, 0.00, 0.00, 0.00, 0.00, 0.00, 0.00, 0.02, -0.01, 1.03
88, 0.00, 86388.30, 0.00, 0.00, 0.00, 0.00, 0.00, 0.00, 0.02, -0.01, 1.03
89, 0.00, 86394.38, 0.00, 0.00, 0.00, 0.00, 0.00, 0.00, 0.02, -0.01, 1.03
90, 0.00, 86397.67, 0.00, 0.00, 0.00, 0.00, 0.00, 0.00, 0.02, 0.00, 1.03
91, 0.00, 86424.78, 0.00, 0.00, 0.00, 0.00, 0.00, 0.00, 0.02, 0.00, 1.03
92, 0.00, 86439.52, 0.00, 0.00, 0.00, 0.00, 0.00, 0.00, 0.02, 0.00, 1.03
93, 0.00, 86414.05, 0.00, 0.00, 0.00, 0.00, 0.00, 0.00, 0.02, 0.00, 1.03
94, 0.00, 86426.21, 0.00, 0.00, 0.00, 0.00, 0.00, 0.00, 0.02, 0.00, 1.03
95, 0.00, 86442.71, 0.00, 0.00, 0.00, 0.00, 0.00, 0.00, 0.02, -0.01, 1.03
96, 0.00, 86404.91, 0.00, 0.00, 0.00, 0.00, 0.00, 0.00, 0.02, -0.01, 1.03
97, 0.00, 86400.98, 0.00, 0.00, 0.00, 0.00, 0.00, 0.00, 0.02, -0.01, 1.03
98, 0.00, 86411.28, 0.00, 0.00, 0.00, 0.00, 0.00, 0.00, 0.02, -0.01, 1.03
99, 0.00, 86411.15, 0.00, 0.00, 0.00, 0.00, 0.00, 0.00, 0.02, -0.01, 1.03
100, 0.00, 86422.93, 0.00, 0.00, 0.00, 0.00, 0.00, 0.00, 0.02, -0.00, 1.03
101, 0.00, 86433.05, 0.00, 0.00, 0.00, 0.00, 0.00, 0.00, 0.02, -0.00, 1.03
102, 0.00, 86443.60, 0.00, 0.00, 0.00, 0.00, 0.00, 0.00, 0.02, -0.00, 1.03
103, 0.00, 86421.09, 0.00, 0.00, 0.00, 0.00, 0.00, 0.00, 0.02, -0.00, 1.03
104, 0.00, 86407.26, 0.00, 0.00, 0.00, 0.00, 0.00, 0.00, 0.02, -0.00, 1.03
105, 0.00, 86405.23, 0.00, 0.00, 0.00, 0.00, 0.00, 0.00, 0.02, -0.00, 1.02
106, 0.00, 86412.80, 0.00, 0.00, 0.00, 0.00, 0.00, 0.00, 0.02, -0.00, 1.02
107, 0.00, 86415.51, 0.00, 0.00, 0.00, 0.00, 0.00, 0.00, 0.02, -0.00, 1.02
108, 0.00, 86413.54, 0.00, 0.00, 0.00, 0.00, 0.00, 0.00, 0.02, -0.00, 1.02
109, 0.00, 86417.18, 0.00, 0.00, 0.00, 0.00, 0.00, 0.00, 0.02, -0.00, 1.02
110, 0.00, 86412.76, 0.00, 0.00, 0.00, 0.00, 0.00, 0.00, 0.01, 0.00, 1.03
111, 0.00, 86424.80, 0.00, 0.00, 0.00, 0.00, 0.00, 0.00, 0.01, 0.00, 1.03
112, 0.00, 86443.78, 0.00, 0.00, 0.00, 0.00, 0.00, 0.00, 0.01, 0.00, 1.03
113, 0.00, 86427.55, 0.00, 0.00, 0.00, 0.00, 0.00, 0.00, 0.01, 0.00, 1.03
114, 0.00, 86419.62, 0.00, 0.00, 0.00, 0.00, 0.00, 0.00, 0.01, 0.00, 1.03
115, 0.00, 86413.92, 0.00, 0.00, 0.00, 0.00, 0.00, 0.00, 0.01, 0.00, 1.02
116, 0.00, 86415.71, 0.00, 0.00, 0.00, 0.00, 0.00, 0.00, 0.01, 0.00, 1.02
117, 0.00, 86437.61, 0.00, 0.00, 0.00, 0.00, 0.00, 0.00, 0.01, 0.00, 1.02
118, 0.00, 86462.31, 0.00, 0.00, 0.00, 0.00, 0.00, 0.00, 0.01, 0.00, 1.02
119, 0.00, 86425.38, 0.00, 0.00, 0.00, 0.00, 0.00, 0.00, 0.01, 0.00, 1.02
120, 0.00, 86378.58, 0.00, 0.00, 0.00, 0.00, 0.00, 0.00, 0.02, -0.00, 1.03
121, 0.00, 86403.68, 0.00, 0.00, 0.00, 0.00, 0.00, 0.00, 0.02, -0.00, 1.03
122, 0.00, 86407.73, 0.00, 0.00, 0.00, 0.00, 0.00, 0.00, 0.02, -0.00, 1.03
123, 0.00, 86402.84, 0.00, 0.00, 0.00, 0.00, 0.00, 0.00, 0.02, -0.00, 1.03
124, 0.00, 86401.47, 0.00, 0.00, 0.00, 0.00, 0.00, 0.00, 0.02, -0.00, 1.03
125, 0.00, 86412.16, 0.00, 0.00, 0.00, 0.00, 0.00, 0.00, 0.02, -0.00, 1.02
126, 0.00, 86430.26, 0.00, 0.00, 0.00, 0.00, 0.00, 0.00, 0.02, -0.00, 1.02
127, 0.00, 86440.79, 0.00, 0.00, 0.00, 0.00, 0.00, 0.00, 0.02, -0.00, 1.02
128, 0.00, 86438.28, 0.00, 0.00, 0.00, 0.00, 0.00, 0.00, 0.02, -0.00, 1.02
129, 0.00, 86431.91, 0.00, 0.00, 0.00, 0.00, 0.00, 0.00, 0.02, -0.00, 1.02
130, 0.00, 86433.43, 0.00, 0.00, 0.00, 0.00, 0.00, 0.00, 0.02, -0.01, 1.03
131, 0.00, 86423.87, 0.00, 0.00, 0.00, 0.00, 0.00, 0.00, 0.02, -0.01, 1.03
132, 0.00, 86418.50, 0.00, 0.00, 0.00, 0.00, 0.00, 0.00, 0.02, -0.01, 1.03
133, 0.00, 86401.63, 0.00, 0.00, 0.00, 0.00, 0.00, 0.00, 0.02, -0.01, 1.03
134, 0.00, 86422.21, 0.00, 0.00, 0.00, 0.00, 0.00, 0.00, 0.02, -0.01, 1.03
135, 0.00, 86432.85, 0.00, 0.00, 0.00, 0.00, 0.00, 0.00, 0.01, -0.00, 1.03
136, 0.00, 86435.00, 0.00, 0.00, 0.00, 0.00, 0.00, 0.00, 0.01, -0.00, 1.03
137, 0.00, 86429.05, 0.00, 0.00, 0.00, 0.00, 0.00, 0.00, 0.01, -0.00, 1.03
138, 0.00, 86391.08, 0.00, 0.00, 0.00, 0.00, 0.00, 0.00, 0.01, -0.00, 1.03
139, 0.00, 86401.70, 0.00, 0.00, 0.00, 0.00, 0.00, 0.00, 0.01, -0.00, 1.03
140, 0.00, 86424.91, 0.00, 0.00, 0.00, 0.00, 0.00, 0.00, 0.01, -0.01, 1.03
141, 0.00, 86395.48, 0.00, 0.00, 0.00, 0.00, 0.00, 0.00, 0.01, -0.01, 1.03
142, 0.00, 86369.69, 0.00, 0.00, 0.00, 0.00, 0.00, 0.00, 0.01, -0.01, 1.03
143, 0.00, 86383.39, 0.00, 0.00, 0.00, 0.00, 0.00, 0.00, 0.01, -0.01, 1.03
144, 0.00, 86392.15, 0.00, 0.00, 0.00, 0.00, 0.00, 0.00, 0.01, -0.01, 1.03
145, 0.00, 86387.73, 0.00, 0.00, 0.00, 0.00, 0.00, 0.00, 0.01, -0.01, 1.03
146, 0.00, 86389.29, 0.00, 0.00, 0.00, 0.00, 0.00, 0.00, 0.01, -0.01, 1.03
147, 0.00, 86409.85, 0.00, 0.00, 0.00, 0.00, 0.00, 0.00, 0.01, -0.01, 1.03
148, 0.00, 86407.46, 0.00, 0.00, 0.00, 0.00, 0.00, 0.00, 0.01, -0.01, 1.03
149, 0.00, 86431.55, 0.00, 0.00, 0.00, 0.00, 0.00, 0.00, 0.01, -0.01, 1.03
150, 0.00, 86439.87, 0.00, 0.00, 0.00, 0.00, 0.00, 0.00, 0.01, -0.01, 1.03
151, 0.00, 86431.02, 0.00, 0.00, 0.00, 0.00, 0.00, 0.00, 0.01, -0.00, 1.03
152, 0.00, 86443.42, 0.00, 0.00, 0.00, 0.00, 0.00, 0.00, 0.01, -0.00, 1.03
153, 0.00, 86435.00, 0.00, 0.00, 0.00, 0.00, 0.00, 0.00, 0.01, -0.00, 1.03
154, 0.00, 86422.41, 0.00, 0.00, 0.00, 0.00, 0.00, 0.00, 0.01, -0.00, 1.03
155, 0.00, 86403.30, 0.00, 0.00, 0.00, 0.00, 0.00, 0.00, 0.01, -0.00, 1.03
156, 0.00, 86391.61, 0.00, 0.00, 0.00, 0.00, 0.00, 0.00, 0.01, -0.01, 1.03
157, 0.00, 86393.83, 0.00, 0.00, 0.00, 0.00, 0.00, 0.00, 0.01, -0.01, 1.03
158, 0.00, 86405.70, 0.00, 0.00, 0.00, 0.00, 0.00, 0.00, 0.01, -0.01, 1.03
159, 0.00, 86416.91, 0.00, 0.00, 0.00, 0.00, 0.00, 0.00, 0.01, -0.01, 1.03
160, 0.00, 86417.23, 0.00, 0.00, 0.00, 0.00, 0.00, 0.00, 0.01, -0.01, 1.03
161, 0.00, 86413.20, 0.00, 0.00, 0.00, 0.00, 0.00, 0.00, 0.01, -0.01, 1.03
162, 0.00, 86410.01, 0.00, 0.00, 0.00, 0.00, 0.00, 0.00, 0.01, -0.01, 1.03
163, 0.00, 86421.30, 0.00, 0.00, 0.00, 0.00, 0.00, 0.00, 0.01, -0.01, 1.03
164, 0.00, 86434.55, 0.00, 0.00, 0.00, 0.00, 0.00, 0.00, 0.01, -0.01, 1.03
165, 0.00, 86439.69, 0.00, 0.00, 0.00, 0.00, 0.00, 0.00, 0.01, -0.01, 1.03
166, 0.00, 86441.37, 0.00, 0.00, 0.00, 0.00, 0.00, 0.00, 0.01, -0.01, 1.03
167, 0.00, 86468.48, 0.00, 0.00, 0.00, 0.00, 0.00, 0.00, 0.01, -0.01, 1.03
168, 0.00, 86450.15, 0.00, 0.00, 0.00, 0.00, 0.00, 0.00, 0.01, -0.01, 1.03
169, 0.00, 86420.49, 0.00, 0.00, 0.00, 0.00, 0.00, 0.00, 0.01, -0.01, 1.03
170, 0.00, 86438.69, 0.00, 0.00, 0.00, 0.00, 0.00, 0.00, 0.01, -0.01, 1.03
171, 0.00, 86447.91, 0.00, 0.00, 0.00, 0.00, 0.00, 0.00, 0.01, -0.01, 1.02
172, 0.00, 86411.70, 0.00, 0.00, 0.00, 0.00, 0.00, 0.00, 0.01, -0.01, 1.02
173, 0.00, 86428.47, 0.00, 0.00, 0.00, 0.00, 0.00, 0.00, 0.01, -0.01, 1.02
174, 0.00, 86407.46, 0.00, 0.00, 0.00, 0.00, 0.00, 0.00, 0.01, -0.01, 1.02
175, 0.00, 86392.24, 0.00, 0.00, 0.00, 0.00, 0.00, 0.00, 0.01, -0.01, 1.02
176, 0.00, 86409.80, 0.00, 0.00, 0.00, 0.00, 0.00, 0.00, 0.01, -0.01, 1.03
177, 0.00, 86417.14, 0.00, 0.00, 0.00, 0.00, 0.00, 0.00, 0.01, -0.01, 1.03
178, 0.00, 86420.70, 0.00, 0.00, 0.00, 0.00, 0.00, 0.00, 0.01, -0.01, 1.03
179, 0.00, 86430.52, 0.00, 0.00, 0.00, 0.00, 0.00, 0.00, 0.01, -0.01, 1.03
180, 0.00, 86455.56, 0.00, 0.00, 0.00, 0.00, 0.00, 0.00, 0.01, -0.01, 1.03
181, 0.00, 86459.56, 0.00, 0.00, 0.00, 0.00, 0.00, 0.00, 0.02, -0.00, 1.03
182, 0.00, 86449.13, 0.00, 0.00, 0.00, 0.00, 0.00, 0.00, 0.02, -0.00, 1.03
183, 0.00, 86479.48, 0.00, 0.00, 0.00, 0.00, 0.00, 0.00, 0.02, -0.00, 1.03
184, 0.00, 86475.72, 0.00, 0.00, 0.00, 0.00, 0.00, 0.00, 0.02, -0.00, 1.03
185, 0.00, 86427.73, 0.00, 0.00, 0.00, 0.00, 0.00, 0.00, 0.02, -0.00, 1.03
186, 0.00, 86412.87, 0.00, 0.00, 0.00, 0.00, 0.00, 0.00, 0.02, -0.00, 1.02
187, 0.00, 86400.93, 0.00, 0.00, 0.00, 0.00, 0.00, 0.00, 0.02, -0.00, 1.02
188, 0.00, 86391.30, 0.00, 0.00, 0.00, 0.00, 0.00, 0.00, 0.02, -0.00, 1.02
189, 0.00, 86386.31, 0.00, 0.00, 0.00, 0.00, 0.00, 0.00, 0.02, -0.00, 1.02
190, 0.00, 86404.76, 0.00, 0.00, 0.00, 0.00, 0.00, 0.00, 0.02, -0.00, 1.02
191, 0.00, 86390.14, 0.00, 0.00, 0.00, 0.00, 0.00, 0.00, 0.01, -0.01, 1.02
192, 0.00, 86394.85, 0.00, 0.00, 0.00, 0.00, 0.00, 0.00, 0.01, -0.01, 1.02
193, 0.00, 86410.45, 0.00, 0.00, 0.00, 0.00, 0.00, 0.00, 0.01, -0.01, 1.02
194, 0.00, 86408.24, 0.00, 0.00, 0.00, 0.00, 0.00, 0.00, 0.01, -0.01, 1.02
195, 0.00, 86406.41, 0.00, 0.00, 0.00, 0.00, 0.00, 0.00, 0.01, -0.01, 1.02
196, 0.00, 86441.70, 0.00, 0.00, 0.00, 0.00, 0.00, 0.00, 0.01, -0.01, 1.02
197, 0.00, 86442.82, 0.00, 0.00, 0.00, 0.00, 0.00, 0.00, 0.01, -0.01, 1.02
198, 0.00, 86429.19, 0.00, 0.00, 0.00, 0.00, 0.00, 0.00, 0.01, -0.01, 1.02
199, 0.00, 86410.66, 0.00, 0.00, 0.00, 0.00, 0.00, 0.00, 0.01, -0.01, 1.02
200, 0.00, 86362.51, 0.00, 0.00, 0.00, 0.00, 0.00, 0.00, 0.01, -0.01, 1.02
201, 0.00, 86403.10, 0.00, 0.00, 0.00, 0.00, 0.00, 0.00, 0.02, -0.00, 1.02
202, 0.00, 86402.74, 0.00, 0.00, 0.00, 0.00, 0.00, 0.00, 0.02, -0.00, 1.02
203, 0.00, 86403.41, 0.00, 0.00, 0.00, 0.00, 0.00, 0.00, 0.02, -0.00, 1.02
204, 0.00, 86399.52, 0.00, 0.00, 0.00, 0.00, 0.00, 0.00, 0.02, -0.00, 1.02
205, 0.00, 86415.10, 0.00, 0.00, 0.00, 0.00, 0.00, 0.00, 0.02, -0.00, 1.02
206, 0.00, 86416.27, 0.00, 0.00, 0.00, 0.00, 0.00, 0.00, 0.02, -0.01, 1.03
207, 0.00, 86393.53, 0.00, 0.00, 0.00, 0.00, 0.00, 0.00, 0.02, -0.01, 1.03
208, 0.00, 86379.88, 0.00, 0.00, 0.00, 0.00, 0.00, 0.00, 0.02, -0.01, 1.03
209, 0.00, 86404.73, 0.00, 0.00, 0.00, 0.00, 0.00, 0.00, 0.02, -0.01, 1.03
210, 0.00, 86415.75, 0.00, 0.00, 0.00, 0.00, 0.00, 0.00, 0.02, -0.01, 1.03
211, 0.00, 86421.16, 0.00, 0.00, 0.00, 0.00, 0.00, 0.00, 0.02, 0.00, 1.03
212, 0.00, 86410.59, 0.00, 0.00, 0.00, 0.00, 0.00, 0.00, 0.02, 0.00, 1.03
213, 0.00, 86398.66, 0.00, 0.00, 0.00, 0.00, 0.00, 0.00, 0.02, 0.00, 1.03
214, 0.00, 86412.69, 0.00, 0.00, 0.00, 0.00, 0.00, 0.00, 0.02, 0.00, 1.03
215, 0.00, 86415.75, 0.00, 0.00, 0.00, 0.00, 0.00, 0.00, 0.02, 0.00, 1.03
216, 0.00, 86446.73, 0.00, 0.00, 0.00, 0.00, 0.00, 0.00, 0.02, -0.00, 1.03
217, 0.00, 86445.75, 0.00, 0.00, 0.00, 0.00, 0.00, 0.00, 0.02, -0.00, 1.03
218, 0.00, 86414.88, 0.00, 0.00, 0.00, 0.00, 0.00, 0.00, 0.02, -0.00, 1.03
219, 0.00, 86413.43, 0.00, 0.00, 0.00, 0.00, 0.00, 0.00, 0.02, -0.00, 1.03
220, 0.00, 86402.79, 0.00, 0.00, 0.00, 0.00, 0.00, 0.00, 0.02, -0.00, 1.03
221, 0.00, 86420.76, 0.00, 0.00, 0.00, 0.00, 0.00, 0.00, 0.02, -0.01, 1.03
222, 0.00, 86415.06, 0.00, 0.00, 0.00, 0.00, 0.00, 0.00, 0.02, -0.01, 1.03
223, 0.00, 86400.13, 0.00, 0.00, 0.00, 0.00, 0.00, 0.00, 0.02, -0.01, 1.03
224, 0.00, 86395.39, 0.00, 0.00, 0.00, 0.00, 0.00, 0.00, 0.02, -0.01, 1.03
225, 0.00, 86406.99, 0.00, 0.00, 0.00, 0.00, 0.00, 0.00, 0.02, -0.01, 1.03
226, 0.00, 86423.93, 0.00, 0.00, 0.00, 0.00, 0.00, 0.00, 0.01, -0.00, 1.03
227, 0.00, 86421.19, 0.00, 0.00, 0.00, 0.00, 0.00, 0.00, 0.01, -0.00, 1.03
228, 0.00, 86429.12, 0.00, 0.00, 0.00, 0.00, 0.00, 0.00, 0.01, -0.00, 1.03
229, 0.00, 86434.59, 0.00, 0.00, 0.00, 0.00, 0.00, 0.00, 0.01, -0.00, 1.03
230, 0.00, 86436.16, 0.00, 0.00, 0.00, 0.00, 0.00, 0.00, 0.01, -0.00, 1.03
231, 0.00, 86431.42, 0.00, 0.00, 0.00, 0.00, 0.00, 0.00, 0.02, -0.01, 1.03
232, 0.00, 86419.46, 0.00, 0.00, 0.00, 0.00, 0.00, 0.00, 0.02, -0.01, 1.03
233, 0.00, 86465.93, 0.00, 0.00, 0.00, 0.00, 0.00, 0.00, 0.02, -0.01, 1.03
234, 0.00, 86466.78, 0.00, 0.00, 0.00, 0.00, 0.00, 0.00, 0.02, -0.01, 1.03
235, 0.00, 86468.91, 0.00, 0.00, 0.00, 0.00, 0.00, 0.00, 0.02, -0.01, 1.03
236, 0.00, 86426.77, 0.00, 0.00, 0.00, 0.00, 0.00, 0.00, 0.02, -0.00, 1.03
237, 0.00, 86403.99, 0.00, 0.00, 0.00, 0.00, 0.00, 0.00, 0.02, -0.00, 1.03
238, 0.00, 86430.35, 0.00, 0.00, 0.00, 0.00, 0.00, 0.00, 0.02, -0.00, 1.03
239, 0.00, 86411.15, 0.00, 0.00, 0.00, 0.00, 0.00, 0.00, 0.02, -0.00, 1.03
240, 0.00, 86406.68, 0.00, 0.00, 0.00, 0.00, 0.00, 0.00, 0.02, -0.00, 1.03
241, 0.00, 86418.97, 0.00, 0.00, 0.00, 0.00, 0.00, 0.00, 0.02, -0.01, 1.03
242, 0.00, 86424.36, 0.00, 0.00, 0.00, 0.00, 0.00, 0.00, 0.02, -0.01, 1.03
243, 0.00, 86437.08, 0.00, 0.00, 0.00, 0.00, 0.00, 0.00, 0.02, -0.01, 1.03
244, 0.00, 86439.69, 0.00, 0.00, 0.00, 0.00, 0.00, 0.00, 0.02, -0.01, 1.03
245, 0.00, 86431.47, 0.00, 0.00, 0.00, 0.00, 0.00, 0.00, 0.02, -0.01, 1.03
246, 0.00, 86436.45, 0.00, 0.00, 0.00, 0.00, 0.00, 0.00, 0.02, -0.00, 1.02
247, 0.00, 86453.28, 0.00, 0.00, 0.00, 0.00, 0.00, 0.00, 0.02, -0.00, 1.02
248, 0.00, 86450.42, 0.00, 0.00, 0.00, 0.00, 0.00, 0.00, 0.02, -0.00, 1.02
249, 0.00, 86465.55, 0.00, 0.00, 0.00, 0.00, 0.00, 0.00, 0.02, -0.00, 1.02
250, 0.00, 86474.49, 0.00, 0.00, 0.00, 0.00, 0.00, 0.00, 0.02, -0.00, 1.02
251, 0.00, 86481.51, 0.00, 0.00, 0.00, 0.00, 0.00, 0.00, 0.01, -0.00, 1.02
252, 0.00, 86455.77, 0.00, 0.00, 0.00, 0.00, 0.00, 0.00, 0.01, -0.00, 1.02
253, 0.00, 86452.84, 0.00, 0.00, 0.00, 0.00, 0.00, 0.00, 0.01, -0.00, 1.02
254, 0.00, 86453.77, 0.00, 0.00, 0.00, 0.00, 0.00, 0.00, 0.01, -0.00, 1.02
255, 0.00, 86474.72, 0.00, 0.00, 0.00, 0.00, 0.00, 0.00, 0.01, -0.00, 1.02
0, 0.00, 86517.97, 0.00, 0.00, 0.00, 0.00, 0.00, 0.00, 0.02, -0.01, 1.02
1, 0.00, 86493.96, 0.00, 0.00, 0.00, 0.00, 0.00, 0.00, 0.02, -0.01, 1.02
2, 0.00, 86452.81, 0.00, 0.00, 0.00, 0.00, 0.00, 0.00, 0.02, -0.01, 1.02
3, 0.00, 86461.51, 0.00, 0.00, 0.00, 0.00, 0.00, 0.00, 0.02, -0.01, 1.02
4, 0.00, 86454.71, 0.00, 0.00, 0.00, 0.00, 0.00, 0.00, 0.02, -0.01, 1.02
5, 0.00, 86456.52, 0.00, 0.00, 0.00, 0.00, 0.00, 0.00, 0.01, -0.01, 1.02
6, 0.00, 86441.48, 0.00, 0.00, 0.00, 0.00, 0.00, 0.00, 0.01, -0.01, 1.02
7, 0.00, 86457.10, 0.00, 0.00, 0.00, 0.00, 0.00, 0.00, 0.01, -0.01, 1.02
8, 0.00, 86458.04, 0.00, 0.00, 0.00, 0.00, 0.00, 0.00, 0.01, -0.01, 1.02
9, 0.00, 86483.08, 0.00, 0.00, 0.00, 0.00, 0.00, 0.00, 0.01, -0.01, 1.02
10, 0.00, 86476.93, 0.00, 0.00, 0.00, 0.00, 0.00, 0.00, 0.02, -0.01, 1.03
11, 0.00, 86448.34, 0.00, 0.00, 0.00, 0.00, 0.00, 0.00, 0.02, -0.01, 1.03
12, 0.00, 86459.59, 0.00, 0.00, 0.00, 0.00, 0.00, 0.00, 0.02, -0.01, 1.03
13, 0.00, 86456.52, 0.00, 0.00, 0.00, 0.00, 0.00, 0.00, 0.02, -0.01, 1.03
14, 0.00, 86450.53, 0.00, 0.00, 0.00, 0.00, 0.00, 0.00, 0.02, -0.01, 1.03
15, 0.00, 86464.45, 0.00, 0.00, 0.00, 0.00, 0.00, 0.00, 0.02, -0.01, 1.03
16, 0.00, 86473.29, 0.00, 0.00, 0.00, 0.00, 0.00, 0.00, 0.02, -0.01, 1.03
17, 0.00, 86451.16, 0.00, 0.00, 0.00, 0.00, 0.00, 0.00, 0.02, -0.01, 1.03
18, 0.00, 86469.38, 0.00, 0.00, 0.00, 0.00, 0.00, 0.00, 0.02, -0.01, 1.03
19, 0.00, 86489.47, 0.00, 0.00, 0.00, 0.00, 0.00, 0.00, 0.02, -0.01, 1.03
20, 0.00, 86476.51, 0.00, 0.00, 0.00, 0.00, 0.00, 0.00, 0.02, -0.01, 1.03
21, 0.00, 86456.61, 0.00, 0.00, 0.00, 0.00, 0.00, 0.00, 0.02, -0.01, 1.03
22, 0.00, 86477.63, 0.00, 0.00, 0.00, 0.00, 0.00, 0.00, 0.02, -0.01, 1.03
23, 0.00, 86510.39, 0.00, 0.00, 0.00, 0.00, 0.00, 0.00, 0.02, -0.01, 1.03
24, 0.00, 86499.64, 0.00, 0.00, 0.00, 0.00, 0.00, 0.00, 0.02, -0.01, 1.03
25, 0.00, 86463.01, 0.00, 0.00, 0.00, 0.00, 0.00, 0.00, 0.01, -0.00, 1.03
26, 0.00, 86450.38, 0.00, 0.00, 0.00, 0.00, 0.00, 0.00, 0.01, -0.00, 1.03
27, 0.00, 86462.13, 0.00, 0.00, 0.00, 0.00, 0.00, 0.00, 0.01, -0.00, 1.03
28, 0.00, 86482.43, 0.00, 0.00, 0.00, 0.00, 0.00, 0.00, 0.01, -0.00, 1.03
29, 0.00, 86487.97, 0.00, 0.00, 0.00, 0.00, 0.00, 0.00, 0.01, -0.00, 1.03
30, 0.00, 86472.99, 0.00, 0.00, 0.00, 0.00, 0.00, 0.00, 0.01, -0.00, 1.03
31, 0.00, 86478.90, 0.00, 0.00, 0.00, 0.00, 0.00, 0.00, 0.01, -0.00, 1.03
32, 0.00, 86481.71, 0.00, 0.00, 0.00, 0.00, 0.00, 0.00, 0.01, -0.00, 1.03
33, 0.00, 86475.56, 0.00, 0.00, 0.00, 0.00, 0.00, 0.00, 0.01, -0.00, 1.03
34, 0.00, 86496.98, 0.00, 0.00, 0.00, 0.00, 0.00, 0.00, 0.01, -0.00, 1.03
35, 0.00, 86506.34, 0.00, 0.00, 0.00, 0.00, 0.00, 0.00, 0.02, -0.00, 1.03
36, 0.00, 86506.23, 0.00, 0.00, 0.00, 0.00, 0.00, 0.00, 0.02, -0.00, 1.03
37, 0.00, 86503.23, 0.00, 0.00, 0.00, 0.00, 0.00, 0.00, 0.02, -0.00, 1.03
38, 0.00, 86505.88, 0.00, 0.00, 0.00, 0.00, 0.00, 0.00, 0.02, -0.00, 1.03
39, 0.00, 86528.85, 0.00, 0.00, 0.00, 0.00, 0.00, 0.00, 0.02, -0.00, 1.03
40, 0.00, 86523.55, 0.00, 0.00, 0.00, 0.00, 0.00, 0.00, 0.01, -0.00, 1.03
41, 0.00, 86511.80, 0.00, 0.00, 0.00, 0.00, 0.00, 0.00, 0.01, -0.00, 1.03
42, 0.00, 86460.05, 0.00, 0.00, 0.00, 0.00, 0.00, 0.00, 0.01, -0.00, 1.03
43, 0.00, 86468.91, 0.00, 0.00, 0.00, 0.00, 0.00, 0.00, 0.01, -0.00, 1.03
44, 0.00, 86473.53, 0.00, 0.00, 0.00, 0.00, 0.00, 0.00, 0.01, -0.00, 1.03
45, 0.00, 86462.05, 0.00, 0.00, 0.00, 0.00, 0.00, 0.00, 0.01, -0.01, 1.03
46, 0.00, 86460.95, 0.00, 0.00, 0.00, 0.00, 0.00, 0.00, 0.01, -0.01, 1.03
47, 0.00, 86473.45, 0.00, 0.00, 0.00, 0.00, 0.00, 0.00, 0.01, -0.01, 1.03
48, 0.00, 86481.02, 0.00, 0.00, 0.00, 0.00, 0.00, 0.00, 0.01, -0.01, 1.03
49, 0.00, 86489.06, 0.00, 0.00, 0.00, 0.00, 0.00, 0.00, 0.01, -0.01, 1.03
50, 0.00, 86484.15, 0.00, 0.00, 0.00, 0.00, 0.00, 0.00, 0.02, -0.01, 1.03
51, 0.00, 86484.33, 0.00, 0.00, 0.00, 0.00, 0.00, 0.00, 0.02, -0.01, 1.03
52, 0.00, 86470.78, 0.00, 0.00, 0.00, 0.00, 0.00, 0.00, 0.02, -0.01, 1.03
53, 0.00, 86505.77, 0.00, 0.00, 0.00, 0.00, 0.00, 0.00, 0.02, -0.01, 1.03
54, 0.00, 86494.52, 0.00, 0.00, 0.00, 0.00, 0.00, 0.00, 0.02, -0.01, 1.03
55, 0.00, 86495.23, 0.00, 0.00, 0.00, 0.00, 0.00, 0.00, 0.02, -0.01, 1.03
56, 0.00, 86504.55, 0.00, 0.00, 0.00, 0.00, 0.00, 0.00, 0.02, -0.01, 1.03
57, 0.00, 86493.24, 0.00, 0.00, 0.00, 0.00, 0.00, 0.00, 0.02, -0.01, 1.03
58, 0.00, 86489.31, 0.00, 0.00, 0.00, 0.00, 0.00, 0.00, 0.02, -0.01, 1.03
59, 0.00, 86493.85, 0.00, 0.00, 0.00, 0.00, 0.00, 0.00, 0.02, -0.01, 1.03
60, 0.00, 86530.69, 0.00, 0.00, 0.00, 0.00, 0.00, 0.00, 0.01, -0.00, 1.03
61, 0.00, 86557.20, 0.00, 0.00, 0.00, 0.00, 0.00, 0.00, 0.01, -0.00, 1.03
62, 0.00, 86535.83, 0.00, 0.00, 0.00, 0.00, 0.00, 0.00, 0.01, -0.00, 1.03
63, 0.00, 86529.81, 0.00, 0.00, 0.00, 0.00, 0.00, 0.00, 0.01, -0.00, 1.03
64, 0.00, 86501.54, 0.00, 0.00, 0.00, 0.00, 0.00, 0.00, 0.01, -0.00, 1.03
65, 0.00, 86464.63, 0.00, 0.00, 0.00, 0.00, 0.00, 0.00, 0.01, 0.00, 1.03
66, 0.00, 86490.45, 0.00, 0.00, 0.00, 0.00, 0.00, 0.00, 0.01, 0.00, 1.03
67, 0.00, 86508.58, 0.00, 0.00, 0.00, 0.00, 0.00, 0.00, 0.01, 0.00, 1.03
68, 0.00, 86471.05, 0.00, 0.00, 0.00, 0.00, 0.00, 0.00, 0.01, 0.00, 1.03
69, 0.00, 86454.04, 0.00, 0.00, 0.00, 0.00, 0.00, 0.00, 0.01, 0.00, 1.03
70, 0.00, 86476.86, 0.00, 0.00, 0.00, 0.00, 0.00, 0.00, 0.01, 0.00, 1.03
71, 0.00, 86489.05, 0.00, 0.00, 0.00, 0.00, 0.00, 0.00, 0.01, 0.00, 1.03
72, 0.00, 86484.04, 0.00, 0.00, 0.00, 0.00, 0.00, 0.00, 0.01, 0.00, 1.03
73, 0.00, 86495.62, 0.00, 0.00, 0.00, 0.00, 0.00, 0.00, 0.01, 0.00, 1.03
74, 0.00, 86503.84, 0.00, 0.00, 0.00, 0.00, 0.00, 0.00, 0.01, 0.00, 1.03
75, 0.00, 86487.01, 0.00, 0.00, 0.00, 0.00, 0.00, 0.00, 0.02, 0.00, 1.03
76, 0.00, 86481.20, 0.00, 0.00, 0.00, 0.00, 0.00, 0.00, 0.02, 0.00, 1.03
77, 0.00, 86488.15, 0.00, 0.00, 0.00, 0.00, 0.00, 0.00, 0.02, 0.00, 1.03
78, 0.00, 86489.54, 0.00, 0.00, 0.00, 0.00, 0.00, 0.00, 0.02, 0.00, 1.03
79, 0.00, 86496.73, 0.00, 0.00, 0.00, 0.00, 0.00, 0.00, 0.02, 0.00, 1.03
80, 0.00, 86503.98, 0.00, 0.00, 0.00, 0.00, 0.00, 0.00, 0.02, -0.01, 1.03
81, 0.00, 86521.34, 0.00, 0.00, 0.00, 0.00, 0.00, 0.00, 0.02, -0.01, 1.03
82, 0.00, 86537.19, 0.00, 0.00, 0.00, 0.00, 0.00, 0.00, 0.02, -0.01, 1.03
83, 0.00, 86498.09, 0.00, 0.00, 0.00, 0.00, 0.00, 0.00, 0.02, -0.01, 1.03
84, 0.00, 86451.70, 0.00, 0.00, 0.00, 0.00, 0.00, 0.00, 0.02, -0.01, 1.03
85, 0.00, 86478.07, 0.00, 0.00, 0.00, 0.00, 0.00, 0.00, 0.02, -0.01, 1.03
86, 0.00, 86508.00, 0.00, 0.00, 0.00, 0.00, 0.00, 0.00, 0.02, -0.01, 1.03
87, 0.00, 86522.33, 0.00, 0.00, 0.00, 0.00, 0.00, 0.00, 0.02, -0.01, 1.03
88, 0.00, 86507.64, 0.00, 0.00, 0.00, 0.00, 0.00, 0.00, 0.02, -0.01, 1.03
89, 0.00, 86486.74, 0.00, 0.00, 0.00, 0.00, 0.00, 0.00, 0.02, -0.01, 1.03
90, 0.00, 86506.34, 0.00, 0.00, 0.00, 0.00, 0.00, 0.00, 0.02, -0.01, 1.03
91, 0.00, 86479.99, 0.00, 0.00, 0.00, 0.00, 0.00, 0.00, 0.02, -0.00, 1.02
92, 0.00, 86483.95, 0.00, 0.00, 0.00, 0.00, 0.00, 0.00, 0.02, -0.00, 1.02
93, 0.00, 86497.36, 0.00, 0.00, 0.00, 0.00, 0.00, 0.00, 0.02, -0.00, 1.02
94, 0.00, 86515.64, 0.00, 0.00, 0.00, 0.00, 0.00, 0.00, 0.02, -0.00, 1.02
95, 0.00, 86516.65, 0.00, 0.00, 0.00, 0.00, 0.00, 0.00, 0.02, -0.00, 1.02
96, 0.00, 86488.30, 0.00, 0.00, 0.00, 0.00, 0.00, 0.00, 0.02, -0.00, 1.02
97, 0.00, 86503.82, 0.00, 0.00, 0.00, 0.00, 0.00, 0.00, 0.02, -0.00, 1.02
98, 0.00, 86526.20, 0.00, 0.00, 0.00, 0.00, 0.00, 0.00, 0.02, -0.00, 1.02
99, 0.00, 86495.86, 0.00, 0.00, 0.00, 0.00, 0.00, 0.00, 0.02, -0.00, 1.02
100, 0.00, 86464.55, 0.00, 0.00, 0.00, 0.00, 0.00, 0.00, 0.02, -0.00, 1.02
101, 0.00, 86483.01, 0.00, 0.00, 0.00, 0.00, 0.00, 0.00, 0.01, -0.00, 1.03
102, 0.00, 86506.23, 0.00, 0.00, 0.00, 0.00, 0.00, 0.00, 0.01, -0.00, 1.03
103, 0.00, 86504.06, 0.00, 0.00, 0.00, 0.00, 0.00, 0.00, 0.01, -0.00, 1.03
104, 0.00, 86487.62, 0.00, 0.00, 0.00, 0.00, 0.00, 0.00, 0.01, -0.00, 1.03
105, 0.00, 86500.06, 0.00, 0.00, 0.00, 0.00, 0.00, 0.00, 0.01, -0.00, 1.03
106, 0.00, 86495.82, 0.00, 0.00, 0.00, 0.00, 0.00, 0.00, 0.01, 0.00, 1.02
107, 0.00, 86497.96, 0.00, 0.00, 0.00, 0.00, 0.00, 0.00, 0.01, 0.00, 1.02
108, 0.00, 86515.35, 0.00, 0.00, 0.00, 0.00, 0.00, 0.00, 0.01, 0.00, 1.02
109, 0.00, 86500.09, 0.00, 0.00, 0.00, 0.00, 0.00, 0.00, 0.01, 0.00, 1.02
110, 0.00, 86482.65, 0.00, 0.00, 0.00, 0.00, 0.00, 0.00, 0.01, 0.00, 1.02
111, 0.00, 86513.01, 0.00, 0.00, 0.00, 0.00, 0.00, 0.00, 0.01, -0.01, 1.02
112, 0.00, 86516.29, 0.00, 0.00, 0.00, 0.00, 0.00, 0.00, 0.01, -0.01, 1.02
113, 0.00, 86494.74, 0.00, 0.00, 0.00, 0.00, 0.00, 0.00, 0.01, -0.01, 1.02
114, 0.00, 86488.84, 0.00, 0.00, 0.00, 0.00, 0.00, 0.00, 0.01, -0.01, 1.02
115, 0.00, 86481.00, 0.00, 0.00, 0.00, 0.00, 0.00, 0.00, 0.01, -0.01, 1.02
116, 0.00, 86495.02, 0.00, 0.00, 0.00, 0.00, 0.00, 0.00, 0.00, -0.00, 1.02
117, 0.00, 86500.09, 0.00, 0.00, 0.00, 0.00, 0.00, 0.00, 0.00, -0.00, 1.02
118, 0.00, 86497.34, 0.00, 0.00, 0.00, 0.00, 0.00, 0.00, 0.00, -0.00, 1.02
119, 0.00, 86530.08, 0.00, 0.00, 0.00, 0.00, 0.00, 0.00, 0.00, -0.00, 1.02
120, 0.00, 86531.34, 0.00, 0.00, 0.00, 0.00, 0.00, 0.00, 0.00, -0.00, 1.02
121, 0.00, 86509.74, 0.00, 0.00, 0.00, 0.00, 0.00, 0.00, 0.01, -0.01, 1.02
122, 0.00, 86511.73, 0.00, 0.00, 0.00, 0.00, 0.00, 0.00, 0.01, -0.01, 1.02
123, 0.00, 86500.45, 0.00, 0.00, 0.00, 0.00, 0.00, 0.00, 0.01, -0.01, 1.02
124, 0.00, 86479.48, 0.00, 0.00, 0.00, 0.00, 0.00, 0.00, 0.01, -0.01, 1.02
125, 0.00, 86475.01, 0.00, 0.00, 0.00, 0.00, 0.00, 0.00, 0.01, -0.01, 1.02
126, 0.00, 86466.13, 0.00, 0.00, 0.00, 0.00, 0.00, 0.00, 0.01, -0.00, 1.03
127, 0.00, 86485.02, 0.00, 0.00, 0.00, 0.00, 0.00, 0.00, 0.01, -0.00, 1.03
128, 0.00, 86510.81, 0.00, 0.00, 0.00, 0.00, 0.00, 0.00, 0.01, -0.00, 1.03
129, 0.00, 86509.59, 0.00, 0.00, 0.00, 0.00, 0.00, 0.00, 0.01, -0.00, 1.03
130, 0.00, 86478.56, 0.00, 0.00, 0.00, 0.00, 0.00, 0.00, 0.01, -0.00, 1.03
131, 0.00, 86493.67, 0.00, 0.00, 0.00, 0.00, 0.00, 0.00, 0.02, -0.01, 1.03
132, 0.00, 86496.91, 0.00, 0.00, 0.00, 0.00, 0.00, 0.00, 0.02, -0.01, 1.03
133, 0.00, 86504.91, 0.00, 0.00, 0.00, 0.00, 0.00, 0.00, 0.02, -0.01, 1.03
134, 0.00, 86496.95, 0.00, 0.00, 0.00, 0.00, 0.00, 0.00, 0.02, -0.01, 1.03
135, 0.00, 86488.64, 0.00, 0.00, 0.00, 0.00, 0.00, 0.00, 0.02, -0.01, 1.03
136, 0.00, 86520.85, 0.00, 0.00, 0.00, 0.00, 0.00, 0.00, 0.01, -0.00, 1.03
137, 0.00, 86508.84, 0.00, 0.00, 0.00, 0.00, 0.00, 0.00, 0.01, -0.00, 1.03
138, 0.00, 86468.28, 0.00, 0.00, 0.00, 0.00, 0.00, 0.00, 0.01, -0.00, 1.03
139, 0.00, 86479.52, 0.00, 0.00, 0.00, 0.00, 0.00, 0.00, 0.01, -0.00, 1.03
140, 0.00, 86492.71, 0.00, 0.00, 0.00, 0.00, 0.00, 0.00, 0.01, -0.00, 1.03
141, 0.00, 86505.41, 0.00, 0.00, 0.00, 0.00, 0.00, 0.00, 0.02, -0.00, 1.02
142, 0.00, 86507.98, 0.00, 0.00, 0.00, 0.00, 0.00, 0.00, 0.02, -0.00, 1.02
143, 0.00, 86515.17, 0.00, 0.00, 0.00, 0.00, 0.00, 0.00, 0.02, -0.00, 1.02
144, 0.00, 86541.39, 0.00, 0.00, 0.00, 0.00, 0.00, 0.00, 0.02, -0.00, 1.02
145, 0.00, 86515.20, 0.00, 0.00, 0.00, 0.00, 0.00, 0.00, 0.02, -0.00, 1.02
146, 0.00, 86494.79, 0.00, 0.00, 0.00, 0.00, 0.00, 0.00, 0.02, -0.00, 1.03
147, 0.00, 86509.54, 0.00, 0.00, 0.00, 0.00, 0.00, 0.00, 0.02, -0.00, 1.03
148, 0.00, 86507.26, 0.00, 0.00, 0.00, 0.00, 0.00, 0.00, 0.02, -0.00, 1.03
149, 0.00, 86525.86, 0.00, 0.00, 0.00, 0.00, 0.00, 0.00, 0.02, -0.00, 1.03
150, 0.00, 86549.66, 0.00, 0.00, 0.00, 0.00, 0.00, 0.00, 0.02, -0.00, 1.03
151, 0.00, 86497.36, 0.00, 0.00, 0.00, 0.00, 0.00, 0.00, 0.02, -0.00, 1.03
152, 0.00, 86490.38, 0.00, 0.00, 0.00, 0.00, 0.00, 0.00, 0.02, -0.00, 1.03
153, 0.00, 86502.61, 0.00, 0.00, 0.00, 0.00, 0.00, 0.00, 0.02, -0.00, 1.03
154, 0.00, 86503.23, 0.00, 0.00, 0.00, 0.00, 0.00, 0.00, 0.02, -0.00, 1.03
155, 0.00, 86502.84, 0.00, 0.00, 0.00, 0.00, 0.00, 0.00, 0.02, -0.00, 1.03
156, 0.00, 86504.69, 0.00, 0.00, 0.00, 0.00, 0.00, 0.00, 0.02, 0.00, 1.04
157, 0.00, 86520.78, 0.00, 0.00, 0.00, 0.00, 0.00, 0.00, 0.02, 0.00, 1.04
158, 0.00, 86517.03, 0.00, 0.00, 0.00, 0.00, 0.00, 0.00, 0.02, 0.00, 1.04
159, 0.00, 86506.39, 0.00, 0.00, 0.00, 0.00, 0.00, 0.00, 0.02, 0.00, 1.04
160, 0.00, 86509.52, 0.00, 0.00, 0.00, 0.00, 0.00, 0.00, 0.02, 0.00, 1.04
161, 0.00, 86505.54, 0.00, 0.00, 0.00, 0.00, 0.00, 0.00, 0.02, 0.00, 1.03
162, 0.00, 86520.88, 0.00, 0.00, 0.00, 0.00, 0.00, 0.00, 0.02, 0.00, 1.03
163, 0.00, 86510.28, 0.00, 0.00, 0.00, 0.00, 0.00, 0.00, 0.02, 0.00, 1.03
164, 0.00, 86495.13, 0.00, 0.00, 0.00, 0.00, 0.00, 0.00, 0.02, 0.00, 1.03
165, 0.00, 86519.66, 0.00, 0.00, 0.00, 0.00, 0.00, 0.00, 0.02, 0.00, 1.03
166, 0.00, 86538.77, 0.00, 0.00, 0.00, 0.00, 0.00, 0.00, 0.01, -0.01, 1.03
167, 0.00, 86508.42, 0.00, 0.00, 0.00, 0.00, 0.00, 0.00, 0.01, -0.01, 1.03
168, 0.00, 86509.61, 0.00, 0.00, 0.00, 0.00, 0.00, 0.00, 0.01, -0.01, 1.03
169, 0.00, 86509.65, 0.00, 0.00, 0.00, 0.00, 0.00, 0.00, 0.01, -0.01, 1.03
170, 0.00, 86528.80, 0.00, 0.00, 0.00, 0.00, 0.00, 0.00, 0.01, -0.01, 1.03
171, 0.00, 86532.09, 0.00, 0.00, 0.00, 0.00, 0.00, 0.00, 0.01, -0.01, 1.03
172, 0.00, 86543.56, 0.00, 0.00, 0.00, 0.00, 0.00, 0.00, 0.01, -0.01, 1.03
173, 0.00, 86549.66, 0.00, 0.00, 0.00, 0.00, 0.00, 0.00, 0.01, -0.01, 1.03
174, 0.00, 86504.00, 0.00, 0.00, 0.00, 0.00, 0.00, 0.00, 0.01, -0.01, 1.03
175, 0.00, 86483.73, 0.00, 0.00, 0.00, 0.00, 0.00, 0.00, 0.01, -0.01, 1.03
176, 0.00, 86501.94, 0.00, 0.00, 0.00, 0.00, 0.00, 0.00, 0.01, -0.00, 1.03
177, 0.00, 86520.31, 0.00, 0.00, 0.00, 0.00, 0.00, 0.00, 0.01, -0.00, 1.03
178, 0.00, 86541.44, 0.00, 0.00, 0.00, 0.00, 0.00, 0.00, 0.01, -0.00, 1.03
179, 0.00, 86525.48, 0.00, 0.00, 0.00, 0.00, 0.00, 0.00, 0.01, -0.00, 1.03
180, 0.00, 86525.30, 0.00, 0.00, 0.00, 0.00, 0.00, 0.00, 0.01, -0.00, 1.03
181, 0.00, 86543.63, 0.00, 0.00, 0.00, 0.00, 0.00, 0.00, 0.01, -0.01, 1.03
182, 0.00, 86530.15, 0.00, 0.00, 0.00, 0.00, 0.00, 0.00, 0.01, -0.01, 1.03
183, 0.00, 86516.63, 0.00, 0.00, 0.00, 0.00, 0.00, 0.00, 0.01, -0.01, 1.03
184, 0.00, 86508.18, 0.00, 0.00, 0.00, 0.00, 0.00, 0.00, 0.01, -0.01, 1.03
185, 0.00, 86517.32, 0.00, 0.00, 0.00, 0.00, 0.00, 0.00, 0.01, -0.01, 1.03
186, 0.00, 86536.92, 0.00, 0.00, 0.00, 0.00, 0.00, 0.00, 0.01, -0.01, 1.03
187, 0.00, 86559.09, 0.00, 0.00, 0.00, 0.00, 0.00, 0.00, 0.01, -0.01, 1.03
188, 0.00, 86523.33, 0.00, 0.00, 0.00, 0.00, 0.00, 0.00, 0.01, -0.01, 1.03
189, 0.00, 86517.03, 0.00, 0.00, 0.00, 0.00, 0.00, 0.00, 0.01, -0.01, 1.03
190, 0.00, 86528.59, 0.00, 0.00, 0.00, 0.00, 0.00, 0.00, 0.01, -0.01, 1.03
191, 0.00, 86500.38, 0.00, 0.00, 0.00, 0.00, 0.00, 0.00, 0.02, -0.01, 1.04
192, 0.00, 86472.68, 0.00, 0.00, 0.00, 0.00, 0.00, 0.00, 0.02, -0.01, 1.04
193, 0.00, 86497.13, 0.00, 0.00, 0.00, 0.00, 0.00, 0.00, 0.02, -0.01, 1.04
194, 0.00, 86506.91, 0.00, 0.00, 0.00, 0.00, 0.00, 0.00, 0.02, -0.01, 1.04
195, 0.00, 86503.17, 0.00, 0.00, 0.00, 0.00, 0.00, 0.00, 0.02, -0.01, 1.04
196, 0.00, 86497.70, 0.00, 0.00, 0.00, 0.00, 0.00, 0.00, 0.01, -0.01, 1.04
197, 0.00, 86502.08, 0.00, 0.00, 0.00, 0.00, 0.00, 0.00, 0.01, -0.01, 1.04
198, 0.00, 86516.67, 0.00, 0.00, 0.00, 0.00, 0.00, 0.00, 0.01, -0.01, 1.04
199, 0.00, 86504.96, 0.00, 0.00, 0.00, 0.00, 0.00, 0.00, 0.01, -0.01, 1.04
200, 0.00, 86512.34, 0.00, 0.00, 0.00, 0.00, 0.00, 0.00, 0.01, -0.01, 1.04
201, 0.00, 86527.84, 0.00, 0.00, 0.00, 0.00, 0.00, 0.00, 0.01, -0.01, 1.02
202, 0.00, 86533.63, 0.00, 0.00, 0.00, 0.00, 0.00, 0.00, 0.01, -0.01, 1.02
203, 0.00, 86538.53, 0.00, 0.00, 0.00, 0.00, 0.00, 0.00, 0.01, -0.01, 1.02
204, 0.00, 86528.98, 0.00, 0.00, 0.00, 0.00, 0.00, 0.00, 0.01, -0.01, 1.02
205, 0.00, 86505.36, 0.00, 0.00, 0.00, 0.00, 0.00, 0.00, 0.01, -0.01, 1.02
206, 0.00, 86514.39, 0.00, 0.00, 0.00, 0.00, 0.00, 0.00, 0.02, -0.00, 1.03
207, 0.00, 86538.53, 0.00, 0.00, 0.00, 0.00, 0.00, 0.00, 0.02, -0.00, 1.03
208, 0.00, 86568.41, 0.00, 0.00, 0.00, 0.00, 0.00, 0.00, 0.02, -0.00, 1.03
209, 0.00, 86528.07, 0.00, 0.00, 0.00, 0.00, 0.00, 0.00, 0.02, -0.00, 1.03
210, 0.00, 86476.84, 0.00, 0.00, 0.00, 0.00, 0.00, 0.00, 0.02, -0.00, 1.03
211, 0.00, 86502.27, 0.00, 0.00, 0.00, 0.00, 0.00, 0.00, 0.02, -0.00, 1.03
212, 0.00, 86529.21, 0.00, 0.00, 0.00, 0.00, 0.00, 0.00, 0.02, -0.00, 1.03
213, 0.00, 86528.23, 0.00, 0.00, 0.00, 0.00, 0.00, 0.00, 0.02, -0.00, 1.03
214, 0.00, 86516.16, 0.00, 0.00, 0.00, 0.00, 0.00, 0.00, 0.02, -0.00, 1.03
215, 0.00, 86538.02, 0.00, 0.00, 0.00, 0.00, 0.00, 0.00, 0.02, -0.00, 1.03
216, 0.00, 86544.07, 0.00, 0.00, 0.00, 0.00, 0.00, 0.00, 0.02, -0.00, 1.03
217, 0.00, 86558.83, 0.00, 0.00, 0.00, 0.00, 0.00, 0.00, 0.02, -0.00, 1.03
218, 0.00, 86532.01, 0.00, 0.00, 0.00, 0.00, 0.00, 0.00, 0.02, -0.00, 1.03
219, 0.00, 86508.20, 0.00, 0.00, 0.00, 0.00, 0.00, 0.00, 0.02, -0.00, 1.03
220, 0.00, 86542.20, 0.00, 0.00, 0.00, 0.00, 0.00, 0.00, 0.02, -0.00, 1.03
221, 0.00, 86542.17, 0.00, 0.00, 0.00, 0.00, 0.00, 0.00, 0.02, -0.00, 1.03
222, 0.00, 86501.13, 0.00, 0.00, 0.00, 0.00, 0.00, 0.00, 0.02, -0.00, 1.03
223, 0.00, 86498.30, 0.00, 0.00, 0.00, 0.00, 0.00, 0.00, 0.02, -0.00, 1.03
224, 0.00, 86520.42, 0.00, 0.00, 0.00, 0.00, 0.00, 0.00, 0.02, -0.00, 1.03
225, 0.00, 86529.34, 0.00, 0.00, 0.00, 0.00, 0.00, 0.00, 0.02, -0.00, 1.03
226, 0.00, 86535.65, 0.00, 0.00, 0.00, 0.00, 0.00, 0.00, 0.02, -0.01, 1.02
227, 0.00, 86524.36, 0.00, 0.00, 0.00, 0.00, 0.00, 0.00, 0.02, -0.01, 1.02
228, 0.00, 86527.34, 0.00, 0.00, 0.00, 0.00, 0.00, 0.00, 0.02, -0.01, 1.02
229, 0.00, 86529.66, 0.00, 0.00, 0.00, 0.00, 0.00, 0.00, 0.02, -0.01, 1.02
230, 0.00, 86529.97, 0.00, 0.00, 0.00, 0.00, 0.00, 0.00, 0.02, -0.01, 1.02
231, 0.00, 86543.07, 0.00, 0.00, 0.00, 0.00, 0.00, 0.00, 0.01, -0.01, 1.02
232, 0.00, 86555.32, 0.00, 0.00, 0.00, 0.00, 0.00, 0.00, 0.01, -0.01, 1.02
233, 0.00, 86525.34, 0.00, 0.00, 0.00, 0.00, 0.00, 0.00, 0.01, -0.01, 1.02
234, 0.00, 86501.05, 0.00, 0.00, 0.00, 0.00, 0.00, 0.00, 0.01, -0.01, 1.02
235, 0.00, 86513.32, 0.00, 0.00, 0.00, 0.00, 0.00, 0.00, 0.01, -0.01, 1.02
236, 0.00, 86555.54, 0.00, 0.00, 0.00, 0.00, 0.00, 0.00, 0.01, 0.00, 1.02
237, 0.00, 86551.80, 0.00, 0.00, 0.00, 0.00, 0.00, 0.00, 0.01, 0.00, 1.02
238, 0.00, 86527.29, 0.00, 0.00, 0.00, 0.00, 0.00, 0.00, 0.01, 0.00, 1.02
239, 0.00, 86513.92, 0.00, 0.00, 0.00, 0.00, 0.00, 0.00, 0.01, 0.00, 1.02
240, 0.00, 86501.63, 0.00, 0.00, 0.00, 0.00, 0.00, 0.00, 0.01, 0.00, 1.02
241, 0.00, 86514.95, 0.00, 0.00, 0.00, 0.00, 0.00, 0.00, 0.01, 0.00, 1.02
242, 0.00, 86517.59, 0.00, 0.00, 0.00, 0.00, 0.00, 0.00, 0.01, 0.00, 1.02
243, 0.00, 86518.15, 0.00, 0.00, 0.00, 0.00, 0.00, 0.00, 0.01, 0.00, 1.02
244, 0.00, 86516.73, 0.00, 0.00, 0.00, 0.00, 0.00, 0.00, 0.01, 0.00, 1.02
245, 0.00, 86531.94, 0.00, 0.00, 0.00, 0.00, 0.00, 0.00, 0.01, 0.00, 1.02
246, 0.00, 86556.30, 0.00, 0.00, 0.00, 0.00, 0.00, 0.00, 0.01, 0.00, 1.02
247, 0.00, 86519.71, 0.00, 0.00, 0.00, 0.00, 0.00, 0.00, 0.01, 0.00, 1.02
248, 0.00, 86520.05, 0.00, 0.00, 0.00, 0.00, 0.00, 0.00, 0.01, 0.00, 1.02
249, 0.00, 86534.91, 0.00, 0.00, 0.00, 0.00, 0.00, 0.00, 0.01, 0.00, 1.02
250, 0.00, 86531.22, 0.00, 0.00, 0.00, 0.00, 0.00, 0.00, 0.01, 0.00, 1.02
251, 0.00, 86520.29, 0.00, 0.00, 0.00, 0.00, 0.00, 0.00, 0.02, -0.00, 1.02
252, 0.00, 86534.13, 0.00, 0.00, 0.00, 0.00, 0.00, 0.00, 0.02, -0.00, 1.02
253, 0.00, 86563.34, 0.00, 0.00, 0.00, 0.00, 0.00, 0.00, 0.02, -0.00, 1.02
254, 0.00, 86535.85, 0.00, 0.00, 0.00, 0.00, 0.00, 0.00, 0.02, -0.00, 1.02
255, 0.00, 86467.70, 0.00, 0.00, 0.00, 0.00, 0.00, 0.00, 0.02, -0.00, 1.02
0, 0.00, 86491.93, 0.00, 0.00, 0.00, 0.00, 0.00, 0.00, 0.02, 0.00, 1.02
1, 0.00, 86523.40, 0.00, 0.00, 0.00, 0.00, 0.00, 0.00, 0.02, 0.00, 1.02
2, 0.00, 86526.75, 0.00, 0.00, 0.00, 0.00, 0.00, 0.00, 0.02, 0.00, 1.02
3, 0.00, 86517.63, 0.00, 0.00, 0.00, 0.00, 0.00, 0.00, 0.02, 0.00, 1.02
4, 0.00, 86517.45, 0.00, 0.00, 0.00, 0.00, 0.00, 0.00, 0.02, 0.00, 1.02
5, 0.00, 86535.40, 0.00, 0.00, 0.00, 0.00, 0.00, 0.00, 0.02, 0.00, 1.03
6, 0.00, 86531.29, 0.00, 0.00, 0.00, 0.00, 0.00, 0.00, 0.02, 0.00, 1.03
7, 0.00, 86518.59, 0.00, 0.00, 0.00, 0.00, 0.00, 0.00, 0.02, 0.00, 1.03
8, 0.00, 86509.16, 0.00, 0.00, 0.00, 0.00, 0.00, 0.00, 0.02, 0.00, 1.03
9, 0.00, 86513.45, 0.00, 0.00, 0.00, 0.00, 0.00, 0.00, 0.02, 0.00, 1.03
10, 0.00, 86530.55, 0.00, 0.00, 0.00, 0.00, 0.00, 0.00, 0.02, 0.00, 1.03
11, 0.00, 86528.36, 0.00, 0.00, 0.00, 0.00, 0.00, 0.00, 0.02, 0.00, 1.03
12, 0.00, 86534.30, 0.00, 0.00, 0.00, 0.00, 0.00, 0.00, 0.02, 0.00, 1.03
13, 0.00, 86542.46, 0.00, 0.00, 0.00, 0.00, 0.00, 0.00, 0.02, 0.00, 1.03
14, 0.00, 86559.56, 0.00, 0.00, 0.00, 0.00, 0.00, 0.00, 0.02, 0.00, 1.03
15, 0.00, 86534.06, 0.00, 0.00, 0.00, 0.00, 0.00, 0.00, 0.01, -0.00, 1.03
16, 0.00, 86503.38, 0.00, 0.00, 0.00, 0.00, 0.00, 0.00, 0.01, -0.00, 1.03
17, 0.00, 86507.87, 0.00, 0.00, 0.00, 0.00, 0.00, 0.00, 0.01, -0.00, 1.03
18, 0.00, 86495.39, 0.00, 0.00, 0.00, 0.00, 0.00, 0.00, 0.01, -0.00, 1.03
19, 0.00, 86518.30, 0.00, 0.00, 0.00, 0.00, 0.00, 0.00, 0.01, -0.00, 1.03
20, 0.00, 86533.63, 0.00, 0.00, 0.00, 0.00, 0.00, 0.00, 0.02, -0.00, 1.03
21, 0.00, 86556.77, 0.00, 0.00, 0.00, 0.00, 0.00, 0.00, 0.02, -0.00, 1.03
22, 0.00, 86539.58, 0.00, 0.00, 0.00, 0.00, 0.00, 0.00, 0.02, -0.00, 1.03
23, 0.00, 86500.22, 0.00, 0.00, 0.00, 0.00, 0.00, 0.00, 0.02, -0.00, 1.03
24, 0.00, 86511.69, 0.00, 0.00, 0.00, 0.00, 0.00, 0.00, 0.02, -0.00, 1.03
25, 0.00, 86512.47, 0.00, 0.00, 0.00, 0.00, 0.00, 0.00, 0.02, -0.00, 1.03
26, 0.00, 86507.84, 0.00, 0.00, 0.00, 0.00, 0.00, 0.00, 0.02, -0.00, 1.03
27, 0.00, 86508.13, 0.00, 0.00, 0.00, 0.00, 0.00, 0.00, 0.02, -0.00, 1.03
28, 0.00, 86522.84, 0.00, 0.00, 0.00, 0.00, 0.00, 0.00, 0.02, -0.00, 1.03
29, 0.00, 86539.80, 0.00, 0.00, 0.00, 0.00, 0.00, 0.00, 0.02, -0.00, 1.03
30, 0.00, 86531.16, 0.00, 0.00, 0.00, 0.00, 0.00, 0.00, 0.02, -0.00, 1.03
31, 0.00, 86536.43, 0.00, 0.00, 0.00, 0.00, 0.00, 0.00, 0.01, -0.00, 1.02
32, 0.00, 86529.99, 0.00, 0.00, 0.00, 0.00, 0.00, 0.00, 0.01, -0.00, 1.02
33, 0.00, 86534.13, 0.00, 0.00, 0.00, 0.00, 0.00, 0.00, 0.01, -0.00, 1.02
34, 0.00, 86523.04, 0.00, 0.00, 0.00, 0.00, 0.00, 0.00, 0.01, -0.00, 1.02
35, 0.00, 86519.22, 0.00, 0.00, 0.00, 0.00, 0.00, 0.00, 0.01, -0.00, 1.02
36, 0.00, 86525.14, 0.00, 0.00, 0.00, 0.00, 0.00, 0.00, 0.02, -0.00, 1.02
37, 0.00, 86527.73, 0.00, 0.00, 0.00, 0.00, 0.00, 0.00, 0.02, -0.00, 1.02
38, 0.00, 86533.26, 0.00, 0.00, 0.00, 0.00, 0.00, 0.00, 0.02, -0.00, 1.02
39, 0.00, 86527.20, 0.00, 0.00, 0.00, 0.00, 0.00, 0.00, 0.02, -0.00, 1.02
40, 0.00, 86522.21, 0.00, 0.00, 0.00, 0.00, 0.00, 0.00, 0.02, -0.00, 1.02
41, 0.00, 86547.77, 0.00, 0.00, 0.00, 0.00, 0.00, 0.00, 0.01, -0.00, 1.02
42, 0.00, 86539.27, 0.00, 0.00, 0.00, 0.00, 0.00, 0.00, 0.01, -0.00, 1.02
43, 0.00, 86534.91, 0.00, 0.00, 0.00, 0.00, 0.00, 0.00, 0.01, -0.00, 1.02
44, 0.00, 86548.84, 0.00, 0.00, 0.00, 0.00, 0.00, 0.00, 0.01, -0.00, 1.02
45, 0.00, 86538.09, 0.00, 0.00, 0.00, 0.00, 0.00, 0.00, 0.01, -0.00, 1.02
46, 0.00, 86540.79, 0.00, 0.00, 0.00, 0.00, 0.00, 0.00, 0.02, 0.00, 1.02
47, 0.00, 86540.52, 0.00, 0.00, 0.00, 0.00, 0.00, 0.00, 0.02, 0.00, 1.02
48, 0.00, 86514.28, 0.00, 0.00, 0.00, 0.00, 0.00, 0.00, 0.02, 0.00, 1.02
49, 0.00, 86519.82, 0.00, 0.00, 0.00, 0.00, 0.00, 0.00, 0.02, 0.00, 1.02
50, 0.00, 86554.98, 0.00, 0.00, 0.00, 0.00, 0.00, 0.00, 0.02, 0.00, 1.02
51, 0.00, 86561.62, 0.00, 0.00, 0.00, 0.00, 0.00, 0.00, 0.02, 0.00, 1.02
52, 0.00, 86547.98, 0.00, 0.00, 0.00, 0.00, 0.00, 0.00, 0.02, 0.00, 1.02
53, 0.00, 86515.30, 0.00, 0.00, 0.00, 0.00, 0.00, 0.00, 0.02, 0.00, 1.02
54, 0.00, 86521.95, 0.00, 0.00, 0.00, 0.00, 0.00, 0.00, 0.02, 0.00, 1.02
55, 0.00, 86527.47, 0.00, 0.00, 0.00, 0.00, 0.00, 0.00, 0.02, 0.00, 1.02
56, 0.00, 86547.00, 0.00, 0.00, 0.00, 0.00, 0.00, 0.00, 0.02, -0.01, 1.03
57, 0.00, 86542.82, 0.00, 0.00, 0.00, 0.00, 0.00, 0.00, 0.02, -0.01, 1.03
58, 0.00, 86517.88, 0.00, 0.00, 0.00, 0.00, 0.00, 0.00, 0.02, -0.01, 1.03
59, 0.00, 86531.73, 0.00, 0.00, 0.00, 0.00, 0.00, 0.00, 0.02, -0.01, 1.03
60, 0.00, 86549.77, 0.00, 0.00, 0.00, 0.00, 0.00, 0.00, 0.02, -0.01, 1.03
61, 0.00, 86533.66, 0.00, 0.00, 0.00, 0.00, 0.00, 0.00, 0.02, -0.01, 1.03
62, 0.00, 86543.47, 0.00, 0.00, 0.00, 0.00, 0.00, 0.00, 0.02, -0.01, 1.03
63, 0.00, 86539.89, 0.00, 0.00, 0.00, 0.00, 0.00, 0.00, 0.02, -0.01, 1.03
64, 0.00, 86542.06, 0.00, 0.00, 0.00, 0.00, 0.00, 0.00, 0.02, -0.01, 1.03
65, 0.00, 86545.66, 0.00, 0.00, 0.00, 0.00, 0.00, 0.00, 0.02, -0.01, 1.03
66, 0.00, 86541.28, 0.00, 0.00, 0.00, 0.00, 0.00, 0.00, 0.02, -0.01, 1.04
67, 0.00, 86545.39, 0.00, 0.00, 0.00, 0.00, 0.00, 0.00, 0.02, -0.01, 1.04
68, 0.00, 86558.65, 0.00, 0.00, 0.00, 0.00, 0.00, 0.00, 0.02, -0.01, 1.04
69, 0.00, 86538.93, 0.00, 0.00, 0.00, 0.00, 0.00, 0.00, 0.02, -0.01, 1.04
70, 0.00, 86539.85, 0.00, 0.00, 0.00, 0.00, 0.00, 0.00, 0.02, -0.01, 1.04
71, 0.00, 86551.63, 0.00, 0.00, 0.00, 0.00, 0.00, 0.00, 0.02, -0.01, 1.04
72, 0.00, 86544.34, 0.00, 0.00, 0.00, 0.00, 0.00, 0.00, 0.02, -0.01, 1.04
73, 0.00, 86527.58, 0.00, 0.00, 0.00, 0.00, 0.00, 0.00, 0.02, -0.01, 1.04
74, 0.00, 86531.96, 0.00, 0.00, 0.00, 0.00, 0.00, 0.00, 0.02, -0.01, 1.04
75, 0.00, 86540.38, 0.00, 0.00, 0.00, 0.00, 0.00, 0.00, 0.02, -0.01, 1.04
76, 0.00, 86558.91, 0.00, 0.00, 0.00, 0.00, 0.00, 0.00, 0.01, -0.00, 1.03
77, 0.00, 86564.08, 0.00, 0.00, 0.00, 0.00, 0.00, 0.00, 0.01, -0.00, 1.03
78, 0.00, 86556.79, 0.00, 0.00, 0.00, 0.00, 0.00, 0.00, 0.01, -0.00, 1.03
79, 0.00, 86525.05, 0.00, 0.00, 0.00, 0.00, 0.00, 0.00, 0.01, -0.00, 1.03
80, 0.00, 86530.33, 0.00, 0.00, 0.00, 0.00, 0.00, 0.00, 0.01, -0.00, 1.03
81, 0.00, 86554.40, 0.00, 0.00, 0.00, 0.00, 0.00, 0.00, 0.01, -0.00, 1.03
82, 0.00, 86519.06, 0.00, 0.00, 0.00, 0.00, 0.00, 0.00, 0.01, -0.00, 1.03
83, 0.00, 86507.91, 0.00, 0.00, 0.00, 0.00, 0.00, 0.00, 0.01, -0.00, 1.03
84, 0.00, 86513.30, 0.00, 0.00, 0.00, 0.00, 0.00, 0.00, 0.01, -0.00, 1.03
85, 0.00, 86521.88, 0.00, 0.00, 0.00, 0.00, 0.00, 0.00, 0.01, -0.00, 1.03
86, 0.00, 86523.84, 0.00, 0.00, 0.00, 0.00, 0.00, 0.00, 0.01, -0.01, 1.03
87, 0.00, 86524.63, 0.00, 0.00, 0.00, 0.00, 0.00, 0.00, 0.01, -0.01, 1.03
88, 0.00, 86549.75, 0.00, 0.00, 0.00, 0.00, 0.00, 0.00, 0.01, -0.01, 1.03
89, 0.00, 86556.37, 0.00, 0.00, 0.00, 0.00, 0.00, 0.00, 0.01, -0.01, 1.03
90, 0.00, 86546.60, 0.00, 0.00, 0.00, 0.00, 0.00, 0.00, 0.01, -0.01, 1.03
91, 0.00, 86519.78, 0.00, 0.00, 0.00, 0.00, 0.00, 0.00, 0.02, -0.01, 1.03
92, 0.00, 86532.36, 0.00, 0.00, 0.00, 0.00, 0.00, 0.00, 0.02, -0.01, 1.03
93, 0.00, 86546.33, 0.00, 0.00, 0.00, 0.00, 0.00, 0.00, 0.02, -0.01, 1.03
94, 0.00, 86565.20, 0.00, 0.00, 0.00, 0.00, 0.00, 0.00, 0.02, -0.01, 1.03
95, 0.00, 86545.08, 0.00, 0.00, 0.00, 0.00, 0.00, 0.00, 0.02, -0.01, 1.03
96, 0.00, 86504.66, 0.00, 0.00, 0.00, 0.00, 0.00, 0.00, 0.02, -0.01, 1.03
97, 0.00, 86528.45, 0.00, 0.00, 0.00, 0.00, 0.00, 0.00, 0.02, -0.01, 1.03
98, 0.00, 86556.21, 0.00, 0.00, 0.00, 0.00, 0.00, 0.00, 0.02, -0.01, 1.03
99, 0.00, 86548.14, 0.00, 0.00, 0.00, 0.00, 0.00, 0.00, 0.02, -0.01, 1.03
100, 0.00, 86527.20, 0.00, 0.00, 0.00, 0.00, 0.00, 0.00, 0.02, -0.01, 1.03
101, 0.00, 86546.27, 0.00, 0.00, 0.00, 0.00, 0.00, 0.00, 0.02, -0.00, 1.02
102, 0.00, 86544.88, 0.00, 0.00, 0.00, 0.00, 0.00, 0.00, 0.02, -0.00, 1.02
103, 0.00, 86545.64, 0.00, 0.00, 0.00, 0.00, 0.00, 0.00, 0.02, -0.00, 1.02
104, 0.00, 86554.36, 0.00, 0.00, 0.00, 0.00, 0.00, 0.00, 0.02, -0.00, 1.02
105, 0.00, 86542.22, 0.00, 0.00, 0.00, 0.00, 0.00, 0.00, 0.02, -0.00, 1.02
106, 0.00, 86516.23, 0.00, 0.00, 0.00, 0.00, 0.00, 0.00, 0.01, 0.00, 1.02
107, 0.00, 86519.27, 0.00, 0.00, 0.00, 0.00, 0.00, 0.00, 0.01, 0.00, 1.02
108, 0.00, 86533.68, 0.00, 0.00, 0.00, 0.00, 0.00, 0.00, 0.01, 0.00, 1.02
109, 0.00, 86541.19, 0.00, 0.00, 0.00, 0.00, 0.00, 0.00, 0.01, 0.00, 1.02
110, 0.00, 86561.95, 0.00, 0.00, 0.00, 0.00, 0.00, 0.00, 0.01, 0.00, 1.02
111, 0.00, 86556.88, 0.00, 0.00, 0.00, 0.00, 0.00, 0.00, 0.02, -0.00, 1.02
112, 0.00, 86544.14, 0.00, 0.00, 0.00, 0.00, 0.00, 0.00, 0.02, -0.00, 1.02
113, 0.00, 86521.59, 0.00, 0.00, 0.00, 0.00, 0.00, 0.00, 0.02, -0.00, 1.02
114, 0.00, 86535.29, 0.00, 0.00, 0.00, 0.00, 0.00, 0.00, 0.02, -0.00, 1.02
115, 0.00, 86554.18, 0.00, 0.00, 0.00, 0.00, 0.00, 0.00, 0.02, -0.00, 1.02
116, 0.00, 86543.36, 0.00, 0.00, 0.00, 0.00, 0.00, 0.00, 0.02, 0.00, 1.02
117, 0.00, 86554.76, 0.00, 0.00, 0.00, 0.00, 0.00, 0.00, 0.02, 0.00, 1.02
118, 0.00, 86558.11, 0.00, 0.00, 0.00, 0.00, 0.00, 0.00, 0.02, 0.00, 1.02
119, 0.00, 86552.57, 0.00, 0.00, 0.00, 0.00, 0.00, 0.00, 0.02, 0.00, 1.02
120, 0.00, 86529.27, 0.00, 0.00, 0.00, 0.00, 0.00, 0.00, 0.02, 0.00, 1.02
121, 0.00, 86509.52, 0.00, 0.00, 0.00, 0.00, 0.00, 0.00, 0.01, -0.00, 1.03
122, 0.00, 86534.22, 0.00, 0.00, 0.00, 0.00, 0.00, 0.00, 0.01, -0.00, 1.03
123, 0.00, 86554.84, 0.00, 0.00, 0.00, 0.00, 0.00, 0.00, 0.01, -0.00, 1.03
124, 0.00, 86538.71, 0.00, 0.00, 0.00, 0.00, 0.00, 0.00, 0.01, -0.00, 1.03
125, 0.00, 86530.73, 0.00, 0.00, 0.00, 0.00, 0.00, 0.00, 0.01, -0.00, 1.03
126, 0.00, 86537.10, 0.00, 0.00, 0.00, 0.00, 0.00, 0.00, 0.01, -0.00, 1.03
127, 0.00, 86550.31, 0.00, 0.00, 0.00, 0.00, 0.00, 0.00, 0.01, -0.00, 1.03
128, 0.00, 86569.51, 0.00, 0.00, 0.00, 0.00, 0.00, 0.00, 0.01, -0.00, 1.03
129, 0.00, 86555.63, 0.00, 0.00, 0.00, 0.00, 0.00, 0.00, 0.01, -0.00, 1.03
130, 0.00, 86550.66, 0.00, 0.00, 0.00, 0.00, 0.00, 0.00, 0.01, -0.00, 1.03
131, 0.00, 86532.54, 0.00, 0.00, 0.00, 0.00, 0.00, 0.00, 0.02, -0.00, 1.03
132, 0.00, 86512.13, 0.00, 0.00, 0.00, 0.00, 0.00, 0.00, 0.02, -0.00, 1.03
133, 0.00, 86518.44, 0.00, 0.00, 0.00, 0.00, 0.00, 0.00, 0.02, -0.00, 1.03
134, 0.00, 86508.76, 0.00, 0.00, 0.00, 0.00, 0.00, 0.00, 0.02, -0.00, 1.03
135, 0.00, 86516.20, 0.00, 0.00, 0.00, 0.00, 0.00, 0.00, 0.02, -0.00, 1.03
136, 0.00, 86520.18, 0.00, 0.00, 0.00, 0.00, 0.00, 0.00, 0.01, -0.01, 1.03
137, 0.00, 86526.86, 0.00, 0.00, 0.00, 0.00, 0.00, 0.00, 0.01, -0.01, 1.03
138, 0.00, 86537.03, 0.00, 0.00, 0.00, 0.00, 0.00, 0.00, 0.01, -0.01, 1.03
139, 0.00, 86555.14, 0.00, 0.00, 0.00, 0.00, 0.00, 0.00, 0.01, -0.01, 1.03
140, 0.00, 86540.19, 0.00, 0.00, 0.00, 0.00, 0.00, 0.00, 0.01, -0.01, 1.03
141, 0.00, 86511.48, 0.00, 0.00, 0.00, 0.00, 0.00, 0.00, 0.01, -0.00, 1.03
142, 0.00, 86542.04, 0.00, 0.00, 0.00, 0.00, 0.00, 0.00, 0.01, -0.00, 1.03
143, 0.00, 86568.46, 0.00, 0.00, 0.00, 0.00, 0.00, 0.00, 0.01, -0.00, 1.03
144, 0.00, 86547.23, 0.00, 0.00, 0.00, 0.00, 0.00, 0.00, 0.01, -0.00, 1.03
145, 0.00, 86508.06, 0.00, 0.00, 0.00, 0.00, 0.00, 0.00, 0.01, -0.00, 1.03
146, 0.00, 86511.95, 0.00, 0.00, 0.00, 0.00, 0.00, 0.00, 0.01, 0.00, 1.03
147, 0.00, 86519.27, 0.00, 0.00, 0.00, 0.00, 0.00, 0.00, 0.01, 0.00, 1.03
148, 0.00, 86545.55, 0.00, 0.00, 0.00, 0.00, 0.00, 0.00, 0.01, 0.00, 1.03
149, 0.00, 86534.41, 0.00, 0.00, 0.00, 0.00, 0.00, 0.00, 0.01, 0.00, 1.03
150, 0.00, 86514.34, 0.00, 0.00, 0.00, 0.00, 0.00, 0.00, 0.01, 0.00, 1.03
151, 0.00, 86544.90, 0.00, 0.00, 0.00, 0.00, 0.00, 0.00, 0.01, -0.00, 1.03
152, 0.00, 86553.23, 0.00, 0.00, 0.00, 0.00, 0.00, 0.00, 0.01, -0.00, 1.03
153, 0.00, 86541.44, 0.00, 0.00, 0.00, 0.00, 0.00, 0.00, 0.01, -0.00, 1.03
154, 0.00, 86526.57, 0.00, 0.00, 0.00, 0.00, 0.00, 0.00, 0.01, -0.00, 1.03
155, 0.00, 86520.42, 0.00, 0.00, 0.00, 0.00, 0.00, 0.00, 0.01, -0.00, 1.03
156, 0.00, 86515.35, 0.00, 0.00, 0.00, 0.00, 0.00, 0.00, 0.01, -0.00, 1.03
157, 0.00, 86521.27, 0.00, 0.00, 0.00, 0.00, 0.00, 0.00, 0.01, -0.00, 1.03
158, 0.00, 86532.85, 0.00, 0.00, 0.00, 0.00, 0.00, 0.00, 0.01, -0.00, 1.03
159, 0.00, 86530.26, 0.00, 0.00, 0.00, 0.00, 0.00, 0.00, 0.01, -0.00, 1.03
160, 0.00, 86519.80, 0.00, 0.00, 0.00, 0.00, 0.00, 0.00, 0.01, -0.00, 1.03
161, 0.00, 86523.78, 0.00, 0.00, 0.00, 0.00, 0.00, 0.00, 0.02, -0.01, 1.03
162, 0.00, 86527.35, 0.00, 0.00, 0.00, 0.00, 0.00, 0.00, 0.02, -0.01, 1.03
163, 0.00, 86534.09, 0.00, 0.00, 0.00, 0.00, 0.00, 0.00, 0.02, -0.01, 1.03
164, 0.00, 86539.11, 0.00, 0.00, 0.00, 0.00, 0.00, 0.00, 0.02, -0.01, 1.03
165, 0.00, 86535.18, 0.00, 0.00, 0.00, 0.00, 0.00, 0.00, 0.02, -0.01, 1.03
166, 0.00, 86536.92, 0.00, 0.00, 0.00, 0.00, 0.00, 0.00, 0.01, -0.01, 1.03
167, 0.00, 86536.85, 0.00, 0.00, 0.00, 0.00, 0.00, 0.00, 0.01, -0.01, 1.03
168, 0.00, 86523.29, 0.00, 0.00, 0.00, 0.00, 0.00, 0.00, 0.01, -0.01, 1.03
169, 0.00, 86509.65, 0.00, 0.00, 0.00, 0.00, 0.00, 0.00, 0.01, -0.01, 1.03
170, 0.00, 86513.48, 0.00, 0.00, 0.00, 0.00, 0.00, 0.00, 0.01, -0.01, 1.03
171, 0.00, 86517.14, 0.00, 0.00, 0.00, 0.00, 0.00, 0.00, 0.01, -0.01, 1.03
172, 0.00, 86547.74, 0.00, 0.00, 0.00, 0.00, 0.00, 0.00, 0.01, -0.01, 1.03
173, 0.00, 86554.52, 0.00, 0.00, 0.00, 0.00, 0.00, 0.00, 0.01, -0.01, 1.03
174, 0.00, 86537.48, 0.00, 0.00, 0.00, 0.00, 0.00, 0.00, 0.01, -0.01, 1.03
175, 0.00, 86522.15, 0.00, 0.00, 0.00, 0.00, 0.00, 0.00, 0.01, -0.01, 1.03
176, 0.00, 86497.88, 0.00, 0.00, 0.00, 0.00, 0.00, 0.00, 0.01, -0.00, 1.03
177, 0.00, 86503.88, 0.00, 0.00, 0.00, 0.00, 0.00, 0.00, 0.01, -0.00, 1.03
178, 0.00, 86522.08, 0.00, 0.00, 0.00, 0.00, 0.00, 0.00, 0.01, -0.00, 1.03
179, 0.00, 86535.05, 0.00, 0.00, 0.00, 0.00, 0.00, 0.00, 0.01, -0.00, 1.03
180, 0.00, 86552.34, 0.00, 0.00, 0.00, 0.00, 0.00, 0.00, 0.01, -0.00, 1.03
181, 0.00, 86558.60, 0.00, 0.00, 0.00, 0.00, 0.00, 0.00, 0.01, 0.00, 1.03
182, 0.00, 86537.55, 0.00, 0.00, 0.00, 0.00, 0.00, 0.00, 0.01, 0.00, 1.03
183, 0.00, 86536.54, 0.00, 0.00, 0.00, 0.00, 0.00, 0.00, 0.01, 0.00, 1.03
184, 0.00, 86548.84, 0.00, 0.00, 0.00, 0.00, 0.00, 0.00, 0.01, 0.00, 1.03
185, 0.00, 86555.02, 0.00, 0.00, 0.00, 0.00, 0.00, 0.00, 0.01, 0.00, 1.03
186, 0.00, 86521.01, 0.00, 0.00, 0.00, 0.00, 0.00, 0.00, 0.01, -0.00, 1.03
187, 0.00, 86535.27, 0.00, 0.00, 0.00, 0.00, 0.00, 0.00, 0.01, -0.00, 1.03
188, 0.00, 86521.19, 0.00, 0.00, 0.00, 0.00, 0.00, 0.00, 0.01, -0.00, 1.03
189, 0.00, 86536.02, 0.00, 0.00, 0.00, 0.00, 0.00, 0.00, 0.01, -0.00, 1.03
190, 0.00, 86551.02, 0.00, 0.00, 0.00, 0.00, 0.00, 0.00, 0.01, -0.00, 1.03
191, 0.00, 86530.62, 0.00, 0.00, 0.00, 0.00, 0.00, 0.00, 0.02, -0.00, 1.03
192, 0.00, 86504.00, 0.00, 0.00, 0.00, 0.00, 0.00, 0.00, 0.02, -0.00, 1.03
193, 0.00, 86511.58, 0.00, 0.00, 0.00, 0.00, 0.00, 0.00, 0.02, -0.00, 1.03
194, 0.00, 86528.80, 0.00, 0.00, 0.00, 0.00, 0.00, 0.00, 0.02, -0.00, 1.03
195, 0.00, 86525.34, 0.00, 0.00, 0.00, 0.00, 0.00, 0.00, 0.02, -0.00, 1.03
196, 0.00, 86530.46, 0.00, 0.00, 0.00, 0.00, 0.00, 0.00, 0.01, -0.00, 1.03
197, 0.00, 86527.31, 0.00, 0.00, 0.00, 0.00, 0.00, 0.00, 0.01, -0.00, 1.03
198, 0.00, 86534.89, 0.00, 0.00, 0.00, 0.00, 0.00, 0.00, 0.01, -0.00, 1.03
199, 0.00, 86538.20, 0.00, 0.00, 0.00, 0.00, 0.00, 0.00, 0.01, -0.00, 1.03
200, 0.00, 86538.27, 0.00, 0.00, 0.00, 0.00, 0.00, 0.00, 0.01, -0.00, 1.03
201, 0.00, 86536.79, 0.00, 0.00, 0.00, 0.00, 0.00, 0.00, 0.02, -0.01, 1.03
202, 0.00, 86565.46, 0.00, 0.00, 0.00, 0.00, 0.00, 0.00, 0.02, -0.01, 1.03
203, 0.00, 86578.45, 0.00, 0.00, 0.00, 0.00, 0.00, 0.00, 0.02, -0.01, 1.03
204, 0.00, 86542.66, 0.00, 0.00, 0.00, 0.00, 0.00, 0.00, 0.02, -0.01, 1.03
205, 0.00, 86511.17, 0.00, 0.00, 0.00, 0.00, 0.00, 0.00, 0.02, -0.01, 1.03
206, 0.00, 86509.45, 0.00, 0.00, 0.00, 0.00, 0.00, 0.00, 0.02, -0.01, 1.03
207, 0.00, 86522.13, 0.00, 0.00, 0.00, 0.00, 0.00, 0.00, 0.02, -0.01, 1.03
208, 0.00, 86508.53, 0.00, 0.00, 0.00, 0.00, 0.00, 0.00, 0.02, -0.01, 1.03
209, 0.00, 86514.34, 0.00, 0.00, 0.00, 0.00, 0.00, 0.00, 0.02, -0.01, 1.03
210, 0.00, 86512.47, 0.00, 0.00, 0.00, 0.00, 0.00, 0.00, 0.02, -0.01, 1.03
211, 0.00, 86510.32, 0.00, 0.00, 0.00, 0.00, 0.00, 0.00, 0.02, -0.01, 1.03
212, 0.00, 86493.78, 0.00, 0.00, 0.00, 0.00, 0.00, 0.00, 0.02, -0.01, 1.03
213, 0.00, 86490.34, 0.00, 0.00, 0.00, 0.00, 0.00, 0.00, 0.02, -0.01, 1.03
214, 0.00, 86484.53, 0.00, 0.00, 0.00, 0.00, 0.00, 0.00, 0.02, -0.01, 1.03
215, 0.00, 86489.16, 0.00, 0.00, 0.00, 0.00, 0.00, 0.00, 0.02, -0.01, 1.03
216, 0.00, 86505.14, 0.00, 0.00, 0.00, 0.00, 0.00, 0.00, 0.02, -0.00, 1.03
217, 0.00, 86543.59, 0.00, 0.00, 0.00, 0.00, 0.00, 0.00, 0.02, -0.00, 1.03
218, 0.00, 86514.05, 0.00, 0.00, 0.00, 0.00, 0.00, 0.00, 0.02, -0.00, 1.03
219, 0.00, 86465.53, 0.00, 0.00, 0.00, 0.00, 0.00, 0.00, 0.02, -0.00, 1.03
220, 0.00, 86456.01, 0.00, 0.00, 0.00, 0.00, 0.00, 0.00, 0.02, -0.00, 1.03
221, 0.00, 86463.16, 0.00, 0.00, 0.00, 0.00, 0.00, 0.00, 0.02, -0.00, 1.03
222, 0.00, 86473.63, 0.00, 0.00, 0.00, 0.00, 0.00, 0.00, 0.02, -0.01, 1.03
223, 0.00, 86498.77, 0.00, 0.00, 0.00, 0.00, 0.00, 0.00, 0.02, -0.01, 1.03
224, 0.00, 86517.97, 0.00, 0.00, 0.00, 0.00, 0.00, 0.00, 0.02, -0.01, 1.03
225, 0.00, 86504.49, 0.00, 0.00, 0.00, 0.00, 0.00, 0.00, 0.02, -0.01, 1.03
226, 0.00, 86496.30, 0.00, 0.00, 0.00, 0.00, 0.00, 0.00, 0.02, -0.01, 1.03
227, 0.00, 86501.47, 0.00, 0.00, 0.00, 0.00, 0.00, 0.00, 0.02, -0.00, 1.04
228, 0.00, 86507.20, 0.00, 0.00, 0.00, 0.00, 0.00, 0.00, 0.02, -0.00, 1.04
229, 0.00, 86507.20, 0.00, 0.00, 0.00, 0.00, 0.00, 0.00, 0.02, -0.00, 1.04
230, 0.00, 86523.78, 0.00, 0.00, 0.00, 0.00, 0.00, 0.00, 0.02, -0.00, 1.04
231, 0.00, 86534.87, 0.00, 0.00, 0.00, 0.00, 0.00, 0.00, 0.02, -0.00, 1.04
232, 0.00, 86546.45, 0.00, 0.00, 0.00, 0.00, 0.00, 0.00, 0.02, -0.00, 1.04
233, 0.00, 86559.12, 0.00, 0.00, 0.00, 0.00, 0.00, 0.00, 0.02, -0.00, 1.04
234, 0.00, 86547.34, 0.00, 0.00, 0.00, 0.00, 0.00, 0.00, 0.02, -0.00, 1.04
235, 0.00, 86545.15, 0.00, 0.00, 0.00, 0.00, 0.00, 0.00, 0.02, -0.00, 1.04
236, 0.00, 86546.31, 0.00, 0.00, 0.00, 0.00, 0.00, 0.00, 0.02, -0.00, 1.04
237, 0.00, 86516.36, 0.00, 0.00, 0.00, 0.00, 0.00, 0.00, 0.03, -0.01, 1.04
238, 0.00, 86506.21, 0.00, 0.00, 0.00, 0.00, 0.00, 0.00, 0.03, -0.01, 1.04
239, 0.00, 86508.22, 0.00, 0.00, 0.00, 0.00, 0.00, 0.00, 0.03, -0.01, 1.04
240, 0.00, 86523.00, 0.00, 0.00, 0.00, 0.00, 0.00, 0.00, 0.03, -0.01, 1.04
241, 0.00, 86530.66, 0.00, 0.00, 0.00, 0.00, 0.00, 0.00, 0.03, -0.01, 1.04
242, 0.00, 86530.88, 0.00, 0.00, 0.00, 0.00, 0.00, 0.00, 0.02, -0.01, 1.03
243, 0.00, 86530.02, 0.00, 0.00, 0.00, 0.00, 0.00, 0.00, 0.02, -0.01, 1.03
244, 0.00, 86516.54, 0.00, 0.00, 0.00, 0.00, 0.00, 0.00, 0.02, -0.01, 1.03
245, 0.00, 86515.73, 0.00, 0.00, 0.00, 0.00, 0.00, 0.00, 0.02, -0.01, 1.03
246, 0.00, 86526.59, 0.00, 0.00, 0.00, 0.00, 0.00, 0.00, 0.02, -0.01, 1.03
247, 0.00, 86531.52, 0.00, 0.00, 0.00, 0.00, 0.00, 0.00, 0.01, -0.01, 1.03
248, 0.00, 86551.14, 0.00, 0.00, 0.00, 0.00, 0.00, 0.00, 0.01, -0.01, 1.03
249, 0.00, 86553.48, 0.00, 0.00, 0.00, 0.00, 0.00, 0.00, 0.01, -0.01, 1.03
250, 0.00, 86505.23, 0.00, 0.00, 0.00, 0.00, 0.00, 0.00, 0.01, -0.01, 1.03
251, 0.00, 86507.28, 0.00, 0.00, 0.00, 0.00, 0.00, 0.00, 0.01, -0.01, 1.03
252, 0.00, 86533.66, 0.00, 0.00, 0.00, 0.00, 0.00, 0.00, 0.01, -0.01, 1.03
253, 0.00, 86539.27, 0.00, 0.00, 0.00, 0.00, 0.00, 0.00, 0.01, -0.01, 1.03
254, 0.00, 86540.27, 0.00, 0.00, 0.00, 0.00, 0.00, 0.00, 0.01, -0.01, 1.03
255, 0.00, 86539.16, 0.00, 0.00, 0.00, 0.00, 0.00, 0.00, 0.01, -0.01, 1.03
0, 0.00, 86531.53, 0.00, 0.00, 0.00, 0.00, 0.00, 0.00, 0.01, -0.01, 1.03
1, 0.00, 86508.29, 0.00, 0.00, 0.00, 0.00, 0.00, 0.00, 0.02, -0.01, 1.03
2, 0.00, 86521.61, 0.00, 0.00, 0.00, 0.00, 0.00, 0.00, 0.02, -0.01, 1.03
3, 0.00, 86546.76, 0.00, 0.00, 0.00, 0.00, 0.00, 0.00, 0.02, -0.01, 1.03
4, 0.00, 86514.77, 0.00, 0.00, 0.00, 0.00, 0.00, 0.00, 0.02, -0.01, 1.03
5, 0.00, 86516.63, 0.00, 0.00, 0.00, 0.00, 0.00, 0.00, 0.02, -0.01, 1.03
6, 0.00, 86500.42, 0.00, 0.00, 0.00, 0.00, 0.00, 0.00, 0.01, -0.01, 1.03
7, 0.00, 86510.91, 0.00, 0.00, 0.00, 0.00, 0.00, 0.00, 0.01, -0.01, 1.03
8, 0.00, 86508.29, 0.00, 0.00, 0.00, 0.00, 0.00, 0.00, 0.01, -0.01, 1.03
9, 0.00, 86501.25, 0.00, 0.00, 0.00, 0.00, 0.00, 0.00, 0.01, -0.01, 1.03
10, 0.00, 86511.40, 0.00, 0.00, 0.00, 0.00, 0.00, 0.00, 0.01, -0.01, 1.03
11, 0.00, 86484.26, 0.00, 0.00, 0.00, 0.00, 0.00, 0.00, 0.01, -0.00, 1.03
12, 0.00, 86499.28, 0.00, 0.00, 0.00, 0.00, 0.00, 0.00, 0.01, -0.00, 1.03
13, 0.00, 86507.15, 0.00, 0.00, 0.00, 0.00, 0.00, 0.00, 0.01, -0.00, 1.03
14, 0.00, 86508.31, 0.00, 0.00, 0.00, 0.00, 0.00, 0.00, 0.01, -0.00, 1.03
15, 0.00, 86521.12, 0.00, 0.00, 0.00, 0.00, 0.00, 0.00, 0.01, -0.00, 1.03
16, 0.00, 86515.09, 0.00, 0.00, 0.00, 0.00, 0.00, 0.00, 0.01, 0.00, 1.03
17, 0.00, 86503.05, 0.00, 0.00, 0.00, 0.00, 0.00, 0.00, 0.01, 0.00, 1.03
18, 0.00, 86489.60, 0.00, 0.00, 0.00, 0.00, 0.00, 0.00, 0.01, 0.00, 1.03
19, 0.00, 86482.67, 0.00, 0.00, 0.00, 0.00, 0.00, 0.00, 0.01, 0.00, 1.03
20, 0.00, 86462.45, 0.00, 0.00, 0.00, 0.00, 0.00, 0.00, 0.01, 0.00, 1.03
21, 0.00, 86466.76, 0.00, 0.00, 0.00, 0.00, 0.00, 0.00, 0.01, 0.00, 1.02
22, 0.00, 86493.09, 0.00, 0.00, 0.00, 0.00, 0.00, 0.00, 0.01, 0.00, 1.02
23, 0.00, 86499.10, 0.00, 0.00, 0.00, 0.00, 0.00, 0.00, 0.01, 0.00, 1.02
24, 0.00, 86500.76, 0.00, 0.00, 0.00, 0.00, 0.00, 0.00, 0.01, 0.00, 1.02
25, 0.00, 86511.33, 0.00, 0.00, 0.00, 0.00, 0.00, 0.00, 0.01, 0.00, 1.02
26, 0.00, 86488.51, 0.00, 0.00, 0.00, 0.00, 0.00, 0.00, 0.01, 0.00, 1.02
27, 0.00, 86463.23, 0.00, 0.00, 0.00, 0.00, 0.00, 0.00, 0.01, 0.00, 1.02
28, 0.00, 86469.45, 0.00, 0.00, 0.00, 0.00, 0.00, 0.00, 0.01, 0.00, 1.02
29, 0.00, 86508.24, 0.00, 0.00, 0.00, 0.00, 0.00, 0.00, 0.01, 0.00, 1.02
30, 0.00, 86515.87, 0.00, 0.00, 0.00, 0.00, 0.00, 0.00, 0.01, 0.00, 1.02
31, 0.00, 86516.42, 0.00, 0.00, 0.00, 0.00, 0.00, 0.00, 0.01, -0.00, 1.02
32, 0.00, 86511.28, 0.00, 0.00, 0.00, 0.00, 0.00, 0.00, 0.01, -0.00, 1.02
33, 0.00, 86504.78, 0.00, 0.00, 0.00, 0.00, 0.00, 0.00, 0.01, -0.00, 1.02
34, 0.00, 86495.91, 0.00, 0.00, 0.00, 0.00, 0.00, 0.00, 0.01, -0.00, 1.02
35, 0.00, 86486.56, 0.00, 0.00, 0.00, 0.00, 0.00, 0.00, 0.01, -0.00, 1.02
36, 0.00, 86507.41, 0.00, 0.00, 0.00, 0.00, 0.00, 0.00, 0.01, 0.00, 1.03
37, 0.00, 86518.19, 0.00, 0.00, 0.00, 0.00, 0.00, 0.00, 0.01, 0.00, 1.03
38, 0.00, 86505.07, 0.00, 0.00, 0.00, 0.00, 0.00, 0.00, 0.01, 0.00, 1.03
39, 0.00, 86507.91, 0.00, 0.00, 0.00, 0.00, 0.00, 0.00, 0.01, 0.00, 1.03
40, 0.00, 86515.53, 0.00, 0.00, 0.00, 0.00, 0.00, 0.00, 0.01, 0.00, 1.03
41, 0.00, 86527.84, 0.00, 0.00, 0.00, 0.00, 0.00, 0.00, 0.02, -0.00, 1.03
42, 0.00, 86519.04, 0.00, 0.00, 0.00, 0.00, 0.00, 0.00, 0.02, -0.00, 1.03
43, 0.00, 86494.59, 0.00, 0.00, 0.00, 0.00, 0.00, 0.00, 0.02, -0.00, 1.03
44, 0.00, 86478.85, 0.00, 0.00, 0.00, 0.00, 0.00, 0.00, 0.02, -0.00, 1.03
45, 0.00, 86492.27, 0.00, 0.00, 0.00, 0.00, 0.00, 0.00, 0.02, -0.00, 1.03
46, 0.00, 86510.32, 0.00, 0.00, 0.00, 0.00, 0.00, 0.00, 0.02, -0.00, 1.03
47, 0.00, 86527.40, 0.00, 0.00, 0.00, 0.00, 0.00, 0.00, 0.02, -0.00, 1.03
48, 0.00, 86507.04, 0.00, 0.00, 0.00, 0.00, 0.00, 0.00, 0.02, -0.00, 1.03
49, 0.00, 86526.38, 0.00, 0.00, 0.00, 0.00, 0.00, 0.00, 0.02, -0.00, 1.03
50, 0.00, 86538.30, 0.00, 0.00, 0.00, 0.00, 0.00, 0.00, 0.02, -0.00, 1.03
51, 0.00, 86514.30, 0.00, 0.00, 0.00, 0.00, 0.00, 0.00, 0.02, 0.00, 1.02
52, 0.00, 86484.35, 0.00, 0.00, 0.00, 0.00, 0.00, 0.00, 0.02, 0.00, 1.02
53, 0.00, 86488.46, 0.00, 0.00, 0.00, 0.00, 0.00, 0.00, 0.02, 0.00, 1.02
54, 0.00, 86499.52, 0.00, 0.00, 0.00, 0.00, 0.00, 0.00, 0.02, 0.00, 1.02
55, 0.00, 86502.92, 0.00, 0.00, 0.00, 0.00, 0.00, 0.00, 0.02, 0.00, 1.02
56, 0.00, 86475.05, 0.00, 0.00, 0.00, 0.00, 0.00, 0.00, 0.02, -0.00, 1.02
57, 0.00, 86456.19, 0.00, 0.00, 0.00, 0.00, 0.00, 0.00, 0.02, -0.00, 1.02
58, 0.00, 86476.02, 0.00, 0.00, 0.00, 0.00, 0.00, 0.00, 0.02, -0.00, 1.02
59, 0.00, 86504.49, 0.00, 0.00, 0.00, 0.00, 0.00, 0.00, 0.02, -0.00, 1.02
60, 0.00, 86486.52, 0.00, 0.00, 0.00, 0.00, 0.00, 0.00, 0.02, -0.00, 1.02
61, 0.00, 86483.55, 0.00, 0.00, 0.00, 0.00, 0.00, 0.00, 0.02, -0.01, 1.03
62, 0.00, 86503.69, 0.00, 0.00, 0.00, 0.00, 0.00, 0.00, 0.02, -0.01, 1.03
63, 0.00, 86504.58, 0.00, 0.00, 0.00, 0.00, 0.00, 0.00, 0.02, -0.01, 1.03
64, 0.00, 86491.15, 0.00, 0.00, 0.00, 0.00, 0.00, 0.00, 0.02, -0.01, 1.03
65, 0.00, 86488.71, 0.00, 0.00, 0.00, 0.00, 0.00, 0.00, 0.02, -0.01, 1.03
66, 0.00, 86499.48, 0.00, 0.00, 0.00, 0.00, 0.00, 0.00, 0.02, -0.01, 1.04
67, 0.00, 86507.08, 0.00, 0.00, 0.00, 0.00, 0.00, 0.00, 0.02, -0.01, 1.04
68, 0.00, 86485.69, 0.00, 0.00, 0.00, 0.00, 0.00, 0.00, 0.02, -0.01, 1.04
69, 0.00, 86472.30, 0.00, 0.00, 0.00, 0.00, 0.00, 0.00, 0.02, -0.01, 1.04
70, 0.00, 86509.41, 0.00, 0.00, 0.00, 0.00, 0.00, 0.00, 0.02, -0.01, 1.04
71, 0.00, 86500.55, 0.00, 0.00, 0.00, 0.00, 0.00, 0.00, 0.03, -0.01, 1.03
72, 0.00, 86465.59, 0.00, 0.00, 0.00, 0.00, 0.00, 0.00, 0.03, -0.01, 1.03
73, 0.00, 86449.99, 0.00, 0.00, 0.00, 0.00, 0.00, 0.00, 0.03, -0.01, 1.03
74, 0.00, 86449.57, 0.00, 0.00, 0.00, 0.00, 0.00, 0.00, 0.03, -0.01, 1.03
75, 0.00, 86476.68, 0.00, 0.00, 0.00, 0.00, 0.00, 0.00, 0.03, -0.01, 1.03
76, 0.00, 86474.23, 0.00, 0.00, 0.00, 0.00, 0.00, 0.00, 0.02, -0.01, 1.03
77, 0.00, 86478.80, 0.00, 0.00, 0.00, 0.00, 0.00, 0.00, 0.02, -0.01, 1.03
78, 0.00, 86502.57, 0.00, 0.00, 0.00, 0.00, 0.00, 0.00, 0.02, -0.01, 1.03
79, 0.00, 86503.88, 0.00, 0.00, 0.00, 0.00, 0.00, 0.00, 0.02, -0.01, 1.03
80, 0.00, 86480.84, 0.00, 0.00, 0.00, 0.00, 0.00, 0.00, 0.02, -0.01, 1.03
81, 0.00, 86490.05, 0.00, 0.00, 0.00, 0.00, 0.00, 0.00, 0.02, -0.00, 1.03
82, 0.00, 86491.66, 0.00, 0.00, 0.00, 0.00, 0.00, 0.00, 0.02, -0.00, 1.03
83, 0.00, 86489.05, 0.00, 0.00, 0.00, 0.00, 0.00, 0.00, 0.02, -0.00, 1.03
84, 0.00, 86477.66, 0.00, 0.00, 0.00, 0.00, 0.00, 0.00, 0.02, -0.00, 1.03
85, 0.00, 86465.22, 0.00, 0.00, 0.00, 0.00, 0.00, 0.00, 0.02, -0.00, 1.03
86, 0.00, 86480.88, 0.00, 0.00, 0.00, 0.00, 0.00, 0.00, 0.02, -0.01, 1.03
87, 0.00, 86479.86, 0.00, 0.00, 0.00, 0.00, 0.00, 0.00, 0.02, -0.01, 1.03
88, 0.00, 86490.95, 0.00, 0.00, 0.00, 0.00, 0.00, 0.00, 0.02, -0.01, 1.03
89, 0.00, 86473.63, 0.00, 0.00, 0.00, 0.00, 0.00, 0.00, 0.02, -0.01, 1.03
90, 0.00, 86457.64, 0.00, 0.00, 0.00, 0.00, 0.00, 0.00, 0.02, -0.01, 1.03
91, 0.00, 86459.47, 0.00, 0.00, 0.00, 0.00, 0.00, 0.00, 0.01, -0.00, 1.03
92, 0.00, 86475.41, 0.00, 0.00, 0.00, 0.00, 0.00, 0.00, 0.01, -0.00, 1.03
93, 0.00, 86480.84, 0.00, 0.00, 0.00, 0.00, 0.00, 0.00, 0.01, -0.00, 1.03
94, 0.00, 86456.97, 0.00, 0.00, 0.00, 0.00, 0.00, 0.00, 0.01, -0.00, 1.03
95, 0.00, 86476.26, 0.00, 0.00, 0.00, 0.00, 0.00, 0.00, 0.01, -0.00, 1.03
96, 0.00, 86496.06, 0.00, 0.00, 0.00, 0.00, 0.00, 0.00, 0.02, -0.00, 1.03
97, 0.00, 86502.70, 0.00, 0.00, 0.00, 0.00, 0.00, 0.00, 0.02, -0.00, 1.03
98, 0.00, 86495.39, 0.00, 0.00, 0.00, 0.00, 0.00, 0.00, 0.02, -0.00, 1.03
99, 0.00, 86467.56, 0.00, 0.00, 0.00, 0.00, 0.00, 0.00, 0.02, -0.00, 1.03
100, 0.00, 86474.85, 0.00, 0.00, 0.00, 0.00, 0.00, 0.00, 0.02, -0.00, 1.03
101, 0.00, 86473.63, 0.00, 0.00, 0.00, 0.00, 0.00, 0.00, 0.02, 0.00, 1.03
102, 0.00, 86458.63, 0.00, 0.00, 0.00, 0.00, 0.00, 0.00, 0.02, 0.00, 1.03
103, 0.00, 86474.88, 0.00, 0.00, 0.00, 0.00, 0.00, 0.00, 0.02, 0.00, 1.03
104, 0.00, 86486.70, 0.00, 0.00, 0.00, 0.00, 0.00, 0.00, 0.02, 0.00, 1.03
105, 0.00, 86478.43, 0.00, 0.00, 0.00, 0.00, 0.00, 0.00, 0.02, 0.00, 1.03
106, 0.00, 86482.38, 0.00, 0.00, 0.00, 0.00, 0.00, 0.00, 0.01, -0.01, 1.03
107, 0.00, 86494.25, 0.00, 0.00, 0.00, 0.00, 0.00, 0.00, 0.01, -0.01, 1.03
108, 0.00, 86500.48, 0.00, 0.00, 0.00, 0.00, 0.00, 0.00, 0.01, -0.01, 1.03
109, 0.00, 86476.15, 0.00, 0.00, 0.00, 0.00, 0.00, 0.00, 0.01, -0.01, 1.03
110, 0.00, 86440.32, 0.00, 0.00, 0.00, 0.00, 0.00, 0.00, 0.01, -0.01, 1.03
111, 0.00, 86471.12, 0.00, 0.00, 0.00, 0.00, 0.00, 0.00, 0.01, -0.01, 1.04
112, 0.00, 86487.59, 0.00, 0.00, 0.00, 0.00, 0.00, 0.00, 0.01, -0.01, 1.04
113, 0.00, 86467.12, 0.00, 0.00, 0.00, 0.00, 0.00, 0.00, 0.01, -0.01, 1.04
114, 0.00, 86466.67, 0.00, 0.00, 0.00, 0.00, 0.00, 0.00, 0.01, -0.01, 1.04
115, 0.00, 86468.99, 0.00, 0.00, 0.00, 0.00, 0.00, 0.00, 0.01, -0.01, 1.04
116, 0.00, 86476.86, 0.00, 0.00, 0.00, 0.00, 0.00, 0.00, 0.01, -0.01, 1.02
117, 0.00, 86490.41, 0.00, 0.00, 0.00, 0.00, 0.00, 0.00, 0.01, -0.01, 1.02
118, 0.00, 86491.86, 0.00, 0.00, 0.00, 0.00, 0.00, 0.00, 0.01, -0.01, 1.02
119, 0.00, 86494.03, 0.00, 0.00, 0.00, 0.00, 0.00, 0.00, 0.01, -0.01, 1.02
120, 0.00, 86495.66, 0.00, 0.00, 0.00, 0.00, 0.00, 0.00, 0.01, -0.01, 1.02
121, 0.00, 86496.48, 0.00, 0.00, 0.00, 0.00, 0.00, 0.00, 0.01, -0.00, 1.02
122, 0.00, 86500.66, 0.00, 0.00, 0.00, 0.00, 0.00, 0.00, 0.01, -0.00, 1.02
123, 0.00, 86502.41, 0.00, 0.00, 0.00, 0.00, 0.00, 0.00, 0.01, -0.00, 1.02
124, 0.00, 86497.20, 0.00, 0.00, 0.00, 0.00, 0.00, 0.00, 0.01, -0.00, 1.02
125, 0.00, 86507.48, 0.00, 0.00, 0.00, 0.00, 0.00, 0.00, 0.01, -0.00, 1.02
126, 0.00, 86528.20, 0.00, 0.00, 0.00, 0.00, 0.00, 0.00, 0.01, -0.00, 1.03
127, 0.00, 86497.80, 0.00, 0.00, 0.00, 0.00, 0.00, 0.00, 0.01, -0.00, 1.03
128, 0.00, 86495.64, 0.00, 0.00, 0.00, 0.00, 0.00, 0.00, 0.01, -0.00, 1.03
129, 0.00, 86477.84, 0.00, 0.00, 0.00, 0.00, 0.00, 0.00, 0.01, -0.00, 1.03
130, 0.00, 86486.97, 0.00, 0.00, 0.00, 0.00, 0.00, 0.00, 0.01, -0.00, 1.03
131, 0.00, 86480.98, 0.00, 0.00, 0.00, 0.00, 0.00, 0.00, 0.01, 0.00, 1.03
132, 0.00, 86488.17, 0.00, 0.00, 0.00, 0.00, 0.00, 0.00, 0.01, 0.00, 1.03
133, 0.00, 86502.50, 0.00, 0.00, 0.00, 0.00, 0.00, 0.00, 0.01, 0.00, 1.03
134, 0.00, 86501.12, 0.00, 0.00, 0.00, 0.00, 0.00, 0.00, 0.01, 0.00, 1.03
135, 0.00, 86498.07, 0.00, 0.00, 0.00, 0.00, 0.00, 0.00, 0.01, 0.00, 1.03
136, 0.00, 86494.77, 0.00, 0.00, 0.00, 0.00, 0.00, 0.00, 0.01, -0.00, 1.03
137, 0.00, 86515.87, 0.00, 0.00, 0.00, 0.00, 0.00, 0.00, 0.01, -0.00, 1.03
138, 0.00, 86537.97, 0.00, 0.00, 0.00, 0.00, 0.00, 0.00, 0.01, -0.00, 1.03
