%OpenBCI Raw EEG Data
%
%Sample Rate = 250.0 Hz
%First Column = SampleIndex
%Other Columns = EEG data in microvolts followed by Accel Data (in G) interleaved with Aux Data
0, 0.00, 44051.51, 0.00, 0.00, 0.00, 0.00, 0.00, 0.00, 0.00, 0.00, 0.51
1, 0.00, 44075.09, 0.00, 0.00, 0.00, 0.00, 0.00, 0.00, 0.00, 0.00, 0.51
2, 0.00, 44088.43, 0.00, 0.00, 0.00, 0.00, 0.00, 0.00, 0.02, 0.01, 1.01
3, 0.00, 44064.50, 0.00, 0.00, 0.00, 0.00, 0.00, 0.00, 0.02, 0.01, 1.01
4, 0.00, 44049.97, 0.00, 0.00, 0.00, 0.00, 0.00, 0.00, 0.02, 0.01, 1.01
5, 0.00, 44067.89, 0.00, 0.00, 0.00, 0.00, 0.00, 0.00, 0.02, 0.01, 1.01
6, 0.00, 44083.27, 0.00, 0.00, 0.00, 0.00, 0.00, 0.00, 0.02, 0.01, 1.01
7, 0.00, 44069.88, 0.00, 0.00, 0.00, 0.00, 0.00, 0.00, 0.01, 0.01, 1.00
8, 0.00, 44047.55, 0.00, 0.00, 0.00, 0.00, 0.00, 0.00, 0.01, 0.01, 1.00
9, 0.00, 44053.66, 0.00, 0.00, 0.00, 0.00, 0.00, 0.00, 0.01, 0.01, 1.00
10, 0.00, 44074.11, 0.00, 0.00, 0.00, 0.00, 0.00, 0.00, 0.01, 0.01, 1.00
11, 0.00, 44059.51, 0.00, 0.00, 0.00, 0.00, 0.00, 0.00, 0.01, 0.01, 1.00
12, 0.00, 44046.64, 0.00, 0.00, 0.00, 0.00, 0.00, 0.00, 0.01, 0.01, 1.01
13, 0.00, 44050.08, 0.00, 0.00, 0.00, 0.00, 0.00, 0.00, 0.01, 0.01, 1.01
14, 0.00, 44068.50, 0.00, 0.00, 0.00, 0.00, 0.00, 0.00, 0.01, 0.01, 1.01
15, 0.00, 44068.09, 0.00, 0.00, 0.00, 0.00, 0.00, 0.00, 0.01, 0.01, 1.01
16, 0.00, 44043.95, 0.00, 0.00, 0.00, 0.00, 0.00, 0.00, 0.01, 0.01, 1.01
17, 0.00, 44039.82, 0.00, 0.00, 0.00, 0.00, 0.00, 0.00, 0.01, 0.01, 1.01
18, 0.00, 44059.64, 0.00, 0.00, 0.00, 0.00, 0.00, 0.00, 0.01, 0.01, 1.01
19, 0.00, 44058.64, 0.00, 0.00, 0.00, 0.00, 0.00, 0.00, 0.01, 0.01, 1.01
20, 0.00, 44038.72, 0.00, 0.00, 0.00, 0.00, 0.00, 0.00, 0.01, 0.01, 1.01
21, 0.00, 44032.22, 0.00, 0.00, 0.00, 0.00, 0.00, 0.00, 0.01, 0.01, 1.01
22, 0.00, 44057.16, 0.00, 0.00, 0.00, 0.00, 0.00, 0.00, 0.01, 0.01, 1.02
23, 0.00, 44071.38, 0.00, 0.00, 0.00, 0.00, 0.00, 0.00, 0.01, 0.01, 1.02
24, 0.00, 44042.68, 0.00, 0.00, 0.00, 0.00, 0.00, 0.00, 0.01, 0.01, 1.02
25, 0.00, 44030.21, 0.00, 0.00, 0.00, 0.00, 0.00, 0.00, 0.01, 0.01, 1.02
26, 0.00, 44048.07, 0.00, 0.00, 0.00, 0.00, 0.00, 0.00, 0.01, 0.01, 1.02
27, 0.00, 44066.11, 0.00, 0.00, 0.00, 0.00, 0.00, 0.00, 0.01, 0.01, 1.02
28, 0.00, 44047.84, 0.00, 0.00, 0.00, 0.00, 0.00, 0.00, 0.01, 0.01, 1.02
29, 0.00, 44030.88, 0.00, 0.00, 0.00, 0.00, 0.00, 0.00, 0.01, 0.01, 1.02
30, 0.00, 44045.07, 0.00, 0.00, 0.00, 0.00, 0.00, 0.00, 0.01, 0.01, 1.02
31, 0.00, 44061.68, 0.00, 0.00, 0.00, 0.00, 0.00, 0.00, 0.01, 0.01, 1.02
32, 0.00, 44045.54, 0.00, 0.00, 0.00, 0.00, 0.00, 0.00, 0.01, 0.01, 1.02
33, 0.00, 44028.64, 0.00, 0.00, 0.00, 0.00, 0.00, 0.00, 0.01, 0.01, 1.02
34, 0.00, 44045.32, 0.00, 0.00, 0.00, 0.00, 0.00, 0.00, 0.01, 0.01, 1.02
35, 0.00, 44061.25, 0.00, 0.00, 0.00, 0.00, 0.00, 0.00, 0.01, 0.01, 1.02
36, 0.00, 44051.13, 0.00, 0.00, 0.00, 0.00, 0.00, 0.00, 0.01, 0.01, 1.02
37, 0.00, 44035.80, 0.00, 0.00, 0.00, 0.00, 0.00, 0.00, 0.02, 0.01, 1.02
38, 0.00, 44079.65, 0.00, 0.00, 0.00, 0.00, 0.00, 0.00, 0.02, 0.01, 1.02
39, 0.00, 44098.20, 0.00, 0.00, 0.00, 0.00, 0.00, 0.00, 0.02, 0.01, 1.02
40, 0.00, 44046.88, 0.00, 0.00, 0.00, 0.00, 0.00, 0.00, 0.02, 0.01, 1.02
41, 0.00, 44030.57, 0.00, 0.00, 0.00, 0.00, 0.00, 0.00, 0.02, 0.01, 1.02
42, 0.00, 44050.13, 0.00, 0.00, 0.00, 0.00, 0.00, 0.00, 0.02, 0.01, 1.02
43, 0.00, 44092.82, 0.00, 0.00, 0.00, 0.00, 0.00, 0.00, 0.02, 0.01, 1.02
44, 0.00, 44101.31, 0.00, 0.00, 0.00, 0.00, 0.00, 0.00, 0.02, 0.01, 1.02
45, 0.00, 44086.82, 0.00, 0.00, 0.00, 0.00, 0.00, 0.00, 0.02, 0.01, 1.02
46, 0.00, 44084.93, 0.00, 0.00, 0.00, 0.00, 0.00, 0.00, 0.02, 0.01, 1.02
47, 0.00, 44120.29, 0.00, 0.00, 0.00, 0.00, 0.00, 0.00, 0.01, 0.01, 1.02
48, 0.00, 44132.69, 0.00, 0.00, 0.00, 0.00, 0.00, 0.00, 0.01, 0.01, 1.02
49, 0.00, 44108.95, 0.00, 0.00, 0.00, 0.00, 0.00, 0.00, 0.01, 0.01, 1.02
50, 0.00, 44087.88, 0.00, 0.00, 0.00, 0.00, 0.00, 0.00, 0.01, 0.01, 1.02
51, 0.00, 44104.13, 0.00, 0.00, 0.00, 0.00, 0.00, 0.00, 0.01, 0.01, 1.02
52, 0.00, 44125.02, 0.00, 0.00, 0.00, 0.00, 0.00, 0.00, 0.01, 0.01, 1.02
53, 0.00, 44107.23, 0.00, 0.00, 0.00, 0.00, 0.00, 0.00, 0.01, 0.01, 1.02
54, 0.00, 44092.55, 0.00, 0.00, 0.00, 0.00, 0.00, 0.00, 0.01, 0.01, 1.02
55, 0.00, 44110.59, 0.00, 0.00, 0.00, 0.00, 0.00, 0.00, 0.01, 0.01, 1.02
56, 0.00, 44122.95, 0.00, 0.00, 0.00, 0.00, 0.00, 0.00, 0.01, 0.01, 1.02
57, 0.00, 44109.38, 0.00, 0.00, 0.00, 0.00, 0.00, 0.00, 0.01, 0.01, 1.02
58, 0.00, 44090.67, 0.00, 0.00, 0.00, 0.00, 0.00, 0.00, 0.01, 0.01, 1.02
59, 0.00, 44092.91, 0.00, 0.00, 0.00, 0.00, 0.00, 0.00, 0.01, 0.01, 1.02
60, 0.00, 44110.96, 0.00, 0.00, 0.00, 0.00, 0.00, 0.00, 0.01, 0.01, 1.02
61, 0.00, 44103.90, 0.00, 0.00, 0.00, 0.00, 0.00, 0.00, 0.01, 0.01, 1.02
62, 0.00, 44078.46, 0.00, 0.00, 0.00, 0.00, 0.00, 0.00, 0.02, 0.00, 1.02
63, 0.00, 44083.74, 0.00, 0.00, 0.00, 0.00, 0.00, 0.00, 0.02, 0.00, 1.02
64, 0.00, 44106.43, 0.00, 0.00, 0.00, 0.00, 0.00, 0.00, 0.02, 0.00, 1.02
65, 0.00, 44105.04, 0.00, 0.00, 0.00, 0.00, 0.00, 0.00, 0.02, 0.00, 1.02
66, 0.00, 44086.04, 0.00, 0.00, 0.00, 0.00, 0.00, 0.00, 0.02, 0.00, 1.02
67, 0.00, 44085.82, 0.00, 0.00, 0.00, 0.00, 0.00, 0.00, 0.01, 0.01, 1.02
68, 0.00, 44114.47, 0.00, 0.00, 0.00, 0.00, 0.00, 0.00, 0.01, 0.01, 1.02
69, 0.00, 44115.68, 0.00, 0.00, 0.00, 0.00, 0.00, 0.00, 0.01, 0.01, 1.02
70, 0.00, 44089.53, 0.00, 0.00, 0.00, 0.00, 0.00, 0.00, 0.01, 0.01, 1.02
71, 0.00, 44083.29, 0.00, 0.00, 0.00, 0.00, 0.00, 0.00, 0.01, 0.01, 1.02
72, 0.00, 44106.50, 0.00, 0.00, 0.00, 0.00, 0.00, 0.00, 0.01, 0.01, 1.02
73, 0.00, 44106.56, 0.00, 0.00, 0.00, 0.00, 0.00, 0.00, 0.01, 0.01, 1.02
74, 0.00, 44087.07, 0.00, 0.00, 0.00, 0.00, 0.00, 0.00, 0.01, 0.01, 1.02
75, 0.00, 44076.07, 0.00, 0.00, 0.00, 0.00, 0.00, 0.00, 0.01, 0.01, 1.02
76, 0.00, 44093.06, 0.00, 0.00, 0.00, 0.00, 0.00, 0.00, 0.01, 0.01, 1.02
77, 0.00, 44103.16, 0.00, 0.00, 0.00, 0.00, 0.00, 0.00, 0.01, 0.01, 1.01
78, 0.00, 44082.29, 0.00, 0.00, 0.00, 0.00, 0.00, 0.00, 0.01, 0.01, 1.01
79, 0.00, 44068.83, 0.00, 0.00, 0.00, 0.00, 0.00, 0.00, 0.01, 0.01, 1.01
80, 0.00, 44083.27, 0.00, 0.00, 0.00, 0.00, 0.00, 0.00, 0.01, 0.01, 1.01
81, 0.00, 44106.09, 0.00, 0.00, 0.00, 0.00, 0.00, 0.00, 0.01, 0.01, 1.01
82, 0.00, 44095.63, 0.00, 0.00, 0.00, 0.00, 0.00, 0.00, 0.01, 0.01, 1.01
83, 0.00, 44075.07, 0.00, 0.00, 0.00, 0.00, 0.00, 0.00, 0.01, 0.01, 1.01
84, 0.00, 44082.64, 0.00, 0.00, 0.00, 0.00, 0.00, 0.00, 0.01, 0.01, 1.01
85, 0.00, 44106.90, 0.00, 0.00, 0.00, 0.00, 0.00, 0.00, 0.01, 0.01, 1.01
86, 0.00, 44098.63, 0.00, 0.00, 0.00, 0.00, 0.00, 0.00, 0.01, 0.01, 1.01
87, 0.00, 44075.61, 0.00, 0.00, 0.00, 0.00, 0.00, 0.00, 0.01, 0.01, 1.01
88, 0.00, 44087.20, 0.00, 0.00, 0.00, 0.00, 0.00, 0.00, 0.01, 0.01, 1.01
89, 0.00, 44127.01, 0.00, 0.00, 0.00, 0.00, 0.00, 0.00, 0.01, 0.01, 1.01
90, 0.00, 44102.92, 0.00, 0.00, 0.00, 0.00, 0.00, 0.00, 0.01, 0.01, 1.01
91, 0.00, 44068.83, 0.00, 0.00, 0.00, 0.00, 0.00, 0.00, 0.01, 0.01, 1.01
92, 0.00, 44077.06, 0.00, 0.00, 0.00, 0.00, 0.00, 0.00, 0.01, 0.01, 1.01
93, 0.00, 44116.13, 0.00, 0.00, 0.00, 0.00, 0.00, 0.00, 0.01, 0.01, 1.01
94, 0.00, 44113.02, 0.00, 0.00, 0.00, 0.00, 0.00, 0.00, 0.01, 0.01, 1.01
95, 0.00, 44093.13, 0.00, 0.00, 0.00, 0.00, 0.00, 0.00, 0.01, 0.01, 1.01
96, 0.00, 44088.52, 0.00, 0.00, 0.00, 0.00, 0.00, 0.00, 0.01, 0.01, 1.01
97, 0.00, 44108.24, 0.00, 0.00, 0.00, 0.00, 0.00, 0.00, 0.00, 0.02, 1.02
98, 0.00, 44119.08, 0.00, 0.00, 0.00, 0.00, 0.00, 0.00, 0.00, 0.02, 1.02
99, 0.00, 44100.68, 0.00, 0.00, 0.00, 0.00, 0.00, 0.00, 0.00, 0.02, 1.02
100, 0.00, 44084.21, 0.00, 0.00, 0.00, 0.00, 0.00, 0.00, 0.00, 0.02, 1.02
101, 0.00, 44097.66, 0.00, 0.00, 0.00, 0.00, 0.00, 0.00, 0.00, 0.02, 1.02
102, 0.00, 44118.25, 0.00, 0.00, 0.00, 0.00, 0.00, 0.00, 0.01, 0.02, 1.02
103, 0.00, 44107.10, 0.00, 0.00, 0.00, 0.00, 0.00, 0.00, 0.01, 0.02, 1.02
104, 0.00, 44090.07, 0.00, 0.00, 0.00, 0.00, 0.00, 0.00, 0.01, 0.02, 1.02
105, 0.00, 44103.03, 0.00, 0.00, 0.00, 0.00, 0.00, 0.00, 0.01, 0.02, 1.02
106, 0.00, 44125.05, 0.00, 0.00, 0.00, 0.00, 0.00, 0.00, 0.01, 0.02, 1.02
107, 0.00, 44119.13, 0.00, 0.00, 0.00, 0.00, 0.00, 0.00, 0.00, 0.01, 1.03
108, 0.00, 44097.66, 0.00, 0.00, 0.00, 0.00, 0.00, 0.00, 0.00, 0.01, 1.03
109, 0.00, 44100.19, 0.00, 0.00, 0.00, 0.00, 0.00, 0.00, 0.00, 0.01, 1.03
110, 0.00, 44125.94, 0.00, 0.00, 0.00, 0.00, 0.00, 0.00, 0.00, 0.01, 1.03
111, 0.00, 44117.87, 0.00, 0.00, 0.00, 0.00, 0.00, 0.00, 0.00, 0.01, 1.03
112, 0.00, 44098.71, 0.00, 0.00, 0.00, 0.00, 0.00, 0.00, 0.01, 0.01, 1.02
113, 0.00, 44100.39, 0.00, 0.00, 0.00, 0.00, 0.00, 0.00, 0.01, 0.01, 1.02
114, 0.00, 44119.17, 0.00, 0.00, 0.00, 0.00, 0.00, 0.00, 0.01, 0.01, 1.02
115, 0.00, 44123.75, 0.00, 0.00, 0.00, 0.00, 0.00, 0.00, 0.01, 0.01, 1.02
116, 0.00, 44106.14, 0.00, 0.00, 0.00, 0.00, 0.00, 0.00, 0.01, 0.01, 1.02
117, 0.00, 44099.50, 0.00, 0.00, 0.00, 0.00, 0.00, 0.00, 0.01, 0.01, 1.01
118, 0.00, 44126.01, 0.00, 0.00, 0.00, 0.00, 0.00, 0.00, 0.01, 0.01, 1.01
119, 0.00, 44136.11, 0.00, 0.00, 0.00, 0.00, 0.00, 0.00, 0.01, 0.01, 1.01
120, 0.00, 44107.46, 0.00, 0.00, 0.00, 0.00, 0.00, 0.00, 0.01, 0.01, 1.01
121, 0.00, 44099.90, 0.00, 0.00, 0.00, 0.00, 0.00, 0.00, 0.01, 0.01, 1.01
122, 0.00, 44126.79, 0.00, 0.00, 0.00, 0.00, 0.00, 0.00, 0.01, 0.01, 1.02
123, 0.00, 44136.56, 0.00, 0.00, 0.00, 0.00, 0.00, 0.00, 0.01, 0.01, 1.02
124, 0.00, 44115.61, 0.00, 0.00, 0.00, 0.00, 0.00, 0.00, 0.01, 0.01, 1.02
125, 0.00, 44100.01, 0.00, 0.00, 0.00, 0.00, 0.00, 0.00, 0.01, 0.01, 1.02
126, 0.00, 44122.52, 0.00, 0.00, 0.00, 0.00, 0.00, 0.00, 0.01, 0.01, 1.02
127, 0.00, 44137.43, 0.00, 0.00, 0.00, 0.00, 0.00, 0.00, 0.01, 0.01, 1.02
128, 0.00, 44119.10, 0.00, 0.00, 0.00, 0.00, 0.00, 0.00, 0.01, 0.01, 1.02
129, 0.00, 44097.06, 0.00, 0.00, 0.00, 0.00, 0.00, 0.00, 0.01, 0.01, 1.02
130, 0.00, 44110.16, 0.00, 0.00, 0.00, 0.00, 0.00, 0.00, 0.01, 0.01, 1.02
131, 0.00, 44133.65, 0.00, 0.00, 0.00, 0.00, 0.00, 0.00, 0.01, 0.01, 1.02
132, 0.00, 44122.21, 0.00, 0.00, 0.00, 0.00, 0.00, 0.00, 0.00, 0.01, 1.03
133, 0.00, 44099.61, 0.00, 0.00, 0.00, 0.00, 0.00, 0.00, 0.00, 0.01, 1.03
134, 0.00, 44106.05, 0.00, 0.00, 0.00, 0.00, 0.00, 0.00, 0.00, 0.01, 1.03
135, 0.00, 44125.45, 0.00, 0.00, 0.00, 0.00, 0.00, 0.00, 0.00, 0.01, 1.03
136, 0.00, 44124.44, 0.00, 0.00, 0.00, 0.00, 0.00, 0.00, 0.00, 0.01, 1.03
137, 0.00, 44096.44, 0.00, 0.00, 0.00, 0.00, 0.00, 0.00, 0.01, 0.01, 1.02
138, 0.00, 44093.87, 0.00, 0.00, 0.00, 0.00, 0.00, 0.00, 0.01, 0.01, 1.02
139, 0.00, 44116.62, 0.00, 0.00, 0.00, 0.00, 0.00, 0.00, 0.01, 0.01, 1.02
140, 0.00, 44119.19, 0.00, 0.00, 0.00, 0.00, 0.00, 0.00, 0.01, 0.01, 1.02
141, 0.00, 44093.06, 0.00, 0.00, 0.00, 0.00, 0.00, 0.00, 0.01, 0.01, 1.02
142, 0.00, 44090.63, 0.00, 0.00, 0.00, 0.00, 0.00, 0.00, 0.01, 0.01, 1.02
143, 0.00, 44114.36, 0.00, 0.00, 0.00, 0.00, 0.00, 0.00, 0.01, 0.01, 1.02
144, 0.00, 44118.92, 0.00, 0.00, 0.00, 0.00, 0.00, 0.00, 0.01, 0.01, 1.02
145, 0.00, 44094.02, 0.00, 0.00, 0.00, 0.00, 0.00, 0.00, 0.01, 0.01, 1.02
146, 0.00, 44084.07, 0.00, 0.00, 0.00, 0.00, 0.00, 0.00, 0.01, 0.01, 1.02
147, 0.00, 44106.05, 0.00, 0.00, 0.00, 0.00, 0.00, 0.00, 0.01, 0.01, 1.02
148, 0.00, 44119.08, 0.00, 0.00, 0.00, 0.00, 0.00, 0.00, 0.01, 0.01, 1.02
149, 0.00, 44100.97, 0.00, 0.00, 0.00, 0.00, 0.00, 0.00, 0.01, 0.01, 1.02
150, 0.00, 44085.68, 0.00, 0.00, 0.00, 0.00, 0.00, 0.00, 0.01, 0.01, 1.02
151, 0.00, 44099.34, 0.00, 0.00, 0.00, 0.00, 0.00, 0.00, 0.01, 0.01, 1.02
152, 0.00, 44116.20, 0.00, 0.00, 0.00, 0.00, 0.00, 0.00, 0.01, 0.01, 1.01
153, 0.00, 44099.21, 0.00, 0.00, 0.00, 0.00, 0.00, 0.00, 0.01, 0.01, 1.01
154, 0.00, 44079.05, 0.00, 0.00, 0.00, 0.00, 0.00, 0.00, 0.01, 0.01, 1.01
155, 0.00, 44091.70, 0.00, 0.00, 0.00, 0.00, 0.00, 0.00, 0.01, 0.01, 1.01
156, 0.00, 44119.04, 0.00, 0.00, 0.00, 0.00, 0.00, 0.00, 0.01, 0.01, 1.01
157, 0.00, 44106.00, 0.00, 0.00, 0.00, 0.00, 0.00, 0.00, 0.01, 0.02, 1.02
158, 0.00, 44081.91, 0.00, 0.00, 0.00, 0.00, 0.00, 0.00, 0.01, 0.02, 1.02
159, 0.00, 44094.63, 0.00, 0.00, 0.00, 0.00, 0.00, 0.00, 0.01, 0.02, 1.02
160, 0.00, 44117.29, 0.00, 0.00, 0.00, 0.00, 0.00, 0.00, 0.01, 0.02, 1.02
161, 0.00, 44117.85, 0.00, 0.00, 0.00, 0.00, 0.00, 0.00, 0.01, 0.02, 1.02
162, 0.00, 44095.16, 0.00, 0.00, 0.00, 0.00, 0.00, 0.00, 0.01, 0.01, 1.02
163, 0.00, 44093.11, 0.00, 0.00, 0.00, 0.00, 0.00, 0.00, 0.01, 0.01, 1.02
164, 0.00, 44112.91, 0.00, 0.00, 0.00, 0.00, 0.00, 0.00, 0.01, 0.01, 1.02
165, 0.00, 44110.18, 0.00, 0.00, 0.00, 0.00, 0.00, 0.00, 0.01, 0.01, 1.02
166, 0.00, 44087.34, 0.00, 0.00, 0.00, 0.00, 0.00, 0.00, 0.01, 0.01, 1.02
167, 0.00, 44083.88, 0.00, 0.00, 0.00, 0.00, 0.00, 0.00, 0.01, 0.01, 1.02
168, 0.00, 44107.30, 0.00, 0.00, 0.00, 0.00, 0.00, 0.00, 0.01, 0.01, 1.02
169, 0.00, 44117.36, 0.00, 0.00, 0.00, 0.00, 0.00, 0.00, 0.01, 0.01, 1.02
170, 0.00, 44097.78, 0.00, 0.00, 0.00, 0.00, 0.00, 0.00, 0.01, 0.01, 1.02
171, 0.00, 44087.32, 0.00, 0.00, 0.00, 0.00, 0.00, 0.00, 0.01, 0.01, 1.02
172, 0.00, 44107.12, 0.00, 0.00, 0.00, 0.00, 0.00, 0.00, 0.01, 0.01, 1.02
173, 0.00, 44117.38, 0.00, 0.00, 0.00, 0.00, 0.00, 0.00, 0.01, 0.01, 1.02
174, 0.00, 44101.06, 0.00, 0.00, 0.00, 0.00, 0.00, 0.00, 0.01, 0.01, 1.02
175, 0.00, 44089.02, 0.00, 0.00, 0.00, 0.00, 0.00, 0.00, 0.01, 0.01, 1.02
176, 0.00, 44105.24, 0.00, 0.00, 0.00, 0.00, 0.00, 0.00, 0.01, 0.01, 1.02
177, 0.00, 44121.14, 0.00, 0.00, 0.00, 0.00, 0.00, 0.00, 0.02, 0.01, 1.01
178, 0.00, 44109.31, 0.00, 0.00, 0.00, 0.00, 0.00, 0.00, 0.02, 0.01, 1.01
179, 0.00, 44088.90, 0.00, 0.00, 0.00, 0.00, 0.00, 0.00, 0.02, 0.01, 1.01
180, 0.00, 44097.73, 0.00, 0.00, 0.00, 0.00, 0.00, 0.00, 0.02, 0.01, 1.01
181, 0.00, 44117.67, 0.00, 0.00, 0.00, 0.00, 0.00, 0.00, 0.02, 0.01, 1.01
182, 0.00, 44112.53, 0.00, 0.00, 0.00, 0.00, 0.00, 0.00, 0.01, 0.01, 1.02
183, 0.00, 44093.31, 0.00, 0.00, 0.00, 0.00, 0.00, 0.00, 0.01, 0.01, 1.02
184, 0.00, 44103.37, 0.00, 0.00, 0.00, 0.00, 0.00, 0.00, 0.01, 0.01, 1.02
185, 0.00, 44133.61, 0.00, 0.00, 0.00, 0.00, 0.00, 0.00, 0.01, 0.01, 1.02
186, 0.00, 44126.79, 0.00, 0.00, 0.00, 0.00, 0.00, 0.00, 0.01, 0.01, 1.02
187, 0.00, 44104.17, 0.00, 0.00, 0.00, 0.00, 0.00, 0.00, 0.01, 0.00, 1.01
188, 0.00, 44101.20, 0.00, 0.00, 0.00, 0.00, 0.00, 0.00, 0.01, 0.00, 1.01
189, 0.00, 44117.56, 0.00, 0.00, 0.00, 0.00, 0.00, 0.00, 0.01, 0.00, 1.01
190, 0.00, 44125.83, 0.00, 0.00, 0.00, 0.00, 0.00, 0.00, 0.01, 0.00, 1.01
191, 0.00, 44104.08, 0.00, 0.00, 0.00, 0.00, 0.00, 0.00, 0.01, 0.00, 1.01
192, 0.00, 44094.56, 0.00, 0.00, 0.00, 0.00, 0.00, 0.00, 0.01, 0.00, 1.01
193, 0.00, 44116.29, 0.00, 0.00, 0.00, 0.00, 0.00, 0.00, 0.01, 0.00, 1.01
194, 0.00, 44126.03, 0.00, 0.00, 0.00, 0.00, 0.00, 0.00, 0.01, 0.00, 1.01
195, 0.00, 44101.13, 0.00, 0.00, 0.00, 0.00, 0.00, 0.00, 0.01, 0.00, 1.01
196, 0.00, 44089.89, 0.00, 0.00, 0.00, 0.00, 0.00, 0.00, 0.01, 0.00, 1.01
197, 0.00, 44112.17, 0.00, 0.00, 0.00, 0.00, 0.00, 0.00, 0.01, 0.00, 1.01
198, 0.00, 44122.75, 0.00, 0.00, 0.00, 0.00, 0.00, 0.00, 0.01, 0.01, 1.02
199, 0.00, 44099.23, 0.00, 0.00, 0.00, 0.00, 0.00, 0.00, 0.01, 0.01, 1.02
200, 0.00, 44082.96, 0.00, 0.00, 0.00, 0.00, 0.00, 0.00, 0.01, 0.01, 1.02
201, 0.00, 44095.16, 0.00, 0.00, 0.00, 0.00, 0.00, 0.00, 0.01, 0.01, 1.02
202, 0.00, 44117.67, 0.00, 0.00, 0.00, 0.00, 0.00, 0.00, 0.01, 0.01, 1.02
203, 0.00, 44105.40, 0.00, 0.00, 0.00, 0.00, 0.00, 0.00, 0.01, 0.01, 1.02
204, 0.00, 44086.38, 0.00, 0.00, 0.00, 0.00, 0.00, 0.00, 0.01, 0.01, 1.02
205, 0.00, 44101.09, 0.00, 0.00, 0.00, 0.00, 0.00, 0.00, 0.01, 0.01, 1.02
206, 0.00, 44121.29, 0.00, 0.00, 0.00, 0.00, 0.00, 0.00, 0.01, 0.01, 1.02
207, 0.00, 44111.55, 0.00, 0.00, 0.00, 0.00, 0.00, 0.00, 0.01, 0.01, 1.02
208, 0.00, 44089.39, 0.00, 0.00, 0.00, 0.00, 0.00, 0.00, -0.00, 0.01, 1.01
209, 0.00, 44094.40, 0.00, 0.00, 0.00, 0.00, 0.00, 0.00, -0.00, 0.01, 1.01
210, 0.00, 44117.54, 0.00, 0.00, 0.00, 0.00, 0.00, 0.00, -0.00, 0.01, 1.01
211, 0.00, 44116.55, 0.00, 0.00, 0.00, 0.00, 0.00, 0.00, -0.00, 0.01, 1.01
212, 0.00, 44094.36, 0.00, 0.00, 0.00, 0.00, 0.00, 0.00, -0.00, 0.01, 1.01
213, 0.00, 44095.72, 0.00, 0.00, 0.00, 0.00, 0.00, 0.00, 0.02, 0.01, 1.01
214, 0.00, 44123.97, 0.00, 0.00, 0.00, 0.00, 0.00, 0.00, 0.02, 0.01, 1.01
215, 0.00, 44127.01, 0.00, 0.00, 0.00, 0.00, 0.00, 0.00, 0.02, 0.01, 1.01
216, 0.00, 44100.21, 0.00, 0.00, 0.00, 0.00, 0.00, 0.00, 0.02, 0.01, 1.01
217, 0.00, 44095.32, 0.00, 0.00, 0.00, 0.00, 0.00, 0.00, 0.02, 0.01, 1.01
218, 0.00, 44121.96, 0.00, 0.00, 0.00, 0.00, 0.00, 0.00, 0.01, 0.01, 1.02
219, 0.00, 44126.37, 0.00, 0.00, 0.00, 0.00, 0.00, 0.00, 0.01, 0.01, 1.02
220, 0.00, 44103.59, 0.00, 0.00, 0.00, 0.00, 0.00, 0.00, 0.01, 0.01, 1.02
221, 0.00, 44092.55, 0.00, 0.00, 0.00, 0.00, 0.00, 0.00, 0.01, 0.01, 1.02
222, 0.00, 44112.86, 0.00, 0.00, 0.00, 0.00, 0.00, 0.00, 0.01, 0.01, 1.02
223, 0.00, 44123.55, 0.00, 0.00, 0.00, 0.00, 0.00, 0.00, 0.02, 0.01, 1.02
224, 0.00, 44100.26, 0.00, 0.00, 0.00, 0.00, 0.00, 0.00, 0.02, 0.01, 1.02
225, 0.00, 44087.79, 0.00, 0.00, 0.00, 0.00, 0.00, 0.00, 0.02, 0.01, 1.02
226, 0.00, 44103.19, 0.00, 0.00, 0.00, 0.00, 0.00, 0.00, 0.02, 0.01, 1.02
227, 0.00, 44125.61, 0.00, 0.00, 0.00, 0.00, 0.00, 0.00, 0.02, 0.01, 1.02
228, 0.00, 44110.90, 0.00, 0.00, 0.00, 0.00, 0.00, 0.00, 0.01, 0.01, 1.03
229, 0.00, 44093.13, 0.00, 0.00, 0.00, 0.00, 0.00, 0.00, 0.01, 0.01, 1.03
230, 0.00, 44107.43, 0.00, 0.00, 0.00, 0.00, 0.00, 0.00, 0.01, 0.01, 1.03
231, 0.00, 44121.14, 0.00, 0.00, 0.00, 0.00, 0.00, 0.00, 0.01, 0.01, 1.03
232, 0.00, 44113.18, 0.00, 0.00, 0.00, 0.00, 0.00, 0.00, 0.01, 0.01, 1.03
233, 0.00, 44087.88, 0.00, 0.00, 0.00, 0.00, 0.00, 0.00, 0.02, 0.01, 1.03
234, 0.00, 44090.69, 0.00, 0.00, 0.00, 0.00, 0.00, 0.00, 0.02, 0.01, 1.03
235, 0.00, 44114.38, 0.00, 0.00, 0.00, 0.00, 0.00, 0.00, 0.02, 0.01, 1.03
236, 0.00, 44108.57, 0.00, 0.00, 0.00, 0.00, 0.00, 0.00, 0.02, 0.01, 1.03
237, 0.00, 44083.02, 0.00, 0.00, 0.00, 0.00, 0.00, 0.00, 0.02, 0.01, 1.03
238, 0.00, 44086.38, 0.00, 0.00, 0.00, 0.00, 0.00, 0.00, 0.02, 0.01, 1.03
239, 0.00, 44117.60, 0.00, 0.00, 0.00, 0.00, 0.00, 0.00, 0.02, 0.01, 1.03
240, 0.00, 44128.38, 0.00, 0.00, 0.00, 0.00, 0.00, 0.00, 0.02, 0.01, 1.03
241, 0.00, 44104.35, 0.00, 0.00, 0.00, 0.00, 0.00, 0.00, 0.02, 0.01, 1.03
242, 0.00, 44094.83, 0.00, 0.00, 0.00, 0.00, 0.00, 0.00, 0.02, 0.01, 1.03
243, 0.00, 44113.47, 0.00, 0.00, 0.00, 0.00, 0.00, 0.00, 0.01, 0.01, 1.02
244, 0.00, 44118.81, 0.00, 0.00, 0.00, 0.00, 0.00, 0.00, 0.01, 0.01, 1.02
245, 0.00, 44099.72, 0.00, 0.00, 0.00, 0.00, 0.00, 0.00, 0.01, 0.01, 1.02
246, 0.00, 44096.55, 0.00, 0.00, 0.00, 0.00, 0.00, 0.00, 0.01, 0.01, 1.02
247, 0.00, 44113.76, 0.00, 0.00, 0.00, 0.00, 0.00, 0.00, 0.01, 0.01, 1.02
248, 0.00, 44131.98, 0.00, 0.00, 0.00, 0.00, 0.00, 0.00, 0.01, 0.01, 1.02
249, 0.00, 44113.91, 0.00, 0.00, 0.00, 0.00, 0.00, 0.00, 0.01, 0.01, 1.02
250, 0.00, 44091.45, 0.00, 0.00, 0.00, 0.00, 0.00, 0.00, 0.01, 0.01, 1.02
251, 0.00, 44109.91, 0.00, 0.00, 0.00, 0.00, 0.00, 0.00, 0.01, 0.01, 1.02
252, 0.00, 44130.39, 0.00, 0.00, 0.00, 0.00, 0.00, 0.00, 0.01, 0.01, 1.02
253, 0.00, 44116.71, 0.00, 0.00, 0.00, 0.00, 0.00, 0.00, 0.01, 0.02, 1.02
254, 0.00, 44091.74, 0.00, 0.00, 0.00, 0.00, 0.00, 0.00, 0.01, 0.02, 1.02
255, 0.00, 44098.40, 0.00, 0.00, 0.00, 0.00, 0.00, 0.00, 0.01, 0.02, 1.02
0, 0.00, 44121.63, 0.00, 0.00, 0.00, 0.00, 0.00, 0.00, 0.01, 0.02, 1.02
1, 0.00, 44110.47, 0.00, 0.00, 0.00, 0.00, 0.00, 0.00, 0.01, 0.02, 1.02
2, 0.00, 44088.97, 0.00, 0.00, 0.00, 0.00, 0.00, 0.00, 0.01, 0.01, 1.02
3, 0.00, 44098.25, 0.00, 0.00, 0.00, 0.00, 0.00, 0.00, 0.01, 0.01, 1.02
4, 0.00, 44125.23, 0.00, 0.00, 0.00, 0.00, 0.00, 0.00, 0.01, 0.01, 1.02
5, 0.00, 44120.58, 0.00, 0.00, 0.00, 0.00, 0.00, 0.00, 0.01, 0.01, 1.02
6, 0.00, 44092.17, 0.00, 0.00, 0.00, 0.00, 0.00, 0.00, 0.01, 0.01, 1.02
7, 0.00, 44090.91, 0.00, 0.00, 0.00, 0.00, 0.00, 0.00, 0.00, 0.01, 1.02
8, 0.00, 44120.40, 0.00, 0.00, 0.00, 0.00, 0.00, 0.00, 0.00, 0.01, 1.02
9, 0.00, 44131.89, 0.00, 0.00, 0.00, 0.00, 0.00, 0.00, 0.00, 0.01, 1.02
10, 0.00, 44091.63, 0.00, 0.00, 0.00, 0.00, 0.00, 0.00, 0.00, 0.01, 1.02
11, 0.00, 44070.98, 0.00, 0.00, 0.00, 0.00, 0.00, 0.00, 0.00, 0.01, 1.02
12, 0.00, 44097.84, 0.00, 0.00, 0.00, 0.00, 0.00, 0.00, 0.01, 0.01, 1.02
13, 0.00, 44112.24, 0.00, 0.00, 0.00, 0.00, 0.00, 0.00, 0.01, 0.01, 1.02
14, 0.00, 44094.29, 0.00, 0.00, 0.00, 0.00, 0.00, 0.00, 0.01, 0.01, 1.02
15, 0.00, 44081.41, 0.00, 0.00, 0.00, 0.00, 0.00, 0.00, 0.01, 0.01, 1.02
16, 0.00, 44098.27, 0.00, 0.00, 0.00, 0.00, 0.00, 0.00, 0.01, 0.01, 1.02
17, 0.00, 44115.66, 0.00, 0.00, 0.00, 0.00, 0.00, 0.00, 0.01, 0.01, 1.01
18, 0.00, 44099.86, 0.00, 0.00, 0.00, 0.00, 0.00, 0.00, 0.01, 0.01, 1.01
19, 0.00, 44079.18, 0.00, 0.00, 0.00, 0.00, 0.00, 0.00, 0.01, 0.01, 1.01
20, 0.00, 44090.69, 0.00, 0.00, 0.00, 0.00, 0.00, 0.00, 0.01, 0.01, 1.01
21, 0.00, 44115.21, 0.00, 0.00, 0.00, 0.00, 0.00, 0.00, 0.01, 0.01, 1.01
22, 0.00, 44105.09, 0.00, 0.00, 0.00, 0.00, 0.00, 0.00, 0.01, 0.01, 1.02
23, 0.00, 44090.58, 0.00, 0.00, 0.00, 0.00, 0.00, 0.00, 0.01, 0.01, 1.02
24, 0.00, 44093.64, 0.00, 0.00, 0.00, 0.00, 0.00, 0.00, 0.01, 0.01, 1.02
25, 0.00, 44110.56, 0.00, 0.00, 0.00, 0.00, 0.00, 0.00, 0.01, 0.01, 1.02
26, 0.00, 44105.38, 0.00, 0.00, 0.00, 0.00, 0.00, 0.00, 0.01, 0.01, 1.02
27, 0.00, 44081.13, 0.00, 0.00, 0.00, 0.00, 0.00, 0.00, 0.02, 0.01, 1.03
28, 0.00, 44084.32, 0.00, 0.00, 0.00, 0.00, 0.00, 0.00, 0.02, 0.01, 1.03
29, 0.00, 44109.29, 0.00, 0.00, 0.00, 0.00, 0.00, 0.00, 0.02, 0.01, 1.03
30, 0.00, 44108.80, 0.00, 0.00, 0.00, 0.00, 0.00, 0.00, 0.02, 0.01, 1.03
31, 0.00, 44089.46, 0.00, 0.00, 0.00, 0.00, 0.00, 0.00, 0.02, 0.01, 1.03
32, 0.00, 44083.83, 0.00, 0.00, 0.00, 0.00, 0.00, 0.00, 0.01, 0.01, 1.02
33, 0.00, 44107.28, 0.00, 0.00, 0.00, 0.00, 0.00, 0.00, 0.01, 0.01, 1.02
34, 0.00, 44118.07, 0.00, 0.00, 0.00, 0.00, 0.00, 0.00, 0.01, 0.01, 1.02
35, 0.00, 44098.76, 0.00, 0.00, 0.00, 0.00, 0.00, 0.00, 0.01, 0.01, 1.02
36, 0.00, 44083.59, 0.00, 0.00, 0.00, 0.00, 0.00, 0.00, 0.01, 0.01, 1.02
37, 0.00, 44102.67, 0.00, 0.00, 0.00, 0.00, 0.00, 0.00, 0.01, 0.02, 1.02
38, 0.00, 44113.54, 0.00, 0.00, 0.00, 0.00, 0.00, 0.00, 0.01, 0.02, 1.02
39, 0.00, 44095.32, 0.00, 0.00, 0.00, 0.00, 0.00, 0.00, 0.01, 0.02, 1.02
40, 0.00, 44080.79, 0.00, 0.00, 0.00, 0.00, 0.00, 0.00, 0.01, 0.02, 1.02
41, 0.00, 44094.56, 0.00, 0.00, 0.00, 0.00, 0.00, 0.00, 0.01, 0.02, 1.02
42, 0.00, 44110.45, 0.00, 0.00, 0.00, 0.00, 0.00, 0.00, 0.01, 0.01, 1.02
43, 0.00, 44095.48, 0.00, 0.00, 0.00, 0.00, 0.00, 0.00, 0.01, 0.01, 1.02
44, 0.00, 44079.58, 0.00, 0.00, 0.00, 0.00, 0.00, 0.00, 0.01, 0.01, 1.02
45, 0.00, 44092.55, 0.00, 0.00, 0.00, 0.00, 0.00, 0.00, 0.01, 0.01, 1.02
46, 0.00, 44111.64, 0.00, 0.00, 0.00, 0.00, 0.00, 0.00, 0.01, 0.01, 1.02
47, 0.00, 44100.53, 0.00, 0.00, 0.00, 0.00, 0.00, 0.00, 0.01, 0.01, 1.02
48, 0.00, 44083.43, 0.00, 0.00, 0.00, 0.00, 0.00, 0.00, 0.01, 0.01, 1.02
49, 0.00, 44089.57, 0.00, 0.00, 0.00, 0.00, 0.00, 0.00, 0.01, 0.01, 1.02
50, 0.00, 44109.56, 0.00, 0.00, 0.00, 0.00, 0.00, 0.00, 0.01, 0.01, 1.02
51, 0.00, 44105.27, 0.00, 0.00, 0.00, 0.00, 0.00, 0.00, 0.01, 0.01, 1.02
52, 0.00, 44082.42, 0.00, 0.00, 0.00, 0.00, 0.00, 0.00, 0.01, 0.01, 1.02
53, 0.00, 44085.98, 0.00, 0.00, 0.00, 0.00, 0.00, 0.00, 0.01, 0.01, 1.02
54, 0.00, 44112.42, 0.00, 0.00, 0.00, 0.00, 0.00, 0.00, 0.01, 0.01, 1.02
55, 0.00, 44111.59, 0.00, 0.00, 0.00, 0.00, 0.00, 0.00, 0.01, 0.01, 1.02
56, 0.00, 44088.21, 0.00, 0.00, 0.00, 0.00, 0.00, 0.00, 0.01, 0.01, 1.02
57, 0.00, 44080.01, 0.00, 0.00, 0.00, 0.00, 0.00, 0.00, 0.01, 0.01, 1.02
58, 0.00, 44106.43, 0.00, 0.00, 0.00, 0.00, 0.00, 0.00, 0.01, 0.01, 1.02
59, 0.00, 44114.65, 0.00, 0.00, 0.00, 0.00, 0.00, 0.00, 0.01, 0.01, 1.02
60, 0.00, 44090.04, 0.00, 0.00, 0.00, 0.00, 0.00, 0.00, 0.01, 0.01, 1.02
61, 0.00, 44083.99, 0.00, 0.00, 0.00, 0.00, 0.00, 0.00, 0.01, 0.01, 1.02
62, 0.00, 44099.83, 0.00, 0.00, 0.00, 0.00, 0.00, 0.00, 0.01, 0.01, 1.02
63, 0.00, 44109.60, 0.00, 0.00, 0.00, 0.00, 0.00, 0.00, 0.01, 0.01, 1.02
64, 0.00, 44089.95, 0.00, 0.00, 0.00, 0.00, 0.00, 0.00, 0.01, 0.01, 1.02
65, 0.00, 44079.45, 0.00, 0.00, 0.00, 0.00, 0.00, 0.00, 0.01, 0.01, 1.02
66, 0.00, 44094.94, 0.00, 0.00, 0.00, 0.00, 0.00, 0.00, 0.01, 0.01, 1.02
67, 0.00, 44116.93, 0.00, 0.00, 0.00, 0.00, 0.00, 0.00, 0.01, 0.01, 1.01
68, 0.00, 44101.33, 0.00, 0.00, 0.00, 0.00, 0.00, 0.00, 0.01, 0.01, 1.01
69, 0.00, 44079.54, 0.00, 0.00, 0.00, 0.00, 0.00, 0.00, 0.01, 0.01, 1.01
70, 0.00, 44094.54, 0.00, 0.00, 0.00, 0.00, 0.00, 0.00, 0.01, 0.01, 1.01
71, 0.00, 44115.73, 0.00, 0.00, 0.00, 0.00, 0.00, 0.00, 0.01, 0.01, 1.01
72, 0.00, 44103.63, 0.00, 0.00, 0.00, 0.00, 0.00, 0.00, 0.01, 0.02, 1.02
73, 0.00, 44085.66, 0.00, 0.00, 0.00, 0.00, 0.00, 0.00, 0.01, 0.02, 1.02
74, 0.00, 44087.65, 0.00, 0.00, 0.00, 0.00, 0.00, 0.00, 0.01, 0.02, 1.02
75, 0.00, 44110.14, 0.00, 0.00, 0.00, 0.00, 0.00, 0.00, 0.01, 0.02, 1.02
76, 0.00, 44105.42, 0.00, 0.00, 0.00, 0.00, 0.00, 0.00, 0.01, 0.02, 1.02
77, 0.00, 44080.16, 0.00, 0.00, 0.00, 0.00, 0.00, 0.00, 0.01, 0.02, 1.01
78, 0.00, 44078.51, 0.00, 0.00, 0.00, 0.00, 0.00, 0.00, 0.01, 0.02, 1.01
79, 0.00, 44099.32, 0.00, 0.00, 0.00, 0.00, 0.00, 0.00, 0.01, 0.02, 1.01
80, 0.00, 44098.09, 0.00, 0.00, 0.00, 0.00, 0.00, 0.00, 0.01, 0.02, 1.01
81, 0.00, 44075.87, 0.00, 0.00, 0.00, 0.00, 0.00, 0.00, 0.01, 0.02, 1.01
82, 0.00, 44077.32, 0.00, 0.00, 0.00, 0.00, 0.00, 0.00, 0.01, 0.02, 1.02
83, 0.00, 44101.40, 0.00, 0.00, 0.00, 0.00, 0.00, 0.00, 0.01, 0.02, 1.02
84, 0.00, 44106.09, 0.00, 0.00, 0.00, 0.00, 0.00, 0.00, 0.01, 0.02, 1.02
85, 0.00, 44081.04, 0.00, 0.00, 0.00, 0.00, 0.00, 0.00, 0.01, 0.02, 1.02
86, 0.00, 44066.71, 0.00, 0.00, 0.00, 0.00, 0.00, 0.00, 0.01, 0.02, 1.02
87, 0.00, 44086.87, 0.00, 0.00, 0.00, 0.00, 0.00, 0.00, 0.01, 0.01, 1.02
88, 0.00, 44101.55, 0.00, 0.00, 0.00, 0.00, 0.00, 0.00, 0.01, 0.01, 1.02
89, 0.00, 44087.52, 0.00, 0.00, 0.00, 0.00, 0.00, 0.00, 0.01, 0.01, 1.02
90, 0.00, 44075.61, 0.00, 0.00, 0.00, 0.00, 0.00, 0.00, 0.01, 0.01, 1.02
91, 0.00, 44090.40, 0.00, 0.00, 0.00, 0.00, 0.00, 0.00, 0.01, 0.01, 1.02
92, 0.00, 44108.06, 0.00, 0.00, 0.00, 0.00, 0.00, 0.00, 0.01, 0.01, 1.02
93, 0.00, 44110.41, 0.00, 0.00, 0.00, 0.00, 0.00, 0.00, 0.01, 0.01, 1.02
94, 0.00, 44096.14, 0.00, 0.00, 0.00, 0.00, 0.00, 0.00, 0.01, 0.01, 1.02
95, 0.00, 44075.80, 0.00, 0.00, 0.00, 0.00, 0.00, 0.00, 0.01, 0.01, 1.02
96, 0.00, 44082.98, 0.00, 0.00, 0.00, 0.00, 0.00, 0.00, 0.01, 0.01, 1.02
97, 0.00, 44070.57, 0.00, 0.00, 0.00, 0.00, 0.00, 0.00, 0.01, 0.01, 1.02
98, 0.00, 44035.66, 0.00, 0.00, 0.00, 0.00, 0.00, 0.00, 0.01, 0.01, 1.02
99, 0.00, 44035.42, 0.00, 0.00, 0.00, 0.00, 0.00, 0.00, 0.01, 0.01, 1.02
100, 0.00, 44033.11, 0.00, 0.00, 0.00, 0.00, 0.00, 0.00, 0.01, 0.01, 1.02
101, 0.00, 44013.06, 0.00, 0.00, 0.00, 0.00, 0.00, 0.00, 0.01, 0.01, 1.02
102, 0.00, 43981.10, 0.00, 0.00, 0.00, 0.00, 0.00, 0.00, 0.01, 0.01, 1.01
103, 0.00, 43972.56, 0.00, 0.00, 0.00, 0.00, 0.00, 0.00, 0.01, 0.01, 1.01
104, 0.00, 43986.96, 0.00, 0.00, 0.00, 0.00, 0.00, 0.00, 0.01, 0.01, 1.01
105, 0.00, 43983.52, 0.00, 0.00, 0.00, 0.00, 0.00, 0.00, 0.01, 0.01, 1.01
106, 0.00, 43969.03, 0.00, 0.00, 0.00, 0.00, 0.00, 0.00, 0.01, 0.01, 1.01
107, 0.00, 43959.09, 0.00, 0.00, 0.00, 0.00, 0.00, 0.00, 0.01, 0.02, 1.01
108, 0.00, 43980.79, 0.00, 0.00, 0.00, 0.00, 0.00, 0.00, 0.01, 0.02, 1.01
109, 0.00, 43990.42, 0.00, 0.00, 0.00, 0.00, 0.00, 0.00, 0.01, 0.02, 1.01
110, 0.00, 43970.42, 0.00, 0.00, 0.00, 0.00, 0.00, 0.00, 0.01, 0.02, 1.01
111, 0.00, 43964.16, 0.00, 0.00, 0.00, 0.00, 0.00, 0.00, 0.01, 0.02, 1.01
112, 0.00, 43993.51, 0.00, 0.00, 0.00, 0.00, 0.00, 0.00, 0.01, 0.01, 1.02
113, 0.00, 44017.94, 0.00, 0.00, 0.00, 0.00, 0.00, 0.00, 0.01, 0.01, 1.02
114, 0.00, 43997.82, 0.00, 0.00, 0.00, 0.00, 0.00, 0.00, 0.01, 0.01, 1.02
115, 0.00, 43977.37, 0.00, 0.00, 0.00, 0.00, 0.00, 0.00, 0.01, 0.01, 1.02
116, 0.00, 43993.17, 0.00, 0.00, 0.00, 0.00, 0.00, 0.00, 0.01, 0.01, 1.02
117, 0.00, 44015.30, 0.00, 0.00, 0.00, 0.00, 0.00, 0.00, 0.01, 0.01, 1.02
118, 0.00, 44000.77, 0.00, 0.00, 0.00, 0.00, 0.00, 0.00, 0.01, 0.01, 1.02
119, 0.00, 43987.47, 0.00, 0.00, 0.00, 0.00, 0.00, 0.00, 0.01, 0.01, 1.02
120, 0.00, 44000.17, 0.00, 0.00, 0.00, 0.00, 0.00, 0.00, 0.01, 0.01, 1.02
121, 0.00, 44016.17, 0.00, 0.00, 0.00, 0.00, 0.00, 0.00, 0.01, 0.01, 1.02
122, 0.00, 44011.66, 0.00, 0.00, 0.00, 0.00, 0.00, 0.00, 0.01, 0.01, 1.02
123, 0.00, 43995.16, 0.00, 0.00, 0.00, 0.00, 0.00, 0.00, 0.01, 0.01, 1.02
124, 0.00, 44012.35, 0.00, 0.00, 0.00, 0.00, 0.00, 0.00, 0.01, 0.01, 1.02
125, 0.00, 44063.98, 0.00, 0.00, 0.00, 0.00, 0.00, 0.00, 0.01, 0.01, 1.02
126, 0.00, 44037.34, 0.00, 0.00, 0.00, 0.00, 0.00, 0.00, 0.01, 0.01, 1.02
127, 0.00, 43983.09, 0.00, 0.00, 0.00, 0.00, 0.00, 0.00, 0.01, 0.01, 1.02
128, 0.00, 43991.34, 0.00, 0.00, 0.00, 0.00, 0.00, 0.00, 0.01, 0.01, 1.02
129, 0.00, 44038.66, 0.00, 0.00, 0.00, 0.00, 0.00, 0.00, 0.01, 0.01, 1.02
130, 0.00, 44043.17, 0.00, 0.00, 0.00, 0.00, 0.00, 0.00, 0.01, 0.01, 1.02
131, 0.00, 44034.68, 0.00, 0.00, 0.00, 0.00, 0.00, 0.00, 0.01, 0.01, 1.02
132, 0.00, 44025.96, 0.00, 0.00, 0.00, 0.00, 0.00, 0.00, 0.02, 0.01, 1.01
133, 0.00, 44056.92, 0.00, 0.00, 0.00, 0.00, 0.00, 0.00, 0.02, 0.01, 1.01
134, 0.00, 44065.66, 0.00, 0.00, 0.00, 0.00, 0.00, 0.00, 0.02, 0.01, 1.01
135, 0.00, 44054.88, 0.00, 0.00, 0.00, 0.00, 0.00, 0.00, 0.02, 0.01, 1.01
136, 0.00, 44046.21, 0.00, 0.00, 0.00, 0.00, 0.00, 0.00, 0.02, 0.01, 1.01
137, 0.00, 44065.48, 0.00, 0.00, 0.00, 0.00, 0.00, 0.00, 0.01, 0.01, 1.02
138, 0.00, 44067.67, 0.00, 0.00, 0.00, 0.00, 0.00, 0.00, 0.01, 0.01, 1.02
139, 0.00, 44041.74, 0.00, 0.00, 0.00, 0.00, 0.00, 0.00, 0.01, 0.01, 1.02
140, 0.00, 44031.46, 0.00, 0.00, 0.00, 0.00, 0.00, 0.00, 0.01, 0.01, 1.02
141, 0.00, 44053.10, 0.00, 0.00, 0.00, 0.00, 0.00, 0.00, 0.01, 0.01, 1.02
142, 0.00, 44075.87, 0.00, 0.00, 0.00, 0.00, 0.00, 0.00, 0.00, 0.01, 1.02
143, 0.00, 44061.61, 0.00, 0.00, 0.00, 0.00, 0.00, 0.00, 0.00, 0.01, 1.02
144, 0.00, 44040.07, 0.00, 0.00, 0.00, 0.00, 0.00, 0.00, 0.00, 0.01, 1.02
145, 0.00, 44049.36, 0.00, 0.00, 0.00, 0.00, 0.00, 0.00, 0.00, 0.01, 1.02
146, 0.00, 44076.66, 0.00, 0.00, 0.00, 0.00, 0.00, 0.00, 0.00, 0.01, 1.02
147, 0.00, 44071.34, 0.00, 0.00, 0.00, 0.00, 0.00, 0.00, 0.01, 0.01, 1.01
148, 0.00, 44049.05, 0.00, 0.00, 0.00, 0.00, 0.00, 0.00, 0.01, 0.01, 1.01
149, 0.00, 44054.68, 0.00, 0.00, 0.00, 0.00, 0.00, 0.00, 0.01, 0.01, 1.01
150, 0.00, 44077.95, 0.00, 0.00, 0.00, 0.00, 0.00, 0.00, 0.01, 0.01, 1.01
151, 0.00, 44076.81, 0.00, 0.00, 0.00, 0.00, 0.00, 0.00, 0.01, 0.01, 1.01
152, 0.00, 44054.10, 0.00, 0.00, 0.00, 0.00, 0.00, 0.00, 0.01, 0.01, 1.02
153, 0.00, 44056.81, 0.00, 0.00, 0.00, 0.00, 0.00, 0.00, 0.01, 0.01, 1.02
154, 0.00, 44080.86, 0.00, 0.00, 0.00, 0.00, 0.00, 0.00, 0.01, 0.01, 1.02
155, 0.00, 44073.93, 0.00, 0.00, 0.00, 0.00, 0.00, 0.00, 0.01, 0.01, 1.02
156, 0.00, 44051.91, 0.00, 0.00, 0.00, 0.00, 0.00, 0.00, 0.01, 0.01, 1.02
157, 0.00, 44047.48, 0.00, 0.00, 0.00, 0.00, 0.00, 0.00, 0.01, 0.01, 1.02
158, 0.00, 44067.09, 0.00, 0.00, 0.00, 0.00, 0.00, 0.00, 0.01, 0.01, 1.02
159, 0.00, 44082.09, 0.00, 0.00, 0.00, 0.00, 0.00, 0.00, 0.01, 0.01, 1.02
160, 0.00, 44060.61, 0.00, 0.00, 0.00, 0.00, 0.00, 0.00, 0.01, 0.01, 1.02
161, 0.00, 44044.09, 0.00, 0.00, 0.00, 0.00, 0.00, 0.00, 0.01, 0.01, 1.02
162, 0.00, 44062.28, 0.00, 0.00, 0.00, 0.00, 0.00, 0.00, 0.01, 0.02, 1.01
163, 0.00, 44077.77, 0.00, 0.00, 0.00, 0.00, 0.00, 0.00, 0.01, 0.02, 1.01
164, 0.00, 44060.54, 0.00, 0.00, 0.00, 0.00, 0.00, 0.00, 0.01, 0.02, 1.01
165, 0.00, 44040.16, 0.00, 0.00, 0.00, 0.00, 0.00, 0.00, 0.01, 0.02, 1.01
166, 0.00, 44051.89, 0.00, 0.00, 0.00, 0.00, 0.00, 0.00, 0.01, 0.02, 1.01
167, 0.00, 44074.91, 0.00, 0.00, 0.00, 0.00, 0.00, 0.00, 0.01, 0.01, 1.01
168, 0.00, 44064.07, 0.00, 0.00, 0.00, 0.00, 0.00, 0.00, 0.01, 0.01, 1.01
169, 0.00, 44034.03, 0.00, 0.00, 0.00, 0.00, 0.00, 0.00, 0.01, 0.01, 1.01
170, 0.00, 44043.80, 0.00, 0.00, 0.00, 0.00, 0.00, 0.00, 0.01, 0.01, 1.01
171, 0.00, 44073.19, 0.00, 0.00, 0.00, 0.00, 0.00, 0.00, 0.01, 0.01, 1.01
172, 0.00, 44061.61, 0.00, 0.00, 0.00, 0.00, 0.00, 0.00, 0.01, 0.01, 1.01
173, 0.00, 44038.10, 0.00, 0.00, 0.00, 0.00, 0.00, 0.00, 0.01, 0.01, 1.01
174, 0.00, 44043.98, 0.00, 0.00, 0.00, 0.00, 0.00, 0.00, 0.01, 0.01, 1.01
175, 0.00, 44072.00, 0.00, 0.00, 0.00, 0.00, 0.00, 0.00, 0.01, 0.01, 1.01
176, 0.00, 44072.70, 0.00, 0.00, 0.00, 0.00, 0.00, 0.00, 0.01, 0.01, 1.01
177, 0.00, 44051.15, 0.00, 0.00, 0.00, 0.00, 0.00, 0.00, 0.01, 0.01, 1.01
178, 0.00, 44050.35, 0.00, 0.00, 0.00, 0.00, 0.00, 0.00, 0.01, 0.01, 1.01
179, 0.00, 44075.14, 0.00, 0.00, 0.00, 0.00, 0.00, 0.00, 0.01, 0.01, 1.01
180, 0.00, 44082.71, 0.00, 0.00, 0.00, 0.00, 0.00, 0.00, 0.01, 0.01, 1.01
181, 0.00, 44063.71, 0.00, 0.00, 0.00, 0.00, 0.00, 0.00, 0.01, 0.01, 1.01
182, 0.00, 44054.97, 0.00, 0.00, 0.00, 0.00, 0.00, 0.00, 0.01, 0.01, 1.01
183, 0.00, 44078.13, 0.00, 0.00, 0.00, 0.00, 0.00, 0.00, 0.01, 0.02, 1.01
184, 0.00, 44093.35, 0.00, 0.00, 0.00, 0.00, 0.00, 0.00, 0.01, 0.02, 1.01
185, 0.00, 44094.98, 0.00, 0.00, 0.00, 0.00, 0.00, 0.00, 0.01, 0.02, 1.01
186, 0.00, 44076.30, 0.00, 0.00, 0.00, 0.00, 0.00, 0.00, 0.01, 0.02, 1.01
187, 0.00, 44058.59, 0.00, 0.00, 0.00, 0.00, 0.00, 0.00, 0.01, 0.02, 1.01
188, 0.00, 44081.35, 0.00, 0.00, 0.00, 0.00, 0.00, 0.00, 0.01, 0.02, 1.02
189, 0.00, 44092.19, 0.00, 0.00, 0.00, 0.00, 0.00, 0.00, 0.01, 0.02, 1.02
190, 0.00, 44079.05, 0.00, 0.00, 0.00, 0.00, 0.00, 0.00, 0.01, 0.02, 1.02
191, 0.00, 44082.09, 0.00, 0.00, 0.00, 0.00, 0.00, 0.00, 0.01, 0.02, 1.02
192, 0.00, 44096.93, 0.00, 0.00, 0.00, 0.00, 0.00, 0.00, 0.01, 0.02, 1.02
193, 0.00, 44085.57, 0.00, 0.00, 0.00, 0.00, 0.00, 0.00, 0.01, 0.02, 1.02
194, 0.00, 44068.18, 0.00, 0.00, 0.00, 0.00, 0.00, 0.00, 0.01, 0.02, 1.02
195, 0.00, 44073.46, 0.00, 0.00, 0.00, 0.00, 0.00, 0.00, 0.01, 0.02, 1.02
196, 0.00, 44097.53, 0.00, 0.00, 0.00, 0.00, 0.00, 0.00, 0.01, 0.02, 1.02
197, 0.00, 44092.14, 0.00, 0.00, 0.00, 0.00, 0.00, 0.00, 0.01, 0.02, 1.02
198, 0.00, 44066.11, 0.00, 0.00, 0.00, 0.00, 0.00, 0.00, 0.00, 0.02, 1.01
199, 0.00, 44066.33, 0.00, 0.00, 0.00, 0.00, 0.00, 0.00, 0.00, 0.02, 1.01
200, 0.00, 44095.25, 0.00, 0.00, 0.00, 0.00, 0.00, 0.00, 0.00, 0.02, 1.01
201, 0.00, 44095.03, 0.00, 0.00, 0.00, 0.00, 0.00, 0.00, 0.00, 0.02, 1.01
202, 0.00, 44075.58, 0.00, 0.00, 0.00, 0.00, 0.00, 0.00, 0.00, 0.02, 1.01
203, 0.00, 44071.34, 0.00, 0.00, 0.00, 0.00, 0.00, 0.00, 0.01, 0.01, 1.01
204, 0.00, 44092.88, 0.00, 0.00, 0.00, 0.00, 0.00, 0.00, 0.01, 0.01, 1.01
205, 0.00, 44100.15, 0.00, 0.00, 0.00, 0.00, 0.00, 0.00, 0.01, 0.01, 1.01
206, 0.00, 44078.09, 0.00, 0.00, 0.00, 0.00, 0.00, 0.00, 0.01, 0.01, 1.01
207, 0.00, 44071.85, 0.00, 0.00, 0.00, 0.00, 0.00, 0.00, 0.01, 0.01, 1.01
208, 0.00, 44092.79, 0.00, 0.00, 0.00, 0.00, 0.00, 0.00, 0.01, 0.01, 1.02
209, 0.00, 44100.57, 0.00, 0.00, 0.00, 0.00, 0.00, 0.00, 0.01, 0.01, 1.02
210, 0.00, 44084.50, 0.00, 0.00, 0.00, 0.00, 0.00, 0.00, 0.01, 0.01, 1.02
211, 0.00, 44067.00, 0.00, 0.00, 0.00, 0.00, 0.00, 0.00, 0.01, 0.01, 1.02
212, 0.00, 44082.67, 0.00, 0.00, 0.00, 0.00, 0.00, 0.00, 0.01, 0.01, 1.02
213, 0.00, 44100.39, 0.00, 0.00, 0.00, 0.00, 0.00, 0.00, 0.01, 0.01, 1.02
214, 0.00, 44084.07, 0.00, 0.00, 0.00, 0.00, 0.00, 0.00, 0.01, 0.01, 1.02
215, 0.00, 44061.41, 0.00, 0.00, 0.00, 0.00, 0.00, 0.00, 0.01, 0.01, 1.02
216, 0.00, 44071.00, 0.00, 0.00, 0.00, 0.00, 0.00, 0.00, 0.01, 0.01, 1.02
217, 0.00, 44096.82, 0.00, 0.00, 0.00, 0.00, 0.00, 0.00, 0.01, 0.01, 1.02
218, 0.00, 44082.69, 0.00, 0.00, 0.00, 0.00, 0.00, 0.00, 0.02, 0.01, 1.02
219, 0.00, 44063.51, 0.00, 0.00, 0.00, 0.00, 0.00, 0.00, 0.02, 0.01, 1.02
220, 0.00, 44068.34, 0.00, 0.00, 0.00, 0.00, 0.00, 0.00, 0.02, 0.01, 1.02
221, 0.00, 44091.79, 0.00, 0.00, 0.00, 0.00, 0.00, 0.00, 0.02, 0.01, 1.02
222, 0.00, 44083.61, 0.00, 0.00, 0.00, 0.00, 0.00, 0.00, 0.02, 0.01, 1.02
223, 0.00, 44060.72, 0.00, 0.00, 0.00, 0.00, 0.00, 0.00, 0.01, 0.00, 1.02
224, 0.00, 44065.64, 0.00, 0.00, 0.00, 0.00, 0.00, 0.00, 0.01, 0.00, 1.02
225, 0.00, 44090.11, 0.00, 0.00, 0.00, 0.00, 0.00, 0.00, 0.01, 0.00, 1.02
226, 0.00, 44090.58, 0.00, 0.00, 0.00, 0.00, 0.00, 0.00, 0.01, 0.00, 1.02
227, 0.00, 44071.80, 0.00, 0.00, 0.00, 0.00, 0.00, 0.00, 0.01, 0.00, 1.02
228, 0.00, 44069.05, 0.00, 0.00, 0.00, 0.00, 0.00, 0.00, 0.01, 0.01, 1.01
229, 0.00, 44087.38, 0.00, 0.00, 0.00, 0.00, 0.00, 0.00, 0.01, 0.01, 1.01
230, 0.00, 44092.75, 0.00, 0.00, 0.00, 0.00, 0.00, 0.00, 0.01, 0.01, 1.01
231, 0.00, 44068.90, 0.00, 0.00, 0.00, 0.00, 0.00, 0.00, 0.01, 0.01, 1.01
232, 0.00, 44063.73, 0.00, 0.00, 0.00, 0.00, 0.00, 0.00, 0.01, 0.01, 1.01
233, 0.00, 44085.86, 0.00, 0.00, 0.00, 0.00, 0.00, 0.00, 0.01, 0.02, 1.01
234, 0.00, 44100.62, 0.00, 0.00, 0.00, 0.00, 0.00, 0.00, 0.01, 0.02, 1.01
235, 0.00, 44084.59, 0.00, 0.00, 0.00, 0.00, 0.00, 0.00, 0.01, 0.02, 1.01
236, 0.00, 44064.29, 0.00, 0.00, 0.00, 0.00, 0.00, 0.00, 0.01, 0.02, 1.01
237, 0.00, 44076.90, 0.00, 0.00, 0.00, 0.00, 0.00, 0.00, 0.01, 0.02, 1.01
238, 0.00, 44092.82, 0.00, 0.00, 0.00, 0.00, 0.00, 0.00, 0.01, 0.01, 1.02
239, 0.00, 44078.38, 0.00, 0.00, 0.00, 0.00, 0.00, 0.00, 0.01, 0.01, 1.02
240, 0.00, 44062.62, 0.00, 0.00, 0.00, 0.00, 0.00, 0.00, 0.01, 0.01, 1.02
241, 0.00, 44079.47, 0.00, 0.00, 0.00, 0.00, 0.00, 0.00, 0.01, 0.01, 1.02
242, 0.00, 44090.71, 0.00, 0.00, 0.00, 0.00, 0.00, 0.00, 0.01, 0.01, 1.02
243, 0.00, 44080.81, 0.00, 0.00, 0.00, 0.00, 0.00, 0.00, 0.01, 0.02, 1.02
244, 0.00, 44061.68, 0.00, 0.00, 0.00, 0.00, 0.00, 0.00, 0.01, 0.02, 1.02
245, 0.00, 44068.50, 0.00, 0.00, 0.00, 0.00, 0.00, 0.00, 0.01, 0.02, 1.02
246, 0.00, 44087.79, 0.00, 0.00, 0.00, 0.00, 0.00, 0.00, 0.01, 0.02, 1.02
247, 0.00, 44085.42, 0.00, 0.00, 0.00, 0.00, 0.00, 0.00, 0.01, 0.02, 1.02
248, 0.00, 44061.23, 0.00, 0.00, 0.00, 0.00, 0.00, 0.00, 0.01, 0.01, 1.02
249, 0.00, 44060.23, 0.00, 0.00, 0.00, 0.00, 0.00, 0.00, 0.01, 0.01, 1.02
250, 0.00, 44089.11, 0.00, 0.00, 0.00, 0.00, 0.00, 0.00, 0.01, 0.01, 1.02
251, 0.00, 44087.77, 0.00, 0.00, 0.00, 0.00, 0.00, 0.00, 0.01, 0.01, 1.02
252, 0.00, 44064.25, 0.00, 0.00, 0.00, 0.00, 0.00, 0.00, 0.01, 0.01, 1.02
253, 0.00, 44065.77, 0.00, 0.00, 0.00, 0.00, 0.00, 0.00, 0.01, 0.00, 1.02
254, 0.00, 44100.62, 0.00, 0.00, 0.00, 0.00, 0.00, 0.00, 0.01, 0.00, 1.02
255, 0.00, 44113.69, 0.00, 0.00, 0.00, 0.00, 0.00, 0.00, 0.01, 0.00, 1.02
0, 0.00, 44070.46, 0.00, 0.00, 0.00, 0.00, 0.00, 0.00, 0.01, 0.00, 1.02
1, 0.00, 44037.00, 0.00, 0.00, 0.00, 0.00, 0.00, 0.00, 0.01, 0.00, 1.02
2, 0.00, 44062.91, 0.00, 0.00, 0.00, 0.00, 0.00, 0.00, 0.01, 0.00, 1.02
3, 0.00, 44077.37, 0.00, 0.00, 0.00, 0.00, 0.00, 0.00, 0.01, 0.00, 1.02
4, 0.00, 44044.29, 0.00, 0.00, 0.00, 0.00, 0.00, 0.00, 0.01, 0.00, 1.02
5, 0.00, 44017.98, 0.00, 0.00, 0.00, 0.00, 0.00, 0.00, 0.01, 0.00, 1.02
6, 0.00, 44025.61, 0.00, 0.00, 0.00, 0.00, 0.00, 0.00, 0.01, 0.00, 1.02
7, 0.00, 44038.43, 0.00, 0.00, 0.00, 0.00, 0.00, 0.00, 0.01, 0.01, 1.02
8, 0.00, 44018.47, 0.00, 0.00, 0.00, 0.00, 0.00, 0.00, 0.01, 0.01, 1.02
9, 0.00, 43991.27, 0.00, 0.00, 0.00, 0.00, 0.00, 0.00, 0.01, 0.01, 1.02
10, 0.00, 44001.93, 0.00, 0.00, 0.00, 0.00, 0.00, 0.00, 0.01, 0.01, 1.02
11, 0.00, 44026.74, 0.00, 0.00, 0.00, 0.00, 0.00, 0.00, 0.01, 0.01, 1.02
12, 0.00, 44012.86, 0.00, 0.00, 0.00, 0.00, 0.00, 0.00, 0.01, 0.01, 1.02
13, 0.00, 43997.13, 0.00, 0.00, 0.00, 0.00, 0.00, 0.00, 0.01, 0.01, 1.02
14, 0.00, 44009.80, 0.00, 0.00, 0.00, 0.00, 0.00, 0.00, 0.01, 0.01, 1.02
15, 0.00, 44033.61, 0.00, 0.00, 0.00, 0.00, 0.00, 0.00, 0.01, 0.01, 1.02
16, 0.00, 44031.82, 0.00, 0.00, 0.00, 0.00, 0.00, 0.00, 0.01, 0.01, 1.02
17, 0.00, 44012.30, 0.00, 0.00, 0.00, 0.00, 0.00, 0.00, 0.01, 0.01, 1.02
18, 0.00, 44016.64, 0.00, 0.00, 0.00, 0.00, 0.00, 0.00, 0.01, 0.01, 1.02
19, 0.00, 44045.95, 0.00, 0.00, 0.00, 0.00, 0.00, 0.00, 0.01, 0.01, 1.02
20, 0.00, 44052.94, 0.00, 0.00, 0.00, 0.00, 0.00, 0.00, 0.01, 0.01, 1.02
21, 0.00, 44028.49, 0.00, 0.00, 0.00, 0.00, 0.00, 0.00, 0.01, 0.01, 1.02
22, 0.00, 44025.87, 0.00, 0.00, 0.00, 0.00, 0.00, 0.00, 0.01, 0.01, 1.02
23, 0.00, 44045.65, 0.00, 0.00, 0.00, 0.00, 0.00, 0.00, 0.01, 0.01, 1.02
24, 0.00, 44054.53, 0.00, 0.00, 0.00, 0.00, 0.00, 0.00, 0.01, 0.01, 1.02
25, 0.00, 44039.66, 0.00, 0.00, 0.00, 0.00, 0.00, 0.00, 0.01, 0.01, 1.02
26, 0.00, 44031.91, 0.00, 0.00, 0.00, 0.00, 0.00, 0.00, 0.01, 0.01, 1.02
27, 0.00, 44052.54, 0.00, 0.00, 0.00, 0.00, 0.00, 0.00, 0.01, 0.02, 1.07
28, 0.00, 44066.80, 0.00, 0.00, 0.00, 0.00, 0.00, 0.00, 0.01, 0.02, 1.07
29, 0.00, 44045.25, 0.00, 0.00, 0.00, 0.00, 0.00, 0.00, 0.01, 0.02, 1.07
30, 0.00, 44026.95, 0.00, 0.00, 0.00, 0.00, 0.00, 0.00, 0.01, 0.02, 1.07
31, 0.00, 44041.41, 0.00, 0.00, 0.00, 0.00, 0.00, 0.00, 0.01, 0.02, 1.07
32, 0.00, 44057.37, 0.00, 0.00, 0.00, 0.00, 0.00, 0.00, 0.02, 0.01, 1.05
33, 0.00, 44046.28, 0.00, 0.00, 0.00, 0.00, 0.00, 0.00, 0.02, 0.01, 1.05
34, 0.00, 44022.52, 0.00, 0.00, 0.00, 0.00, 0.00, 0.00, 0.02, 0.01, 1.05
35, 0.00, 44030.23, 0.00, 0.00, 0.00, 0.00, 0.00, 0.00, 0.02, 0.01, 1.05
36, 0.00, 44055.98, 0.00, 0.00, 0.00, 0.00, 0.00, 0.00, 0.02, 0.01, 1.05
37, 0.00, 44049.77, 0.00, 0.00, 0.00, 0.00, 0.00, 0.00, 0.01, 0.01, 1.03
38, 0.00, 44020.71, 0.00, 0.00, 0.00, 0.00, 0.00, 0.00, 0.01, 0.01, 1.03
39, 0.00, 44021.74, 0.00, 0.00, 0.00, 0.00, 0.00, 0.00, 0.01, 0.01, 1.03
40, 0.00, 44050.64, 0.00, 0.00, 0.00, 0.00, 0.00, 0.00, 0.01, 0.01, 1.03
41, 0.00, 44045.90, 0.00, 0.00, 0.00, 0.00, 0.00, 0.00, 0.01, 0.01, 1.03
42, 0.00, 44023.28, 0.00, 0.00, 0.00, 0.00, 0.00, 0.00, 0.01, 0.02, 1.02
43, 0.00, 44015.25, 0.00, 0.00, 0.00, 0.00, 0.00, 0.00, 0.01, 0.02, 1.02
44, 0.00, 44039.55, 0.00, 0.00, 0.00, 0.00, 0.00, 0.00, 0.01, 0.02, 1.02
45, 0.00, 44045.65, 0.00, 0.00, 0.00, 0.00, 0.00, 0.00, 0.01, 0.02, 1.02
46, 0.00, 44023.55, 0.00, 0.00, 0.00, 0.00, 0.00, 0.00, 0.01, 0.02, 1.02
47, 0.00, 44011.66, 0.00, 0.00, 0.00, 0.00, 0.00, 0.00, 0.02, 0.02, 1.02
48, 0.00, 44027.44, 0.00, 0.00, 0.00, 0.00, 0.00, 0.00, 0.02, 0.02, 1.02
49, 0.00, 44041.74, 0.00, 0.00, 0.00, 0.00, 0.00, 0.00, 0.02, 0.02, 1.02
50, 0.00, 44023.84, 0.00, 0.00, 0.00, 0.00, 0.00, 0.00, 0.02, 0.02, 1.02
51, 0.00, 44015.10, 0.00, 0.00, 0.00, 0.00, 0.00, 0.00, 0.02, 0.02, 1.02
52, 0.00, 44036.22, 0.00, 0.00, 0.00, 0.00, 0.00, 0.00, 0.02, 0.02, 1.03
53, 0.00, 44051.51, 0.00, 0.00, 0.00, 0.00, 0.00, 0.00, 0.02, 0.02, 1.03
54, 0.00, 44049.21, 0.00, 0.00, 0.00, 0.00, 0.00, 0.00, 0.02, 0.02, 1.03
55, 0.00, 44033.49, 0.00, 0.00, 0.00, 0.00, 0.00, 0.00, 0.02, 0.02, 1.03
56, 0.00, 44004.30, 0.00, 0.00, 0.00, 0.00, 0.00, 0.00, 0.02, 0.02, 1.03
57, 0.00, 43994.00, 0.00, 0.00, 0.00, 0.00, 0.00, 0.00, 0.01, 0.01, 1.02
58, 0.00, 43977.30, 0.00, 0.00, 0.00, 0.00, 0.00, 0.00, 0.01, 0.01, 1.02
59, 0.00, 43944.60, 0.00, 0.00, 0.00, 0.00, 0.00, 0.00, 0.01, 0.01, 1.02
60, 0.00, 43927.17, 0.00, 0.00, 0.00, 0.00, 0.00, 0.00, 0.01, 0.01, 1.02
61, 0.00, 43940.42, 0.00, 0.00, 0.00, 0.00, 0.00, 0.00, 0.01, 0.01, 1.02
62, 0.00, 43926.79, 0.00, 0.00, 0.00, 0.00, 0.00, 0.00, 0.00, 0.01, 1.02
63, 0.00, 43888.41, 0.00, 0.00, 0.00, 0.00, 0.00, 0.00, 0.00, 0.01, 1.02
64, 0.00, 43890.71, 0.00, 0.00, 0.00, 0.00, 0.00, 0.00, 0.00, 0.01, 1.02
65, 0.00, 43906.89, 0.00, 0.00, 0.00, 0.00, 0.00, 0.00, 0.00, 0.01, 1.02
66, 0.00, 43904.57, 0.00, 0.00, 0.00, 0.00, 0.00, 0.00, 0.00, 0.01, 1.02
67, 0.00, 43892.81, 0.00, 0.00, 0.00, 0.00, 0.00, 0.00, 0.01, 0.01, 1.02
68, 0.00, 43890.18, 0.00, 0.00, 0.00, 0.00, 0.00, 0.00, 0.01, 0.01, 1.02
69, 0.00, 43925.87, 0.00, 0.00, 0.00, 0.00, 0.00, 0.00, 0.01, 0.01, 1.02
70, 0.00, 43932.20, 0.00, 0.00, 0.00, 0.00, 0.00, 0.00, 0.01, 0.01, 1.02
71, 0.00, 43917.51, 0.00, 0.00, 0.00, 0.00, 0.00, 0.00, 0.01, 0.01, 1.02
72, 0.00, 43911.36, 0.00, 0.00, 0.00, 0.00, 0.00, 0.00, 0.01, 0.01, 1.02
73, 0.00, 43935.13, 0.00, 0.00, 0.00, 0.00, 0.00, 0.00, 0.01, 0.01, 1.02
74, 0.00, 43950.39, 0.00, 0.00, 0.00, 0.00, 0.00, 0.00, 0.01, 0.01, 1.02
75, 0.00, 43931.93, 0.00, 0.00, 0.00, 0.00, 0.00, 0.00, 0.01, 0.01, 1.02
76, 0.00, 43921.45, 0.00, 0.00, 0.00, 0.00, 0.00, 0.00, 0.01, 0.01, 1.02
77, 0.00, 43938.48, 0.00, 0.00, 0.00, 0.00, 0.00, 0.00, 0.02, 0.01, 1.01
78, 0.00, 43957.88, 0.00, 0.00, 0.00, 0.00, 0.00, 0.00, 0.02, 0.01, 1.01
79, 0.00, 43937.25, 0.00, 0.00, 0.00, 0.00, 0.00, 0.00, 0.02, 0.01, 1.01
80, 0.00, 43921.00, 0.00, 0.00, 0.00, 0.00, 0.00, 0.00, 0.02, 0.01, 1.01
81, 0.00, 43936.62, 0.00, 0.00, 0.00, 0.00, 0.00, 0.00, 0.02, 0.01, 1.01
82, 0.00, 43962.53, 0.00, 0.00, 0.00, 0.00, 0.00, 0.00, 0.01, 0.01, 1.02
83, 0.00, 43954.66, 0.00, 0.00, 0.00, 0.00, 0.00, 0.00, 0.01, 0.01, 1.02
84, 0.00, 43945.38, 0.00, 0.00, 0.00, 0.00, 0.00, 0.00, 0.01, 0.01, 1.02
85, 0.00, 43950.37, 0.00, 0.00, 0.00, 0.00, 0.00, 0.00, 0.01, 0.01, 1.02
86, 0.00, 43974.29, 0.00, 0.00, 0.00, 0.00, 0.00, 0.00, 0.01, 0.01, 1.02
87, 0.00, 43968.20, 0.00, 0.00, 0.00, 0.00, 0.00, 0.00, 0.01, 0.01, 1.02
88, 0.00, 43938.48, 0.00, 0.00, 0.00, 0.00, 0.00, 0.00, 0.01, 0.01, 1.02
89, 0.00, 43941.16, 0.00, 0.00, 0.00, 0.00, 0.00, 0.00, 0.01, 0.01, 1.02
90, 0.00, 43965.52, 0.00, 0.00, 0.00, 0.00, 0.00, 0.00, 0.01, 0.01, 1.02
91, 0.00, 43966.98, 0.00, 0.00, 0.00, 0.00, 0.00, 0.00, 0.01, 0.01, 1.02
92, 0.00, 43940.87, 0.00, 0.00, 0.00, 0.00, 0.00, 0.00, 0.01, 0.01, 1.02
93, 0.00, 43938.34, 0.00, 0.00, 0.00, 0.00, 0.00, 0.00, 0.01, 0.01, 1.02
94, 0.00, 43961.50, 0.00, 0.00, 0.00, 0.00, 0.00, 0.00, 0.01, 0.01, 1.02
95, 0.00, 43965.75, 0.00, 0.00, 0.00, 0.00, 0.00, 0.00, 0.01, 0.01, 1.02
96, 0.00, 43945.23, 0.00, 0.00, 0.00, 0.00, 0.00, 0.00, 0.01, 0.01, 1.02
97, 0.00, 43930.72, 0.00, 0.00, 0.00, 0.00, 0.00, 0.00, 0.01, 0.01, 1.02
98, 0.00, 43957.43, 0.00, 0.00, 0.00, 0.00, 0.00, 0.00, 0.01, 0.01, 1.02
99, 0.00, 43974.75, 0.00, 0.00, 0.00, 0.00, 0.00, 0.00, 0.01, 0.01, 1.02
100, 0.00, 43953.47, 0.00, 0.00, 0.00, 0.00, 0.00, 0.00, 0.01, 0.01, 1.02
101, 0.00, 43946.23, 0.00, 0.00, 0.00, 0.00, 0.00, 0.00, 0.01, 0.01, 1.02
102, 0.00, 43956.18, 0.00, 0.00, 0.00, 0.00, 0.00, 0.00, 0.01, 0.01, 1.02
103, 0.00, 43973.01, 0.00, 0.00, 0.00, 0.00, 0.00, 0.00, 0.01, 0.01, 1.02
104, 0.00, 43957.57, 0.00, 0.00, 0.00, 0.00, 0.00, 0.00, 0.01, 0.01, 1.02
105, 0.00, 43941.14, 0.00, 0.00, 0.00, 0.00, 0.00, 0.00, 0.01, 0.01, 1.02
106, 0.00, 43953.74, 0.00, 0.00, 0.00, 0.00, 0.00, 0.00, 0.01, 0.01, 1.02
107, 0.00, 43972.54, 0.00, 0.00, 0.00, 0.00, 0.00, 0.00, 0.01, 0.01, 1.02
108, 0.00, 43964.79, 0.00, 0.00, 0.00, 0.00, 0.00, 0.00, 0.01, 0.01, 1.02
109, 0.00, 43949.41, 0.00, 0.00, 0.00, 0.00, 0.00, 0.00, 0.01, 0.01, 1.02
110, 0.00, 43959.31, 0.00, 0.00, 0.00, 0.00, 0.00, 0.00, 0.01, 0.01, 1.02
111, 0.00, 43983.74, 0.00, 0.00, 0.00, 0.00, 0.00, 0.00, 0.01, 0.01, 1.02
112, 0.00, 43973.57, 0.00, 0.00, 0.00, 0.00, 0.00, 0.00, 0.01, 0.01, 1.01
113, 0.00, 43950.41, 0.00, 0.00, 0.00, 0.00, 0.00, 0.00, 0.01, 0.01, 1.01
114, 0.00, 43951.91, 0.00, 0.00, 0.00, 0.00, 0.00, 0.00, 0.01, 0.01, 1.01
115, 0.00, 43974.95, 0.00, 0.00, 0.00, 0.00, 0.00, 0.00, 0.01, 0.01, 1.01
116, 0.00, 43971.42, 0.00, 0.00, 0.00, 0.00, 0.00, 0.00, 0.01, 0.01, 1.01
117, 0.00, 43946.43, 0.00, 0.00, 0.00, 0.00, 0.00, 0.00, 0.01, 0.01, 1.02
118, 0.00, 43952.20, 0.00, 0.00, 0.00, 0.00, 0.00, 0.00, 0.01, 0.01, 1.02
119, 0.00, 43977.08, 0.00, 0.00, 0.00, 0.00, 0.00, 0.00, 0.01, 0.01, 1.02
120, 0.00, 43985.97, 0.00, 0.00, 0.00, 0.00, 0.00, 0.00, 0.01, 0.01, 1.02
121, 0.00, 43966.62, 0.00, 0.00, 0.00, 0.00, 0.00, 0.00, 0.01, 0.01, 1.02
122, 0.00, 43953.23, 0.00, 0.00, 0.00, 0.00, 0.00, 0.00, 0.01, 0.02, 1.02
123, 0.00, 43969.97, 0.00, 0.00, 0.00, 0.00, 0.00, 0.00, 0.01, 0.02, 1.02
124, 0.00, 43999.09, 0.00, 0.00, 0.00, 0.00, 0.00, 0.00, 0.01, 0.02, 1.02
125, 0.00, 43989.59, 0.00, 0.00, 0.00, 0.00, 0.00, 0.00, 0.01, 0.02, 1.02
126, 0.00, 43950.68, 0.00, 0.00, 0.00, 0.00, 0.00, 0.00, 0.01, 0.02, 1.02
127, 0.00, 43963.09, 0.00, 0.00, 0.00, 0.00, 0.00, 0.00, 0.01, 0.01, 1.02
128, 0.00, 44001.15, 0.00, 0.00, 0.00, 0.00, 0.00, 0.00, 0.01, 0.01, 1.02
129, 0.00, 43979.11, 0.00, 0.00, 0.00, 0.00, 0.00, 0.00, 0.01, 0.01, 1.02
130, 0.00, 43966.17, 0.00, 0.00, 0.00, 0.00, 0.00, 0.00, 0.01, 0.01, 1.02
131, 0.00, 43986.69, 0.00, 0.00, 0.00, 0.00, 0.00, 0.00, 0.01, 0.01, 1.02
132, 0.00, 44005.31, 0.00, 0.00, 0.00, 0.00, 0.00, 0.00, 0.02, 0.01, 1.03
133, 0.00, 43991.79, 0.00, 0.00, 0.00, 0.00, 0.00, 0.00, 0.02, 0.01, 1.03
134, 0.00, 43975.76, 0.00, 0.00, 0.00, 0.00, 0.00, 0.00, 0.02, 0.01, 1.03
135, 0.00, 43979.87, 0.00, 0.00, 0.00, 0.00, 0.00, 0.00, 0.02, 0.01, 1.03
136, 0.00, 44000.77, 0.00, 0.00, 0.00, 0.00, 0.00, 0.00, 0.02, 0.01, 1.03
137, 0.00, 43991.56, 0.00, 0.00, 0.00, 0.00, 0.00, 0.00, 0.01, 0.01, 1.02
138, 0.00, 43973.05, 0.00, 0.00, 0.00, 0.00, 0.00, 0.00, 0.01, 0.01, 1.02
139, 0.00, 43976.05, 0.00, 0.00, 0.00, 0.00, 0.00, 0.00, 0.01, 0.01, 1.02
140, 0.00, 43998.49, 0.00, 0.00, 0.00, 0.00, 0.00, 0.00, 0.01, 0.01, 1.02
141, 0.00, 43994.24, 0.00, 0.00, 0.00, 0.00, 0.00, 0.00, 0.01, 0.01, 1.02
142, 0.00, 43979.20, 0.00, 0.00, 0.00, 0.00, 0.00, 0.00, 0.01, 0.01, 1.01
143, 0.00, 43975.27, 0.00, 0.00, 0.00, 0.00, 0.00, 0.00, 0.01, 0.01, 1.01
144, 0.00, 43997.39, 0.00, 0.00, 0.00, 0.00, 0.00, 0.00, 0.01, 0.01, 1.01
145, 0.00, 44007.77, 0.00, 0.00, 0.00, 0.00, 0.00, 0.00, 0.01, 0.01, 1.01
146, 0.00, 43981.19, 0.00, 0.00, 0.00, 0.00, 0.00, 0.00, 0.01, 0.01, 1.01
147, 0.00, 43979.13, 0.00, 0.00, 0.00, 0.00, 0.00, 0.00, 0.01, 0.01, 1.01
148, 0.00, 44000.86, 0.00, 0.00, 0.00, 0.00, 0.00, 0.00, 0.01, 0.01, 1.01
149, 0.00, 44002.89, 0.00, 0.00, 0.00, 0.00, 0.00, 0.00, 0.01, 0.01, 1.01
150, 0.00, 43981.21, 0.00, 0.00, 0.00, 0.00, 0.00, 0.00, 0.01, 0.01, 1.01
151, 0.00, 43974.95, 0.00, 0.00, 0.00, 0.00, 0.00, 0.00, 0.01, 0.01, 1.01
152, 0.00, 43990.18, 0.00, 0.00, 0.00, 0.00, 0.00, 0.00, 0.01, 0.01, 1.01
153, 0.00, 44005.84, 0.00, 0.00, 0.00, 0.00, 0.00, 0.00, 0.01, 0.01, 1.01
154, 0.00, 43989.44, 0.00, 0.00, 0.00, 0.00, 0.00, 0.00, 0.01, 0.01, 1.01
155, 0.00, 43967.67, 0.00, 0.00, 0.00, 0.00, 0.00, 0.00, 0.01, 0.01, 1.01
156, 0.00, 43979.16, 0.00, 0.00, 0.00, 0.00, 0.00, 0.00, 0.01, 0.01, 1.01
157, 0.00, 44002.92, 0.00, 0.00, 0.00, 0.00, 0.00, 0.00, 0.01, 0.01, 1.01
158, 0.00, 43995.59, 0.00, 0.00, 0.00, 0.00, 0.00, 0.00, 0.01, 0.01, 1.01
159, 0.00, 43972.27, 0.00, 0.00, 0.00, 0.00, 0.00, 0.00, 0.01, 0.01, 1.01
160, 0.00, 43969.10, 0.00, 0.00, 0.00, 0.00, 0.00, 0.00, 0.01, 0.01, 1.01
161, 0.00, 44002.31, 0.00, 0.00, 0.00, 0.00, 0.00, 0.00, 0.01, 0.01, 1.01
162, 0.00, 43992.32, 0.00, 0.00, 0.00, 0.00, 0.00, 0.00, 0.01, 0.01, 1.01
163, 0.00, 43963.82, 0.00, 0.00, 0.00, 0.00, 0.00, 0.00, 0.01, 0.01, 1.01
164, 0.00, 43963.73, 0.00, 0.00, 0.00, 0.00, 0.00, 0.00, 0.01, 0.01, 1.01
165, 0.00, 43988.88, 0.00, 0.00, 0.00, 0.00, 0.00, 0.00, 0.01, 0.01, 1.01
166, 0.00, 43986.73, 0.00, 0.00, 0.00, 0.00, 0.00, 0.00, 0.01, 0.01, 1.01
167, 0.00, 43969.55, 0.00, 0.00, 0.00, 0.00, 0.00, 0.00, 0.01, 0.01, 1.01
168, 0.00, 43966.35, 0.00, 0.00, 0.00, 0.00, 0.00, 0.00, 0.01, 0.01, 1.01
169, 0.00, 43986.76, 0.00, 0.00, 0.00, 0.00, 0.00, 0.00, 0.01, 0.01, 1.01
170, 0.00, 44002.85, 0.00, 0.00, 0.00, 0.00, 0.00, 0.00, 0.01, 0.01, 1.01
171, 0.00, 43987.70, 0.00, 0.00, 0.00, 0.00, 0.00, 0.00, 0.01, 0.01, 1.01
172, 0.00, 43970.15, 0.00, 0.00, 0.00, 0.00, 0.00, 0.00, 0.01, 0.01, 1.01
173, 0.00, 43986.89, 0.00, 0.00, 0.00, 0.00, 0.00, 0.00, 0.01, 0.01, 1.02
174, 0.00, 44002.00, 0.00, 0.00, 0.00, 0.00, 0.00, 0.00, 0.01, 0.01, 1.02
175, 0.00, 43983.70, 0.00, 0.00, 0.00, 0.00, 0.00, 0.00, 0.01, 0.01, 1.02
176, 0.00, 43966.80, 0.00, 0.00, 0.00, 0.00, 0.00, 0.00, 0.01, 0.01, 1.02
177, 0.00, 43981.48, 0.00, 0.00, 0.00, 0.00, 0.00, 0.00, 0.01, 0.01, 1.02
178, 0.00, 44001.44, 0.00, 0.00, 0.00, 0.00, 0.00, 0.00, 0.01, 0.01, 1.02
179, 0.00, 43991.45, 0.00, 0.00, 0.00, 0.00, 0.00, 0.00, 0.01, 0.01, 1.02
180, 0.00, 43976.16, 0.00, 0.00, 0.00, 0.00, 0.00, 0.00, 0.01, 0.01, 1.02
181, 0.00, 43986.24, 0.00, 0.00, 0.00, 0.00, 0.00, 0.00, 0.01, 0.01, 1.02
182, 0.00, 44007.23, 0.00, 0.00, 0.00, 0.00, 0.00, 0.00, 0.01, 0.01, 1.02
183, 0.00, 43990.91, 0.00, 0.00, 0.00, 0.00, 0.00, 0.00, 0.01, 0.01, 1.02
184, 0.00, 43968.38, 0.00, 0.00, 0.00, 0.00, 0.00, 0.00, 0.01, 0.01, 1.02
185, 0.00, 43966.50, 0.00, 0.00, 0.00, 0.00, 0.00, 0.00, 0.01, 0.01, 1.02
186, 0.00, 43995.16, 0.00, 0.00, 0.00, 0.00, 0.00, 0.00, 0.01, 0.01, 1.02
187, 0.00, 43992.99, 0.00, 0.00, 0.00, 0.00, 0.00, 0.00, 0.01, 0.01, 1.02
188, 0.00, 43971.96, 0.00, 0.00, 0.00, 0.00, 0.00, 0.00, 0.01, 0.01, 1.01
189, 0.00, 43967.18, 0.00, 0.00, 0.00, 0.00, 0.00, 0.00, 0.01, 0.01, 1.01
190, 0.00, 43988.86, 0.00, 0.00, 0.00, 0.00, 0.00, 0.00, 0.01, 0.01, 1.01
191, 0.00, 43998.54, 0.00, 0.00, 0.00, 0.00, 0.00, 0.00, 0.01, 0.01, 1.01
192, 0.00, 43973.79, 0.00, 0.00, 0.00, 0.00, 0.00, 0.00, 0.01, 0.01, 1.01
193, 0.00, 43964.11, 0.00, 0.00, 0.00, 0.00, 0.00, 0.00, 0.01, 0.01, 1.01
194, 0.00, 43983.18, 0.00, 0.00, 0.00, 0.00, 0.00, 0.00, 0.01, 0.01, 1.01
195, 0.00, 43994.51, 0.00, 0.00, 0.00, 0.00, 0.00, 0.00, 0.01, 0.01, 1.01
196, 0.00, 43991.05, 0.00, 0.00, 0.00, 0.00, 0.00, 0.00, 0.01, 0.01, 1.01
197, 0.00, 44001.44, 0.00, 0.00, 0.00, 0.00, 0.00, 0.00, 0.01, 0.01, 1.01
198, 0.00, 44001.20, 0.00, 0.00, 0.00, 0.00, 0.00, 0.00, 0.02, 0.01, 1.01
199, 0.00, 43984.84, 0.00, 0.00, 0.00, 0.00, 0.00, 0.00, 0.02, 0.01, 1.01
200, 0.00, 43973.99, 0.00, 0.00, 0.00, 0.00, 0.00, 0.00, 0.02, 0.01, 1.01
201, 0.00, 43967.76, 0.00, 0.00, 0.00, 0.00, 0.00, 0.00, 0.02, 0.01, 1.01
202, 0.00, 43979.52, 0.00, 0.00, 0.00, 0.00, 0.00, 0.00, 0.02, 0.01, 1.01
203, 0.00, 43997.86, 0.00, 0.00, 0.00, 0.00, 0.00, 0.00, 0.01, 0.01, 1.01
204, 0.00, 43993.35, 0.00, 0.00, 0.00, 0.00, 0.00, 0.00, 0.01, 0.01, 1.01
205, 0.00, 43983.09, 0.00, 0.00, 0.00, 0.00, 0.00, 0.00, 0.01, 0.01, 1.01
206, 0.00, 43996.17, 0.00, 0.00, 0.00, 0.00, 0.00, 0.00, 0.01, 0.01, 1.01
207, 0.00, 44021.83, 0.00, 0.00, 0.00, 0.00, 0.00, 0.00, 0.01, 0.01, 1.01
208, 0.00, 44014.43, 0.00, 0.00, 0.00, 0.00, 0.00, 0.00, 0.01, 0.01, 1.02
209, 0.00, 44008.19, 0.00, 0.00, 0.00, 0.00, 0.00, 0.00, 0.01, 0.01, 1.02
210, 0.00, 44010.76, 0.00, 0.00, 0.00, 0.00, 0.00, 0.00, 0.01, 0.01, 1.02
211, 0.00, 44033.76, 0.00, 0.00, 0.00, 0.00, 0.00, 0.00, 0.01, 0.01, 1.02
212, 0.00, 44038.03, 0.00, 0.00, 0.00, 0.00, 0.00, 0.00, 0.01, 0.01, 1.02
213, 0.00, 44016.26, 0.00, 0.00, 0.00, 0.00, 0.00, 0.00, 0.01, 0.01, 1.02
214, 0.00, 44007.97, 0.00, 0.00, 0.00, 0.00, 0.00, 0.00, 0.01, 0.01, 1.02
215, 0.00, 44038.48, 0.00, 0.00, 0.00, 0.00, 0.00, 0.00, 0.01, 0.01, 1.02
216, 0.00, 44050.37, 0.00, 0.00, 0.00, 0.00, 0.00, 0.00, 0.01, 0.01, 1.02
217, 0.00, 44025.25, 0.00, 0.00, 0.00, 0.00, 0.00, 0.00, 0.01, 0.01, 1.02
218, 0.00, 44021.29, 0.00, 0.00, 0.00, 0.00, 0.00, 0.00, 0.02, 0.01, 1.02
219, 0.00, 44044.82, 0.00, 0.00, 0.00, 0.00, 0.00, 0.00, 0.02, 0.01, 1.02
220, 0.00, 44050.13, 0.00, 0.00, 0.00, 0.00, 0.00, 0.00, 0.02, 0.01, 1.02
221, 0.00, 44030.16, 0.00, 0.00, 0.00, 0.00, 0.00, 0.00, 0.02, 0.01, 1.02
222, 0.00, 44022.00, 0.00, 0.00, 0.00, 0.00, 0.00, 0.00, 0.02, 0.01, 1.02
223, 0.00, 44040.49, 0.00, 0.00, 0.00, 0.00, 0.00, 0.00, 0.01, 0.01, 1.02
224, 0.00, 44053.66, 0.00, 0.00, 0.00, 0.00, 0.00, 0.00, 0.01, 0.01, 1.02
225, 0.00, 44044.02, 0.00, 0.00, 0.00, 0.00, 0.00, 0.00, 0.01, 0.01, 1.02
226, 0.00, 44026.07, 0.00, 0.00, 0.00, 0.00, 0.00, 0.00, 0.01, 0.01, 1.02
227, 0.00, 44036.78, 0.00, 0.00, 0.00, 0.00, 0.00, 0.00, 0.01, 0.01, 1.02
228, 0.00, 44058.55, 0.00, 0.00, 0.00, 0.00, 0.00, 0.00, 0.02, 0.01, 1.02
229, 0.00, 44049.01, 0.00, 0.00, 0.00, 0.00, 0.00, 0.00, 0.02, 0.01, 1.02
230, 0.00, 44029.54, 0.00, 0.00, 0.00, 0.00, 0.00, 0.00, 0.02, 0.01, 1.02
231, 0.00, 44041.12, 0.00, 0.00, 0.00, 0.00, 0.00, 0.00, 0.02, 0.01, 1.02
232, 0.00, 44058.68, 0.00, 0.00, 0.00, 0.00, 0.00, 0.00, 0.02, 0.01, 1.02
233, 0.00, 44052.63, 0.00, 0.00, 0.00, 0.00, 0.00, 0.00, 0.01, 0.01, 1.02
234, 0.00, 44037.59, 0.00, 0.00, 0.00, 0.00, 0.00, 0.00, 0.01, 0.01, 1.02
235, 0.00, 44038.14, 0.00, 0.00, 0.00, 0.00, 0.00, 0.00, 0.01, 0.01, 1.02
236, 0.00, 44058.93, 0.00, 0.00, 0.00, 0.00, 0.00, 0.00, 0.01, 0.01, 1.02
237, 0.00, 44059.54, 0.00, 0.00, 0.00, 0.00, 0.00, 0.00, 0.01, 0.01, 1.02
238, 0.00, 44035.93, 0.00, 0.00, 0.00, 0.00, 0.00, 0.00, 0.01, 0.01, 1.01
239, 0.00, 44033.92, 0.00, 0.00, 0.00, 0.00, 0.00, 0.00, 0.01, 0.01, 1.01
240, 0.00, 44052.45, 0.00, 0.00, 0.00, 0.00, 0.00, 0.00, 0.01, 0.01, 1.01
241, 0.00, 44058.01, 0.00, 0.00, 0.00, 0.00, 0.00, 0.00, 0.01, 0.01, 1.01
242, 0.00, 44031.50, 0.00, 0.00, 0.00, 0.00, 0.00, 0.00, 0.01, 0.01, 1.01
243, 0.00, 44027.04, 0.00, 0.00, 0.00, 0.00, 0.00, 0.00, 0.01, 0.01, 1.02
244, 0.00, 44045.54, 0.00, 0.00, 0.00, 0.00, 0.00, 0.00, 0.01, 0.01, 1.02
245, 0.00, 44053.45, 0.00, 0.00, 0.00, 0.00, 0.00, 0.00, 0.01, 0.01, 1.02
246, 0.00, 44034.68, 0.00, 0.00, 0.00, 0.00, 0.00, 0.00, 0.01, 0.01, 1.02
247, 0.00, 44013.46, 0.00, 0.00, 0.00, 0.00, 0.00, 0.00, 0.01, 0.01, 1.02
248, 0.00, 44031.77, 0.00, 0.00, 0.00, 0.00, 0.00, 0.00, 0.01, 0.02, 1.02
249, 0.00, 44047.93, 0.00, 0.00, 0.00, 0.00, 0.00, 0.00, 0.01, 0.02, 1.02
250, 0.00, 44032.93, 0.00, 0.00, 0.00, 0.00, 0.00, 0.00, 0.01, 0.02, 1.02
251, 0.00, 44031.93, 0.00, 0.00, 0.00, 0.00, 0.00, 0.00, 0.01, 0.02, 1.02
252, 0.00, 44024.06, 0.00, 0.00, 0.00, 0.00, 0.00, 0.00, 0.01, 0.02, 1.02
253, 0.00, 44027.44, 0.00, 0.00, 0.00, 0.00, 0.00, 0.00, 0.01, 0.02, 1.02
254, 0.00, 44030.25, 0.00, 0.00, 0.00, 0.00, 0.00, 0.00, 0.01, 0.02, 1.02
255, 0.00, 44030.66, 0.00, 0.00, 0.00, 0.00, 0.00, 0.00, 0.01, 0.02, 1.02
0, 0.00, 44033.92, 0.00, 0.00, 0.00, 0.00, 0.00, 0.00, 0.01, 0.02, 1.02
1, 0.00, 44056.85, 0.00, 0.00, 0.00, 0.00, 0.00, 0.00, 0.01, 0.02, 1.02
2, 0.00, 44050.55, 0.00, 0.00, 0.00, 0.00, 0.00, 0.00, 0.01, 0.02, 1.02
3, 0.00, 44026.18, 0.00, 0.00, 0.00, 0.00, 0.00, 0.00, 0.01, 0.02, 1.02
4, 0.00, 44031.46, 0.00, 0.00, 0.00, 0.00, 0.00, 0.00, 0.01, 0.02, 1.02
5, 0.00, 44051.40, 0.00, 0.00, 0.00, 0.00, 0.00, 0.00, 0.01, 0.02, 1.02
6, 0.00, 44054.82, 0.00, 0.00, 0.00, 0.00, 0.00, 0.00, 0.01, 0.02, 1.02
7, 0.00, 44032.55, 0.00, 0.00, 0.00, 0.00, 0.00, 0.00, 0.00, 0.02, 1.02
8, 0.00, 44031.66, 0.00, 0.00, 0.00, 0.00, 0.00, 0.00, 0.00, 0.02, 1.02
9, 0.00, 44059.67, 0.00, 0.00, 0.00, 0.00, 0.00, 0.00, 0.00, 0.02, 1.02
10, 0.00, 44062.48, 0.00, 0.00, 0.00, 0.00, 0.00, 0.00, 0.00, 0.02, 1.02
11, 0.00, 44039.24, 0.00, 0.00, 0.00, 0.00, 0.00, 0.00, 0.00, 0.02, 1.02
12, 0.00, 44024.17, 0.00, 0.00, 0.00, 0.00, 0.00, 0.00, 0.01, 0.01, 1.02
13, 0.00, 44044.00, 0.00, 0.00, 0.00, 0.00, 0.00, 0.00, 0.01, 0.01, 1.02
14, 0.00, 44055.49, 0.00, 0.00, 0.00, 0.00, 0.00, 0.00, 0.01, 0.01, 1.02
15, 0.00, 44032.91, 0.00, 0.00, 0.00, 0.00, 0.00, 0.00, 0.01, 0.01, 1.02
16, 0.00, 44019.46, 0.00, 0.00, 0.00, 0.00, 0.00, 0.00, 0.01, 0.01, 1.02
17, 0.00, 44033.83, 0.00, 0.00, 0.00, 0.00, 0.00, 0.00, 0.01, 0.01, 1.02
18, 0.00, 44051.69, 0.00, 0.00, 0.00, 0.00, 0.00, 0.00, 0.01, 0.01, 1.02
19, 0.00, 44038.99, 0.00, 0.00, 0.00, 0.00, 0.00, 0.00, 0.01, 0.01, 1.02
20, 0.00, 44020.78, 0.00, 0.00, 0.00, 0.00, 0.00, 0.00, 0.01, 0.01, 1.02
21, 0.00, 44034.52, 0.00, 0.00, 0.00, 0.00, 0.00, 0.00, 0.01, 0.01, 1.02
22, 0.00, 44055.38, 0.00, 0.00, 0.00, 0.00, 0.00, 0.00, 0.01, 0.01, 1.02
23, 0.00, 44047.08, 0.00, 0.00, 0.00, 0.00, 0.00, 0.00, 0.01, 0.01, 1.02
24, 0.00, 44026.63, 0.00, 0.00, 0.00, 0.00, 0.00, 0.00, 0.01, 0.01, 1.02
25, 0.00, 44033.70, 0.00, 0.00, 0.00, 0.00, 0.00, 0.00, 0.01, 0.01, 1.02
26, 0.00, 44055.13, 0.00, 0.00, 0.00, 0.00, 0.00, 0.00, 0.01, 0.01, 1.02
27, 0.00, 44047.75, 0.00, 0.00, 0.00, 0.00, 0.00, 0.00, 0.01, 0.01, 1.02
28, 0.00, 44026.03, 0.00, 0.00, 0.00, 0.00, 0.00, 0.00, 0.01, 0.01, 1.02
29, 0.00, 44032.40, 0.00, 0.00, 0.00, 0.00, 0.00, 0.00, 0.01, 0.01, 1.02
30, 0.00, 44051.89, 0.00, 0.00, 0.00, 0.00, 0.00, 0.00, 0.01, 0.01, 1.02
31, 0.00, 44046.86, 0.00, 0.00, 0.00, 0.00, 0.00, 0.00, 0.01, 0.01, 1.02
32, 0.00, 44026.21, 0.00, 0.00, 0.00, 0.00, 0.00, 0.00, 0.01, 0.01, 1.02
33, 0.00, 44017.40, 0.00, 0.00, 0.00, 0.00, 0.00, 0.00, 0.01, 0.01, 1.02
34, 0.00, 44046.79, 0.00, 0.00, 0.00, 0.00, 0.00, 0.00, 0.01, 0.01, 1.02
35, 0.00, 44053.45, 0.00, 0.00, 0.00, 0.00, 0.00, 0.00, 0.01, 0.01, 1.02
36, 0.00, 44028.46, 0.00, 0.00, 0.00, 0.00, 0.00, 0.00, 0.01, 0.01, 1.02
37, 0.00, 44021.20, 0.00, 0.00, 0.00, 0.00, 0.00, 0.00, 0.01, 0.01, 1.03
38, 0.00, 44039.77, 0.00, 0.00, 0.00, 0.00, 0.00, 0.00, 0.01, 0.01, 1.03
39, 0.00, 44056.63, 0.00, 0.00, 0.00, 0.00, 0.00, 0.00, 0.01, 0.01, 1.03
40, 0.00, 44032.22, 0.00, 0.00, 0.00, 0.00, 0.00, 0.00, 0.01, 0.01, 1.03
41, 0.00, 44015.19, 0.00, 0.00, 0.00, 0.00, 0.00, 0.00, 0.01, 0.01, 1.03
42, 0.00, 44031.80, 0.00, 0.00, 0.00, 0.00, 0.00, 0.00, 0.01, 0.02, 1.03
43, 0.00, 44049.01, 0.00, 0.00, 0.00, 0.00, 0.00, 0.00, 0.01, 0.02, 1.03
44, 0.00, 44036.67, 0.00, 0.00, 0.00, 0.00, 0.00, 0.00, 0.01, 0.02, 1.03
45, 0.00, 44018.61, 0.00, 0.00, 0.00, 0.00, 0.00, 0.00, 0.01, 0.02, 1.03
46, 0.00, 44031.55, 0.00, 0.00, 0.00, 0.00, 0.00, 0.00, 0.01, 0.02, 1.03
47, 0.00, 44057.90, 0.00, 0.00, 0.00, 0.00, 0.00, 0.00, 0.01, 0.01, 1.03
48, 0.00, 44040.13, 0.00, 0.00, 0.00, 0.00, 0.00, 0.00, 0.01, 0.01, 1.03
49, 0.00, 44017.47, 0.00, 0.00, 0.00, 0.00, 0.00, 0.00, 0.01, 0.01, 1.03
50, 0.00, 44019.28, 0.00, 0.00, 0.00, 0.00, 0.00, 0.00, 0.01, 0.01, 1.03
51, 0.00, 44040.22, 0.00, 0.00, 0.00, 0.00, 0.00, 0.00, 0.01, 0.01, 1.03
52, 0.00, 44037.16, 0.00, 0.00, 0.00, 0.00, 0.00, 0.00, 0.01, 0.01, 1.03
53, 0.00, 44014.85, 0.00, 0.00, 0.00, 0.00, 0.00, 0.00, 0.01, 0.01, 1.03
54, 0.00, 44009.18, 0.00, 0.00, 0.00, 0.00, 0.00, 0.00, 0.01, 0.01, 1.03
55, 0.00, 44032.64, 0.00, 0.00, 0.00, 0.00, 0.00, 0.00, 0.01, 0.01, 1.03
56, 0.00, 44036.82, 0.00, 0.00, 0.00, 0.00, 0.00, 0.00, 0.01, 0.01, 1.03
57, 0.00, 44015.12, 0.00, 0.00, 0.00, 0.00, 0.00, 0.00, 0.01, 0.02, 1.02
58, 0.00, 44007.45, 0.00, 0.00, 0.00, 0.00, 0.00, 0.00, 0.01, 0.02, 1.02
59, 0.00, 44030.23, 0.00, 0.00, 0.00, 0.00, 0.00, 0.00, 0.01, 0.02, 1.02
60, 0.00, 44044.40, 0.00, 0.00, 0.00, 0.00, 0.00, 0.00, 0.01, 0.02, 1.02
61, 0.00, 44021.16, 0.00, 0.00, 0.00, 0.00, 0.00, 0.00, 0.01, 0.02, 1.02
62, 0.00, 44008.66, 0.00, 0.00, 0.00, 0.00, 0.00, 0.00, 0.01, 0.01, 1.01
63, 0.00, 44027.50, 0.00, 0.00, 0.00, 0.00, 0.00, 0.00, 0.01, 0.01, 1.01
64, 0.00, 44038.72, 0.00, 0.00, 0.00, 0.00, 0.00, 0.00, 0.01, 0.01, 1.01
65, 0.00, 44022.16, 0.00, 0.00, 0.00, 0.00, 0.00, 0.00, 0.01, 0.01, 1.01
66, 0.00, 44006.85, 0.00, 0.00, 0.00, 0.00, 0.00, 0.00, 0.01, 0.01, 1.01
67, 0.00, 44021.76, 0.00, 0.00, 0.00, 0.00, 0.00, 0.00, 0.01, 0.01, 1.01
68, 0.00, 44045.77, 0.00, 0.00, 0.00, 0.00, 0.00, 0.00, 0.01, 0.01, 1.01
69, 0.00, 44036.46, 0.00, 0.00, 0.00, 0.00, 0.00, 0.00, 0.01, 0.01, 1.01
70, 0.00, 44012.39, 0.00, 0.00, 0.00, 0.00, 0.00, 0.00, 0.01, 0.01, 1.01
71, 0.00, 44025.76, 0.00, 0.00, 0.00, 0.00, 0.00, 0.00, 0.01, 0.01, 1.01
72, 0.00, 44047.20, 0.00, 0.00, 0.00, 0.00, 0.00, 0.00, 0.00, 0.01, 1.01
73, 0.00, 44031.84, 0.00, 0.00, 0.00, 0.00, 0.00, 0.00, 0.00, 0.01, 1.01
74, 0.00, 44013.22, 0.00, 0.00, 0.00, 0.00, 0.00, 0.00, 0.00, 0.01, 1.01
75, 0.00, 44016.08, 0.00, 0.00, 0.00, 0.00, 0.00, 0.00, 0.00, 0.01, 1.01
76, 0.00, 44034.45, 0.00, 0.00, 0.00, 0.00, 0.00, 0.00, 0.00, 0.01, 1.01
77, 0.00, 44030.27, 0.00, 0.00, 0.00, 0.00, 0.00, 0.00, 0.00, 0.01, 1.01
78, 0.00, 44012.80, 0.00, 0.00, 0.00, 0.00, 0.00, 0.00, 0.00, 0.01, 1.01
79, 0.00, 44022.39, 0.00, 0.00, 0.00, 0.00, 0.00, 0.00, 0.00, 0.01, 1.01
80, 0.00, 44041.52, 0.00, 0.00, 0.00, 0.00, 0.00, 0.00, 0.00, 0.01, 1.01
81, 0.00, 44017.07, 0.00, 0.00, 0.00, 0.00, 0.00, 0.00, 0.00, 0.01, 1.01
82, 0.00, 43982.15, 0.00, 0.00, 0.00, 0.00, 0.00, 0.00, 0.01, 0.01, 1.00
83, 0.00, 43975.49, 0.00, 0.00, 0.00, 0.00, 0.00, 0.00, 0.01, 0.01, 1.00
84, 0.00, 43989.24, 0.00, 0.00, 0.00, 0.00, 0.00, 0.00, 0.01, 0.01, 1.00
85, 0.00, 43996.68, 0.00, 0.00, 0.00, 0.00, 0.00, 0.00, 0.01, 0.01, 1.00
86, 0.00, 43963.18, 0.00, 0.00, 0.00, 0.00, 0.00, 0.00, 0.01, 0.01, 1.00
87, 0.00, 43943.33, 0.00, 0.00, 0.00, 0.00, 0.00, 0.00, 0.01, 0.01, 1.01
88, 0.00, 43956.96, 0.00, 0.00, 0.00, 0.00, 0.00, 0.00, 0.01, 0.01, 1.01
89, 0.00, 43964.38, 0.00, 0.00, 0.00, 0.00, 0.00, 0.00, 0.01, 0.01, 1.01
90, 0.00, 43949.14, 0.00, 0.00, 0.00, 0.00, 0.00, 0.00, 0.01, 0.01, 1.01
91, 0.00, 43915.21, 0.00, 0.00, 0.00, 0.00, 0.00, 0.00, 0.01, 0.01, 1.01
92, 0.00, 43933.74, 0.00, 0.00, 0.00, 0.00, 0.00, 0.00, 0.01, 0.01, 1.01
93, 0.00, 43950.93, 0.00, 0.00, 0.00, 0.00, 0.00, 0.00, 0.01, 0.01, 1.01
94, 0.00, 43940.36, 0.00, 0.00, 0.00, 0.00, 0.00, 0.00, 0.01, 0.01, 1.01
95, 0.00, 43921.20, 0.00, 0.00, 0.00, 0.00, 0.00, 0.00, 0.01, 0.01, 1.01
96, 0.00, 43930.41, 0.00, 0.00, 0.00, 0.00, 0.00, 0.00, 0.01, 0.01, 1.01
97, 0.00, 43961.63, 0.00, 0.00, 0.00, 0.00, 0.00, 0.00, 0.01, 0.01, 1.01
98, 0.00, 43955.38, 0.00, 0.00, 0.00, 0.00, 0.00, 0.00, 0.01, 0.01, 1.01
99, 0.00, 43931.86, 0.00, 0.00, 0.00, 0.00, 0.00, 0.00, 0.01, 0.01, 1.01
100, 0.00, 43939.04, 0.00, 0.00, 0.00, 0.00, 0.00, 0.00, 0.01, 0.01, 1.01
101, 0.00, 43966.75, 0.00, 0.00, 0.00, 0.00, 0.00, 0.00, 0.01, 0.01, 1.01
102, 0.00, 43959.26, 0.00, 0.00, 0.00, 0.00, 0.00, 0.00, 0.01, 0.01, 1.01
103, 0.00, 43940.22, 0.00, 0.00, 0.00, 0.00, 0.00, 0.00, 0.01, 0.01, 1.01
104, 0.00, 43935.13, 0.00, 0.00, 0.00, 0.00, 0.00, 0.00, 0.01, 0.01, 1.01
105, 0.00, 43964.61, 0.00, 0.00, 0.00, 0.00, 0.00, 0.00, 0.01, 0.01, 1.01
106, 0.00, 43976.99, 0.00, 0.00, 0.00, 0.00, 0.00, 0.00, 0.01, 0.01, 1.01
107, 0.00, 43954.46, 0.00, 0.00, 0.00, 0.00, 0.00, 0.00, 0.01, 0.01, 1.02
108, 0.00, 43950.48, 0.00, 0.00, 0.00, 0.00, 0.00, 0.00, 0.01, 0.01, 1.02
109, 0.00, 43970.33, 0.00, 0.00, 0.00, 0.00, 0.00, 0.00, 0.01, 0.01, 1.02
110, 0.00, 43983.43, 0.00, 0.00, 0.00, 0.00, 0.00, 0.00, 0.01, 0.01, 1.02
111, 0.00, 43967.55, 0.00, 0.00, 0.00, 0.00, 0.00, 0.00, 0.01, 0.01, 1.02
112, 0.00, 43958.06, 0.00, 0.00, 0.00, 0.00, 0.00, 0.00, 0.01, 0.01, 1.02
113, 0.00, 43978.02, 0.00, 0.00, 0.00, 0.00, 0.00, 0.00, 0.01, 0.01, 1.02
114, 0.00, 43991.16, 0.00, 0.00, 0.00, 0.00, 0.00, 0.00, 0.01, 0.01, 1.02
115, 0.00, 43975.65, 0.00, 0.00, 0.00, 0.00, 0.00, 0.00, 0.01, 0.01, 1.02
116, 0.00, 43963.27, 0.00, 0.00, 0.00, 0.00, 0.00, 0.00, 0.01, 0.01, 1.02
117, 0.00, 43971.82, 0.00, 0.00, 0.00, 0.00, 0.00, 0.00, 0.01, 0.01, 1.02
118, 0.00, 43994.54, 0.00, 0.00, 0.00, 0.00, 0.00, 0.00, 0.01, 0.01, 1.02
119, 0.00, 43989.66, 0.00, 0.00, 0.00, 0.00, 0.00, 0.00, 0.01, 0.01, 1.02
120, 0.00, 43969.23, 0.00, 0.00, 0.00, 0.00, 0.00, 0.00, 0.01, 0.01, 1.02
121, 0.00, 43977.79, 0.00, 0.00, 0.00, 0.00, 0.00, 0.00, 0.01, 0.01, 1.02
122, 0.00, 44002.74, 0.00, 0.00, 0.00, 0.00, 0.00, 0.00, 0.01, 0.01, 1.01
123, 0.00, 43996.84, 0.00, 0.00, 0.00, 0.00, 0.00, 0.00, 0.01, 0.01, 1.01
124, 0.00, 43973.39, 0.00, 0.00, 0.00, 0.00, 0.00, 0.00, 0.01, 0.01, 1.01
125, 0.00, 43969.32, 0.00, 0.00, 0.00, 0.00, 0.00, 0.00, 0.01, 0.01, 1.01
126, 0.00, 43988.14, 0.00, 0.00, 0.00, 0.00, 0.00, 0.00, 0.01, 0.01, 1.01
127, 0.00, 44001.48, 0.00, 0.00, 0.00, 0.00, 0.00, 0.00, 0.01, 0.01, 1.02
128, 0.00, 43984.41, 0.00, 0.00, 0.00, 0.00, 0.00, 0.00, 0.01, 0.01, 1.02
129, 0.00, 43947.20, 0.00, 0.00, 0.00, 0.00, 0.00, 0.00, 0.01, 0.01, 1.02
130, 0.00, 43944.38, 0.00, 0.00, 0.00, 0.00, 0.00, 0.00, 0.01, 0.01, 1.02
131, 0.00, 43941.27, 0.00, 0.00, 0.00, 0.00, 0.00, 0.00, 0.01, 0.01, 1.02
132, 0.00, 43916.35, 0.00, 0.00, 0.00, 0.00, 0.00, 0.00, 0.01, 0.01, 1.02
133, 0.00, 43900.48, 0.00, 0.00, 0.00, 0.00, 0.00, 0.00, 0.01, 0.01, 1.02
134, 0.00, 43915.01, 0.00, 0.00, 0.00, 0.00, 0.00, 0.00, 0.01, 0.01, 1.02
135, 0.00, 43923.10, 0.00, 0.00, 0.00, 0.00, 0.00, 0.00, 0.01, 0.01, 1.02
136, 0.00, 43895.81, 0.00, 0.00, 0.00, 0.00, 0.00, 0.00, 0.01, 0.01, 1.02
137, 0.00, 43881.73, 0.00, 0.00, 0.00, 0.00, 0.00, 0.00, 0.01, 0.02, 1.02
138, 0.00, 43894.58, 0.00, 0.00, 0.00, 0.00, 0.00, 0.00, 0.01, 0.02, 1.02
139, 0.00, 43912.82, 0.00, 0.00, 0.00, 0.00, 0.00, 0.00, 0.01, 0.02, 1.02
140, 0.00, 43904.03, 0.00, 0.00, 0.00, 0.00, 0.00, 0.00, 0.01, 0.02, 1.02
141, 0.00, 43893.97, 0.00, 0.00, 0.00, 0.00, 0.00, 0.00, 0.01, 0.02, 1.02
142, 0.00, 43911.70, 0.00, 0.00, 0.00, 0.00, 0.00, 0.00, 0.01, 0.02, 1.02
143, 0.00, 43930.18, 0.00, 0.00, 0.00, 0.00, 0.00, 0.00, 0.02, 0.01, 1.02
144, 0.00, 43920.28, 0.00, 0.00, 0.00, 0.00, 0.00, 0.00, 0.02, 0.01, 1.02
145, 0.00, 43901.33, 0.00, 0.00, 0.00, 0.00, 0.00, 0.00, 0.02, 0.01, 1.02
146, 0.00, 43903.81, 0.00, 0.00, 0.00, 0.00, 0.00, 0.00, 0.02, 0.01, 1.02
147, 0.00, 43935.30, 0.00, 0.00, 0.00, 0.00, 0.00, 0.00, 0.02, 0.01, 1.02
148, 0.00, 43926.83, 0.00, 0.00, 0.00, 0.00, 0.00, 0.00, 0.01, 0.01, 1.02
149, 0.00, 43894.60, 0.00, 0.00, 0.00, 0.00, 0.00, 0.00, 0.01, 0.01, 1.02
150, 0.00, 43896.34, 0.00, 0.00, 0.00, 0.00, 0.00, 0.00, 0.01, 0.01, 1.02
151, 0.00, 43916.21, 0.00, 0.00, 0.00, 0.00, 0.00, 0.00, 0.01, 0.01, 1.02
152, 0.00, 43913.04, 0.00, 0.00, 0.00, 0.00, 0.00, 0.00, 0.01, 0.01, 1.02
153, 0.00, 43896.88, 0.00, 0.00, 0.00, 0.00, 0.00, 0.00, 0.00, 0.01, 1.02
154, 0.00, 43893.77, 0.00, 0.00, 0.00, 0.00, 0.00, 0.00, 0.00, 0.01, 1.02
155, 0.00, 43919.41, 0.00, 0.00, 0.00, 0.00, 0.00, 0.00, 0.00, 0.01, 1.02
156, 0.00, 43927.34, 0.00, 0.00, 0.00, 0.00, 0.00, 0.00, 0.00, 0.01, 1.02
157, 0.00, 43903.83, 0.00, 0.00, 0.00, 0.00, 0.00, 0.00, 0.00, 0.01, 1.02
158, 0.00, 43902.67, 0.00, 0.00, 0.00, 0.00, 0.00, 0.00, 0.01, 0.01, 1.02
159, 0.00, 43920.46, 0.00, 0.00, 0.00, 0.00, 0.00, 0.00, 0.01, 0.01, 1.02
160, 0.00, 43933.20, 0.00, 0.00, 0.00, 0.00, 0.00, 0.00, 0.01, 0.01, 1.02
161, 0.00, 43909.78, 0.00, 0.00, 0.00, 0.00, 0.00, 0.00, 0.01, 0.01, 1.02
162, 0.00, 43892.61, 0.00, 0.00, 0.00, 0.00, 0.00, 0.00, 0.01, 0.01, 1.02
163, 0.00, 43908.30, 0.00, 0.00, 0.00, 0.00, 0.00, 0.00, 0.01, 0.01, 1.02
164, 0.00, 43933.38, 0.00, 0.00, 0.00, 0.00, 0.00, 0.00, 0.01, 0.01, 1.02
165, 0.00, 43920.37, 0.00, 0.00, 0.00, 0.00, 0.00, 0.00, 0.01, 0.01, 1.02
166, 0.00, 43903.88, 0.00, 0.00, 0.00, 0.00, 0.00, 0.00, 0.01, 0.01, 1.02
167, 0.00, 43908.79, 0.00, 0.00, 0.00, 0.00, 0.00, 0.00, 0.01, 0.01, 1.02
168, 0.00, 43926.23, 0.00, 0.00, 0.00, 0.00, 0.00, 0.00, 0.01, 0.01, 1.02
169, 0.00, 43913.42, 0.00, 0.00, 0.00, 0.00, 0.00, 0.00, 0.01, 0.01, 1.02
170, 0.00, 43898.00, 0.00, 0.00, 0.00, 0.00, 0.00, 0.00, 0.01, 0.01, 1.02
171, 0.00, 43902.25, 0.00, 0.00, 0.00, 0.00, 0.00, 0.00, 0.01, 0.01, 1.02
172, 0.00, 43926.94, 0.00, 0.00, 0.00, 0.00, 0.00, 0.00, 0.01, 0.01, 1.02
173, 0.00, 43924.11, 0.00, 0.00, 0.00, 0.00, 0.00, 0.00, 0.01, 0.01, 1.02
174, 0.00, 43904.17, 0.00, 0.00, 0.00, 0.00, 0.00, 0.00, 0.01, 0.01, 1.02
175, 0.00, 43901.86, 0.00, 0.00, 0.00, 0.00, 0.00, 0.00, 0.01, 0.01, 1.02
176, 0.00, 43926.27, 0.00, 0.00, 0.00, 0.00, 0.00, 0.00, 0.01, 0.01, 1.02
177, 0.00, 43931.68, 0.00, 0.00, 0.00, 0.00, 0.00, 0.00, 0.01, 0.01, 1.02
178, 0.00, 43912.75, 0.00, 0.00, 0.00, 0.00, 0.00, 0.00, 0.01, 0.01, 1.02
179, 0.00, 43912.28, 0.00, 0.00, 0.00, 0.00, 0.00, 0.00, 0.01, 0.01, 1.02
180, 0.00, 43920.59, 0.00, 0.00, 0.00, 0.00, 0.00, 0.00, 0.01, 0.01, 1.02
181, 0.00, 43919.12, 0.00, 0.00, 0.00, 0.00, 0.00, 0.00, 0.01, 0.01, 1.02
182, 0.00, 43905.66, 0.00, 0.00, 0.00, 0.00, 0.00, 0.00, 0.01, 0.01, 1.02
183, 0.00, 43896.05, 0.00, 0.00, 0.00, 0.00, 0.00, 0.00, 0.01, 0.01, 1.02
184, 0.00, 43909.75, 0.00, 0.00, 0.00, 0.00, 0.00, 0.00, 0.01, 0.01, 1.02
185, 0.00, 43930.59, 0.00, 0.00, 0.00, 0.00, 0.00, 0.00, 0.01, 0.01, 1.02
186, 0.00, 43910.09, 0.00, 0.00, 0.00, 0.00, 0.00, 0.00, 0.01, 0.01, 1.02
187, 0.00, 43899.79, 0.00, 0.00, 0.00, 0.00, 0.00, 0.00, 0.01, 0.01, 1.02
188, 0.00, 43915.48, 0.00, 0.00, 0.00, 0.00, 0.00, 0.00, 0.01, 0.01, 1.02
189, 0.00, 43935.75, 0.00, 0.00, 0.00, 0.00, 0.00, 0.00, 0.01, 0.01, 1.02
190, 0.00, 43916.01, 0.00, 0.00, 0.00, 0.00, 0.00, 0.00, 0.01, 0.01, 1.02
191, 0.00, 43897.55, 0.00, 0.00, 0.00, 0.00, 0.00, 0.00, 0.01, 0.01, 1.02
192, 0.00, 43910.78, 0.00, 0.00, 0.00, 0.00, 0.00, 0.00, 0.01, 0.01, 1.02
193, 0.00, 43934.09, 0.00, 0.00, 0.00, 0.00, 0.00, 0.00, 0.01, 0.01, 1.02
194, 0.00, 43926.18, 0.00, 0.00, 0.00, 0.00, 0.00, 0.00, 0.01, 0.01, 1.02
195, 0.00, 43903.88, 0.00, 0.00, 0.00, 0.00, 0.00, 0.00, 0.01, 0.01, 1.02
196, 0.00, 43908.48, 0.00, 0.00, 0.00, 0.00, 0.00, 0.00, 0.01, 0.01, 1.02
197, 0.00, 43924.60, 0.00, 0.00, 0.00, 0.00, 0.00, 0.00, 0.01, 0.01, 1.02
198, 0.00, 43925.33, 0.00, 0.00, 0.00, 0.00, 0.00, 0.00, 0.01, 0.01, 1.01
199, 0.00, 43902.71, 0.00, 0.00, 0.00, 0.00, 0.00, 0.00, 0.01, 0.01, 1.01
200, 0.00, 43899.85, 0.00, 0.00, 0.00, 0.00, 0.00, 0.00, 0.01, 0.01, 1.01
201, 0.00, 43925.38, 0.00, 0.00, 0.00, 0.00, 0.00, 0.00, 0.01, 0.01, 1.01
202, 0.00, 43930.59, 0.00, 0.00, 0.00, 0.00, 0.00, 0.00, 0.01, 0.01, 1.01
203, 0.00, 43906.89, 0.00, 0.00, 0.00, 0.00, 0.00, 0.00, 0.02, 0.01, 1.02
204, 0.00, 43895.34, 0.00, 0.00, 0.00, 0.00, 0.00, 0.00, 0.02, 0.01, 1.02
205, 0.00, 43916.68, 0.00, 0.00, 0.00, 0.00, 0.00, 0.00, 0.02, 0.01, 1.02
206, 0.00, 43922.11, 0.00, 0.00, 0.00, 0.00, 0.00, 0.00, 0.02, 0.01, 1.02
207, 0.00, 43899.03, 0.00, 0.00, 0.00, 0.00, 0.00, 0.00, 0.02, 0.01, 1.02
208, 0.00, 43891.02, 0.00, 0.00, 0.00, 0.00, 0.00, 0.00, 0.01, 0.01, 1.02
209, 0.00, 43909.62, 0.00, 0.00, 0.00, 0.00, 0.00, 0.00, 0.01, 0.01, 1.02
210, 0.00, 43921.38, 0.00, 0.00, 0.00, 0.00, 0.00, 0.00, 0.01, 0.01, 1.02
211, 0.00, 43901.24, 0.00, 0.00, 0.00, 0.00, 0.00, 0.00, 0.01, 0.01, 1.02
212, 0.00, 43887.56, 0.00, 0.00, 0.00, 0.00, 0.00, 0.00, 0.01, 0.01, 1.02
213, 0.00, 43898.00, 0.00, 0.00, 0.00, 0.00, 0.00, 0.00, 0.01, 0.01, 1.02
214, 0.00, 43924.28, 0.00, 0.00, 0.00, 0.00, 0.00, 0.00, 0.01, 0.01, 1.02
215, 0.00, 43912.23, 0.00, 0.00, 0.00, 0.00, 0.00, 0.00, 0.01, 0.01, 1.02
216, 0.00, 43888.63, 0.00, 0.00, 0.00, 0.00, 0.00, 0.00, 0.01, 0.01, 1.02
217, 0.00, 43904.32, 0.00, 0.00, 0.00, 0.00, 0.00, 0.00, 0.01, 0.01, 1.02
218, 0.00, 43926.38, 0.00, 0.00, 0.00, 0.00, 0.00, 0.00, 0.02, 0.01, 1.02
219, 0.00, 43915.81, 0.00, 0.00, 0.00, 0.00, 0.00, 0.00, 0.02, 0.01, 1.02
220, 0.00, 43890.53, 0.00, 0.00, 0.00, 0.00, 0.00, 0.00, 0.02, 0.01, 1.02
221, 0.00, 43897.21, 0.00, 0.00, 0.00, 0.00, 0.00, 0.00, 0.02, 0.01, 1.02
222, 0.00, 43926.18, 0.00, 0.00, 0.00, 0.00, 0.00, 0.00, 0.02, 0.01, 1.02
223, 0.00, 43923.12, 0.00, 0.00, 0.00, 0.00, 0.00, 0.00, 0.01, 0.01, 1.02
224, 0.00, 43900.34, 0.00, 0.00, 0.00, 0.00, 0.00, 0.00, 0.01, 0.01, 1.02
225, 0.00, 43901.48, 0.00, 0.00, 0.00, 0.00, 0.00, 0.00, 0.01, 0.01, 1.02
226, 0.00, 43925.49, 0.00, 0.00, 0.00, 0.00, 0.00, 0.00, 0.01, 0.01, 1.02
227, 0.00, 43926.12, 0.00, 0.00, 0.00, 0.00, 0.00, 0.00, 0.01, 0.01, 1.02
228, 0.00, 43907.56, 0.00, 0.00, 0.00, 0.00, 0.00, 0.00, 0.01, 0.01, 1.02
229, 0.00, 43894.55, 0.00, 0.00, 0.00, 0.00, 0.00, 0.00, 0.01, 0.01, 1.02
230, 0.00, 43924.84, 0.00, 0.00, 0.00, 0.00, 0.00, 0.00, 0.01, 0.01, 1.02
231, 0.00, 43940.67, 0.00, 0.00, 0.00, 0.00, 0.00, 0.00, 0.01, 0.01, 1.02
232, 0.00, 43917.89, 0.00, 0.00, 0.00, 0.00, 0.00, 0.00, 0.01, 0.01, 1.02
233, 0.00, 43905.89, 0.00, 0.00, 0.00, 0.00, 0.00, 0.00, 0.01, 0.01, 1.02
234, 0.00, 43917.51, 0.00, 0.00, 0.00, 0.00, 0.00, 0.00, 0.01, 0.01, 1.02
235, 0.00, 43938.01, 0.00, 0.00, 0.00, 0.00, 0.00, 0.00, 0.01, 0.01, 1.02
236, 0.00, 43922.70, 0.00, 0.00, 0.00, 0.00, 0.00, 0.00, 0.01, 0.01, 1.02
237, 0.00, 43910.22, 0.00, 0.00, 0.00, 0.00, 0.00, 0.00, 0.01, 0.01, 1.02
238, 0.00, 43920.08, 0.00, 0.00, 0.00, 0.00, 0.00, 0.00, 0.01, 0.01, 1.02
239, 0.00, 43931.59, 0.00, 0.00, 0.00, 0.00, 0.00, 0.00, 0.01, 0.01, 1.02
240, 0.00, 43920.53, 0.00, 0.00, 0.00, 0.00, 0.00, 0.00, 0.01, 0.01, 1.02
241, 0.00, 43905.06, 0.00, 0.00, 0.00, 0.00, 0.00, 0.00, 0.01, 0.01, 1.02
242, 0.00, 43909.78, 0.00, 0.00, 0.00, 0.00, 0.00, 0.00, 0.01, 0.01, 1.02
243, 0.00, 43928.42, 0.00, 0.00, 0.00, 0.00, 0.00, 0.00, 0.01, 0.01, 1.02
244, 0.00, 43920.10, 0.00, 0.00, 0.00, 0.00, 0.00, 0.00, 0.01, 0.01, 1.02
245, 0.00, 43894.80, 0.00, 0.00, 0.00, 0.00, 0.00, 0.00, 0.01, 0.01, 1.02
246, 0.00, 43899.47, 0.00, 0.00, 0.00, 0.00, 0.00, 0.00, 0.01, 0.01, 1.02
247, 0.00, 43926.29, 0.00, 0.00, 0.00, 0.00, 0.00, 0.00, 0.01, 0.01, 1.02
248, 0.00, 43921.47, 0.00, 0.00, 0.00, 0.00, 0.00, 0.00, 0.01, 0.00, 1.02
249, 0.00, 43897.73, 0.00, 0.00, 0.00, 0.00, 0.00, 0.00, 0.01, 0.00, 1.02
250, 0.00, 43899.11, 0.00, 0.00, 0.00, 0.00, 0.00, 0.00, 0.01, 0.00, 1.02
251, 0.00, 43932.02, 0.00, 0.00, 0.00, 0.00, 0.00, 0.00, 0.01, 0.00, 1.02
252, 0.00, 43934.32, 0.00, 0.00, 0.00, 0.00, 0.00, 0.00, 0.01, 0.00, 1.02
253, 0.00, 43913.04, 0.00, 0.00, 0.00, 0.00, 0.00, 0.00, 0.01, 0.01, 1.02
254, 0.00, 43900.32, 0.00, 0.00, 0.00, 0.00, 0.00, 0.00, 0.01, 0.01, 1.02
255, 0.00, 43920.30, 0.00, 0.00, 0.00, 0.00, 0.00, 0.00, 0.01, 0.01, 1.02
0, 0.00, 43932.31, 0.00, 0.00, 0.00, 0.00, 0.00, 0.00, 0.01, 0.01, 1.02
1, 0.00, 43907.39, 0.00, 0.00, 0.00, 0.00, 0.00, 0.00, 0.01, 0.01, 1.02
2, 0.00, 43902.47, 0.00, 0.00, 0.00, 0.00, 0.00, 0.00, 0.02, 0.01, 1.01
3, 0.00, 43921.49, 0.00, 0.00, 0.00, 0.00, 0.00, 0.00, 0.02, 0.01, 1.01
4, 0.00, 43936.00, 0.00, 0.00, 0.00, 0.00, 0.00, 0.00, 0.02, 0.01, 1.01
5, 0.00, 43917.53, 0.00, 0.00, 0.00, 0.00, 0.00, 0.00, 0.02, 0.01, 1.01
6, 0.00, 43899.63, 0.00, 0.00, 0.00, 0.00, 0.00, 0.00, 0.02, 0.01, 1.01
7, 0.00, 43910.13, 0.00, 0.00, 0.00, 0.00, 0.00, 0.00, 0.01, 0.01, 1.01
8, 0.00, 43930.88, 0.00, 0.00, 0.00, 0.00, 0.00, 0.00, 0.01, 0.01, 1.01
9, 0.00, 43917.15, 0.00, 0.00, 0.00, 0.00, 0.00, 0.00, 0.01, 0.01, 1.01
10, 0.00, 43896.05, 0.00, 0.00, 0.00, 0.00, 0.00, 0.00, 0.01, 0.01, 1.01
11, 0.00, 43908.97, 0.00, 0.00, 0.00, 0.00, 0.00, 0.00, 0.01, 0.01, 1.01
12, 0.00, 43931.32, 0.00, 0.00, 0.00, 0.00, 0.00, 0.00, 0.01, 0.01, 1.02
13, 0.00, 43920.64, 0.00, 0.00, 0.00, 0.00, 0.00, 0.00, 0.01, 0.01, 1.02
14, 0.00, 43897.53, 0.00, 0.00, 0.00, 0.00, 0.00, 0.00, 0.01, 0.01, 1.02
15, 0.00, 43898.55, 0.00, 0.00, 0.00, 0.00, 0.00, 0.00, 0.01, 0.01, 1.02
16, 0.00, 43918.74, 0.00, 0.00, 0.00, 0.00, 0.00, 0.00, 0.01, 0.01, 1.02
17, 0.00, 43916.19, 0.00, 0.00, 0.00, 0.00, 0.00, 0.00, 0.01, 0.01, 1.02
18, 0.00, 43890.75, 0.00, 0.00, 0.00, 0.00, 0.00, 0.00, 0.01, 0.01, 1.02
19, 0.00, 43891.74, 0.00, 0.00, 0.00, 0.00, 0.00, 0.00, 0.01, 0.01, 1.02
20, 0.00, 43921.36, 0.00, 0.00, 0.00, 0.00, 0.00, 0.00, 0.01, 0.01, 1.02
21, 0.00, 43929.96, 0.00, 0.00, 0.00, 0.00, 0.00, 0.00, 0.01, 0.01, 1.02
22, 0.00, 43905.51, 0.00, 0.00, 0.00, 0.00, 0.00, 0.00, 0.01, 0.01, 1.02
23, 0.00, 43896.88, 0.00, 0.00, 0.00, 0.00, 0.00, 0.00, 0.01, 0.01, 1.02
24, 0.00, 43917.62, 0.00, 0.00, 0.00, 0.00, 0.00, 0.00, 0.01, 0.01, 1.02
25, 0.00, 43921.76, 0.00, 0.00, 0.00, 0.00, 0.00, 0.00, 0.01, 0.01, 1.02
26, 0.00, 43908.52, 0.00, 0.00, 0.00, 0.00, 0.00, 0.00, 0.01, 0.01, 1.02
27, 0.00, 43898.85, 0.00, 0.00, 0.00, 0.00, 0.00, 0.00, 0.01, 0.01, 1.02
28, 0.00, 43912.39, 0.00, 0.00, 0.00, 0.00, 0.00, 0.00, 0.01, 0.01, 1.02
29, 0.00, 43935.88, 0.00, 0.00, 0.00, 0.00, 0.00, 0.00, 0.01, 0.01, 1.02
30, 0.00, 43922.45, 0.00, 0.00, 0.00, 0.00, 0.00, 0.00, 0.01, 0.01, 1.02
31, 0.00, 43900.25, 0.00, 0.00, 0.00, 0.00, 0.00, 0.00, 0.01, 0.01, 1.02
32, 0.00, 43910.09, 0.00, 0.00, 0.00, 0.00, 0.00, 0.00, 0.01, 0.01, 1.02
33, 0.00, 43936.22, 0.00, 0.00, 0.00, 0.00, 0.00, 0.00, 0.01, 0.01, 1.02
34, 0.00, 43923.61, 0.00, 0.00, 0.00, 0.00, 0.00, 0.00, 0.01, 0.01, 1.02
35, 0.00, 43899.96, 0.00, 0.00, 0.00, 0.00, 0.00, 0.00, 0.01, 0.01, 1.02
36, 0.00, 43904.84, 0.00, 0.00, 0.00, 0.00, 0.00, 0.00, 0.01, 0.01, 1.02
37, 0.00, 43931.30, 0.00, 0.00, 0.00, 0.00, 0.00, 0.00, 0.01, 0.01, 1.02
38, 0.00, 43927.08, 0.00, 0.00, 0.00, 0.00, 0.00, 0.00, 0.01, 0.01, 1.02
39, 0.00, 43910.80, 0.00, 0.00, 0.00, 0.00, 0.00, 0.00, 0.01, 0.01, 1.02
40, 0.00, 43911.77, 0.00, 0.00, 0.00, 0.00, 0.00, 0.00, 0.01, 0.01, 1.02
41, 0.00, 43926.18, 0.00, 0.00, 0.00, 0.00, 0.00, 0.00, 0.01, 0.01, 1.02
42, 0.00, 43923.72, 0.00, 0.00, 0.00, 0.00, 0.00, 0.00, 0.01, 0.01, 1.01
43, 0.00, 43902.87, 0.00, 0.00, 0.00, 0.00, 0.00, 0.00, 0.01, 0.01, 1.01
44, 0.00, 43897.68, 0.00, 0.00, 0.00, 0.00, 0.00, 0.00, 0.01, 0.01, 1.01
45, 0.00, 43929.80, 0.00, 0.00, 0.00, 0.00, 0.00, 0.00, 0.01, 0.01, 1.01
46, 0.00, 43934.72, 0.00, 0.00, 0.00, 0.00, 0.00, 0.00, 0.01, 0.01, 1.01
47, 0.00, 43906.45, 0.00, 0.00, 0.00, 0.00, 0.00, 0.00, 0.01, 0.01, 1.01
48, 0.00, 43902.31, 0.00, 0.00, 0.00, 0.00, 0.00, 0.00, 0.01, 0.01, 1.01
49, 0.00, 43926.86, 0.00, 0.00, 0.00, 0.00, 0.00, 0.00, 0.01, 0.01, 1.01
50, 0.00, 43938.59, 0.00, 0.00, 0.00, 0.00, 0.00, 0.00, 0.01, 0.01, 1.01
51, 0.00, 43935.35, 0.00, 0.00, 0.00, 0.00, 0.00, 0.00, 0.01, 0.01, 1.01
52, 0.00, 43938.36, 0.00, 0.00, 0.00, 0.00, 0.00, 0.00, 0.01, 0.01, 1.02
53, 0.00, 43935.28, 0.00, 0.00, 0.00, 0.00, 0.00, 0.00, 0.01, 0.01, 1.02
54, 0.00, 43940.00, 0.00, 0.00, 0.00, 0.00, 0.00, 0.00, 0.01, 0.01, 1.02
55, 0.00, 43933.05, 0.00, 0.00, 0.00, 0.00, 0.00, 0.00, 0.01, 0.01, 1.02
56, 0.00, 43908.84, 0.00, 0.00, 0.00, 0.00, 0.00, 0.00, 0.01, 0.01, 1.02
57, 0.00, 43915.19, 0.00, 0.00, 0.00, 0.00, 0.00, 0.00, 0.01, 0.01, 1.02
58, 0.00, 43941.27, 0.00, 0.00, 0.00, 0.00, 0.00, 0.00, 0.01, 0.01, 1.02
59, 0.00, 43944.58, 0.00, 0.00, 0.00, 0.00, 0.00, 0.00, 0.01, 0.01, 1.02
60, 0.00, 43919.63, 0.00, 0.00, 0.00, 0.00, 0.00, 0.00, 0.01, 0.01, 1.02
61, 0.00, 43926.63, 0.00, 0.00, 0.00, 0.00, 0.00, 0.00, 0.01, 0.01, 1.02
62, 0.00, 43958.59, 0.00, 0.00, 0.00, 0.00, 0.00, 0.00, 0.01, 0.01, 1.02
63, 0.00, 43969.61, 0.00, 0.00, 0.00, 0.00, 0.00, 0.00, 0.01, 0.01, 1.02
64, 0.00, 43944.49, 0.00, 0.00, 0.00, 0.00, 0.00, 0.00, 0.01, 0.01, 1.02
65, 0.00, 43948.07, 0.00, 0.00, 0.00, 0.00, 0.00, 0.00, 0.01, 0.01, 1.02
66, 0.00, 43980.18, 0.00, 0.00, 0.00, 0.00, 0.00, 0.00, 0.01, 0.01, 1.02
67, 0.00, 43979.94, 0.00, 0.00, 0.00, 0.00, 0.00, 0.00, 0.00, 0.00, 1.03
68, 0.00, 43957.43, 0.00, 0.00, 0.00, 0.00, 0.00, 0.00, 0.00, 0.00, 1.03
69, 0.00, 43957.99, 0.00, 0.00, 0.00, 0.00, 0.00, 0.00, 0.00, 0.00, 1.03
70, 0.00, 43981.53, 0.00, 0.00, 0.00, 0.00, 0.00, 0.00, 0.00, 0.00, 1.03
71, 0.00, 43997.06, 0.00, 0.00, 0.00, 0.00, 0.00, 0.00, 0.00, 0.00, 1.03
72, 0.00, 43973.32, 0.00, 0.00, 0.00, 0.00, 0.00, 0.00, 0.00, 0.00, 1.02
73, 0.00, 43967.85, 0.00, 0.00, 0.00, 0.00, 0.00, 0.00, 0.00, 0.00, 1.02
74, 0.00, 43987.89, 0.00, 0.00, 0.00, 0.00, 0.00, 0.00, 0.00, 0.00, 1.02
75, 0.00, 44004.05, 0.00, 0.00, 0.00, 0.00, 0.00, 0.00, 0.00, 0.00, 1.02
76, 0.00, 43986.31, 0.00, 0.00, 0.00, 0.00, 0.00, 0.00, 0.00, 0.00, 1.02
77, 0.00, 43974.82, 0.00, 0.00, 0.00, 0.00, 0.00, 0.00, 0.00, 0.01, 1.02
78, 0.00, 43986.91, 0.00, 0.00, 0.00, 0.00, 0.00, 0.00, 0.00, 0.01, 1.02
79, 0.00, 44011.07, 0.00, 0.00, 0.00, 0.00, 0.00, 0.00, 0.00, 0.01, 1.02
80, 0.00, 43997.42, 0.00, 0.00, 0.00, 0.00, 0.00, 0.00, 0.00, 0.01, 1.02
81, 0.00, 43974.06, 0.00, 0.00, 0.00, 0.00, 0.00, 0.00, 0.00, 0.01, 1.02
82, 0.00, 43985.75, 0.00, 0.00, 0.00, 0.00, 0.00, 0.00, -0.00, 0.01, 1.02
83, 0.00, 44011.12, 0.00, 0.00, 0.00, 0.00, 0.00, 0.00, -0.00, 0.01, 1.02
84, 0.00, 43999.90, 0.00, 0.00, 0.00, 0.00, 0.00, 0.00, -0.00, 0.01, 1.02
85, 0.00, 43975.91, 0.00, 0.00, 0.00, 0.00, 0.00, 0.00, -0.00, 0.01, 1.02
86, 0.00, 43989.39, 0.00, 0.00, 0.00, 0.00, 0.00, 0.00, -0.00, 0.01, 1.02
87, 0.00, 44014.41, 0.00, 0.00, 0.00, 0.00, 0.00, 0.00, 0.01, 0.01, 1.02
88, 0.00, 44004.13, 0.00, 0.00, 0.00, 0.00, 0.00, 0.00, 0.01, 0.01, 1.02
89, 0.00, 43982.71, 0.00, 0.00, 0.00, 0.00, 0.00, 0.00, 0.01, 0.01, 1.02
90, 0.00, 43981.84, 0.00, 0.00, 0.00, 0.00, 0.00, 0.00, 0.01, 0.01, 1.02
91, 0.00, 44005.89, 0.00, 0.00, 0.00, 0.00, 0.00, 0.00, 0.01, 0.01, 1.02
92, 0.00, 44006.52, 0.00, 0.00, 0.00, 0.00, 0.00, 0.00, 0.01, 0.01, 1.02
93, 0.00, 43980.32, 0.00, 0.00, 0.00, 0.00, 0.00, 0.00, 0.01, 0.01, 1.02
94, 0.00, 43973.12, 0.00, 0.00, 0.00, 0.00, 0.00, 0.00, 0.01, 0.01, 1.02
95, 0.00, 43995.63, 0.00, 0.00, 0.00, 0.00, 0.00, 0.00, 0.01, 0.01, 1.02
96, 0.00, 43997.02, 0.00, 0.00, 0.00, 0.00, 0.00, 0.00, 0.01, 0.01, 1.02
97, 0.00, 43976.59, 0.00, 0.00, 0.00, 0.00, 0.00, 0.00, 0.01, 0.01, 1.02
98, 0.00, 43964.61, 0.00, 0.00, 0.00, 0.00, 0.00, 0.00, 0.01, 0.01, 1.02
99, 0.00, 43979.09, 0.00, 0.00, 0.00, 0.00, 0.00, 0.00, 0.01, 0.01, 1.02
100, 0.00, 43992.10, 0.00, 0.00, 0.00, 0.00, 0.00, 0.00, 0.01, 0.01, 1.02
101, 0.00, 43974.04, 0.00, 0.00, 0.00, 0.00, 0.00, 0.00, 0.01, 0.01, 1.02
102, 0.00, 43963.15, 0.00, 0.00, 0.00, 0.00, 0.00, 0.00, 0.00, 0.01, 1.02
103, 0.00, 43974.84, 0.00, 0.00, 0.00, 0.00, 0.00, 0.00, 0.00, 0.01, 1.02
104, 0.00, 43993.95, 0.00, 0.00, 0.00, 0.00, 0.00, 0.00, 0.00, 0.01, 1.02
105, 0.00, 43979.54, 0.00, 0.00, 0.00, 0.00, 0.00, 0.00, 0.00, 0.01, 1.02
106, 0.00, 43959.58, 0.00, 0.00, 0.00, 0.00, 0.00, 0.00, 0.00, 0.01, 1.02
107, 0.00, 43973.23, 0.00, 0.00, 0.00, 0.00, 0.00, 0.00, 0.01, 0.01, 1.02
108, 0.00, 43994.58, 0.00, 0.00, 0.00, 0.00, 0.00, 0.00, 0.01, 0.01, 1.02
109, 0.00, 43981.23, 0.00, 0.00, 0.00, 0.00, 0.00, 0.00, 0.01, 0.01, 1.02
110, 0.00, 43954.95, 0.00, 0.00, 0.00, 0.00, 0.00, 0.00, 0.01, 0.01, 1.02
111, 0.00, 43959.26, 0.00, 0.00, 0.00, 0.00, 0.00, 0.00, 0.01, 0.01, 1.02
112, 0.00, 43987.70, 0.00, 0.00, 0.00, 0.00, 0.00, 0.00, 0.01, 0.01, 1.02
113, 0.00, 43979.07, 0.00, 0.00, 0.00, 0.00, 0.00, 0.00, 0.01, 0.01, 1.02
114, 0.00, 43955.04, 0.00, 0.00, 0.00, 0.00, 0.00, 0.00, 0.01, 0.01, 1.02
115, 0.00, 43964.38, 0.00, 0.00, 0.00, 0.00, 0.00, 0.00, 0.01, 0.01, 1.02
116, 0.00, 43984.27, 0.00, 0.00, 0.00, 0.00, 0.00, 0.00, 0.01, 0.01, 1.02
117, 0.00, 43985.08, 0.00, 0.00, 0.00, 0.00, 0.00, 0.00, 0.01, 0.01, 1.02
118, 0.00, 43967.31, 0.00, 0.00, 0.00, 0.00, 0.00, 0.00, 0.01, 0.01, 1.01
119, 0.00, 43962.84, 0.00, 0.00, 0.00, 0.00, 0.00, 0.00, 0.01, 0.01, 1.01
120, 0.00, 43989.10, 0.00, 0.00, 0.00, 0.00, 0.00, 0.00, 0.01, 0.01, 1.01
121, 0.00, 44015.10, 0.00, 0.00, 0.00, 0.00, 0.00, 0.00, 0.01, 0.01, 1.01
122, 0.00, 43973.21, 0.00, 0.00, 0.00, 0.00, 0.00, 0.00, 0.01, 0.01, 1.01
123, 0.00, 43938.81, 0.00, 0.00, 0.00, 0.00, 0.00, 0.00, 0.01, 0.01, 1.01
124, 0.00, 43968.29, 0.00, 0.00, 0.00, 0.00, 0.00, 0.00, 0.01, 0.01, 1.01
125, 0.00, 44006.02, 0.00, 0.00, 0.00, 0.00, 0.00, 0.00, 0.01, 0.01, 1.01
126, 0.00, 43980.03, 0.00, 0.00, 0.00, 0.00, 0.00, 0.00, 0.01, 0.01, 1.01
127, 0.00, 43969.55, 0.00, 0.00, 0.00, 0.00, 0.00, 0.00, 0.01, 0.01, 1.01
128, 0.00, 43981.26, 0.00, 0.00, 0.00, 0.00, 0.00, 0.00, 0.01, 0.01, 1.02
129, 0.00, 44002.78, 0.00, 0.00, 0.00, 0.00, 0.00, 0.00, 0.01, 0.01, 1.02
130, 0.00, 43999.32, 0.00, 0.00, 0.00, 0.00, 0.00, 0.00, 0.01, 0.01, 1.02
131, 0.00, 43972.05, 0.00, 0.00, 0.00, 0.00, 0.00, 0.00, 0.01, 0.01, 1.02
132, 0.00, 43980.77, 0.00, 0.00, 0.00, 0.00, 0.00, 0.00, 0.01, 0.01, 1.02
133, 0.00, 44010.23, 0.00, 0.00, 0.00, 0.00, 0.00, 0.00, 0.01, 0.01, 1.02
134, 0.00, 44003.83, 0.00, 0.00, 0.00, 0.00, 0.00, 0.00, 0.01, 0.01, 1.02
135, 0.00, 43979.74, 0.00, 0.00, 0.00, 0.00, 0.00, 0.00, 0.01, 0.01, 1.02
136, 0.00, 43984.79, 0.00, 0.00, 0.00, 0.00, 0.00, 0.00, 0.01, 0.01, 1.02
137, 0.00, 44004.86, 0.00, 0.00, 0.00, 0.00, 0.00, 0.00, 0.01, 0.01, 1.02
138, 0.00, 44012.33, 0.00, 0.00, 0.00, 0.00, 0.00, 0.00, 0.01, 0.02, 1.01
139, 0.00, 43987.23, 0.00, 0.00, 0.00, 0.00, 0.00, 0.00, 0.01, 0.02, 1.01
140, 0.00, 43985.91, 0.00, 0.00, 0.00, 0.00, 0.00, 0.00, 0.01, 0.02, 1.01
141, 0.00, 44007.59, 0.00, 0.00, 0.00, 0.00, 0.00, 0.00, 0.01, 0.02, 1.01
142, 0.00, 44007.30, 0.00, 0.00, 0.00, 0.00, 0.00, 0.00, 0.01, 0.02, 1.01
143, 0.00, 43985.62, 0.00, 0.00, 0.00, 0.00, 0.00, 0.00, 0.01, 0.01, 1.02
144, 0.00, 43983.83, 0.00, 0.00, 0.00, 0.00, 0.00, 0.00, 0.01, 0.01, 1.02
145, 0.00, 44004.19, 0.00, 0.00, 0.00, 0.00, 0.00, 0.00, 0.01, 0.01, 1.02
146, 0.00, 44014.36, 0.00, 0.00, 0.00, 0.00, 0.00, 0.00, 0.01, 0.01, 1.02
147, 0.00, 43994.71, 0.00, 0.00, 0.00, 0.00, 0.00, 0.00, 0.01, 0.01, 1.02
148, 0.00, 43985.84, 0.00, 0.00, 0.00, 0.00, 0.00, 0.00, 0.02, 0.01, 1.02
149, 0.00, 44002.27, 0.00, 0.00, 0.00, 0.00, 0.00, 0.00, 0.02, 0.01, 1.02
150, 0.00, 44016.35, 0.00, 0.00, 0.00, 0.00, 0.00, 0.00, 0.02, 0.01, 1.02
151, 0.00, 43996.19, 0.00, 0.00, 0.00, 0.00, 0.00, 0.00, 0.02, 0.01, 1.02
152, 0.00, 43981.08, 0.00, 0.00, 0.00, 0.00, 0.00, 0.00, 0.02, 0.01, 1.02
153, 0.00, 44000.77, 0.00, 0.00, 0.00, 0.00, 0.00, 0.00, 0.01, 0.01, 1.02
154, 0.00, 44018.56, 0.00, 0.00, 0.00, 0.00, 0.00, 0.00, 0.01, 0.01, 1.02
155, 0.00, 44001.02, 0.00, 0.00, 0.00, 0.00, 0.00, 0.00, 0.01, 0.01, 1.02
156, 0.00, 43978.55, 0.00, 0.00, 0.00, 0.00, 0.00, 0.00, 0.01, 0.01, 1.02
157, 0.00, 43989.59, 0.00, 0.00, 0.00, 0.00, 0.00, 0.00, 0.01, 0.01, 1.02
158, 0.00, 44009.62, 0.00, 0.00, 0.00, 0.00, 0.00, 0.00, 0.01, 0.01, 1.02
159, 0.00, 44002.61, 0.00, 0.00, 0.00, 0.00, 0.00, 0.00, 0.01, 0.01, 1.02
160, 0.00, 43981.04, 0.00, 0.00, 0.00, 0.00, 0.00, 0.00, 0.01, 0.01, 1.02
161, 0.00, 43981.05, 0.00, 0.00, 0.00, 0.00, 0.00, 0.00, 0.01, 0.01, 1.02
162, 0.00, 44006.54, 0.00, 0.00, 0.00, 0.00, 0.00, 0.00, 0.01, 0.01, 1.02
163, 0.00, 44009.53, 0.00, 0.00, 0.00, 0.00, 0.00, 0.00, 0.01, 0.01, 1.02
164, 0.00, 43983.27, 0.00, 0.00, 0.00, 0.00, 0.00, 0.00, 0.01, 0.01, 1.02
165, 0.00, 43980.97, 0.00, 0.00, 0.00, 0.00, 0.00, 0.00, 0.01, 0.01, 1.02
166, 0.00, 44004.53, 0.00, 0.00, 0.00, 0.00, 0.00, 0.00, 0.01, 0.01, 1.02
167, 0.00, 44014.32, 0.00, 0.00, 0.00, 0.00, 0.00, 0.00, 0.01, 0.01, 1.02
168, 0.00, 43989.77, 0.00, 0.00, 0.00, 0.00, 0.00, 0.00, 0.01, 0.01, 1.01
169, 0.00, 43984.90, 0.00, 0.00, 0.00, 0.00, 0.00, 0.00, 0.01, 0.01, 1.01
170, 0.00, 44003.79, 0.00, 0.00, 0.00, 0.00, 0.00, 0.00, 0.01, 0.01, 1.01
171, 0.00, 44014.03, 0.00, 0.00, 0.00, 0.00, 0.00, 0.00, 0.01, 0.01, 1.01
172, 0.00, 43991.34, 0.00, 0.00, 0.00, 0.00, 0.00, 0.00, 0.01, 0.01, 1.01
173, 0.00, 43978.57, 0.00, 0.00, 0.00, 0.00, 0.00, 0.00, 0.01, 0.01, 1.01
174, 0.00, 43997.57, 0.00, 0.00, 0.00, 0.00, 0.00, 0.00, 0.01, 0.01, 1.01
175, 0.00, 44007.79, 0.00, 0.00, 0.00, 0.00, 0.00, 0.00, 0.01, 0.01, 1.01
176, 0.00, 43998.36, 0.00, 0.00, 0.00, 0.00, 0.00, 0.00, 0.01, 0.01, 1.01
177, 0.00, 43986.53, 0.00, 0.00, 0.00, 0.00, 0.00, 0.00, 0.01, 0.01, 1.01
178, 0.00, 43995.16, 0.00, 0.00, 0.00, 0.00, 0.00, 0.00, 0.01, 0.01, 1.02
179, 0.00, 44014.96, 0.00, 0.00, 0.00, 0.00, 0.00, 0.00, 0.01, 0.01, 1.02
180, 0.00, 44004.57, 0.00, 0.00, 0.00, 0.00, 0.00, 0.00, 0.01, 0.01, 1.02
181, 0.00, 43977.70, 0.00, 0.00, 0.00, 0.00, 0.00, 0.00, 0.01, 0.01, 1.02
182, 0.00, 43986.02, 0.00, 0.00, 0.00, 0.00, 0.00, 0.00, 0.01, 0.01, 1.02
183, 0.00, 44013.73, 0.00, 0.00, 0.00, 0.00, 0.00, 0.00, 0.01, 0.01, 1.02
184, 0.00, 43999.14, 0.00, 0.00, 0.00, 0.00, 0.00, 0.00, 0.01, 0.01, 1.02
185, 0.00, 43965.61, 0.00, 0.00, 0.00, 0.00, 0.00, 0.00, 0.01, 0.01, 1.02
186, 0.00, 43976.43, 0.00, 0.00, 0.00, 0.00, 0.00, 0.00, 0.01, 0.01, 1.02
187, 0.00, 44006.79, 0.00, 0.00, 0.00, 0.00, 0.00, 0.00, 0.01, 0.01, 1.02
188, 0.00, 44010.88, 0.00, 0.00, 0.00, 0.00, 0.00, 0.00, 0.01, 0.01, 1.02
189, 0.00, 43992.66, 0.00, 0.00, 0.00, 0.00, 0.00, 0.00, 0.01, 0.01, 1.02
190, 0.00, 43987.72, 0.00, 0.00, 0.00, 0.00, 0.00, 0.00, 0.01, 0.01, 1.02
191, 0.00, 44007.12, 0.00, 0.00, 0.00, 0.00, 0.00, 0.00, 0.01, 0.01, 1.02
192, 0.00, 44019.23, 0.00, 0.00, 0.00, 0.00, 0.00, 0.00, 0.01, 0.01, 1.02
193, 0.00, 43992.68, 0.00, 0.00, 0.00, 0.00, 0.00, 0.00, 0.01, 0.01, 1.02
194, 0.00, 43978.53, 0.00, 0.00, 0.00, 0.00, 0.00, 0.00, 0.01, 0.01, 1.02
195, 0.00, 43996.21, 0.00, 0.00, 0.00, 0.00, 0.00, 0.00, 0.01, 0.01, 1.02
196, 0.00, 44008.93, 0.00, 0.00, 0.00, 0.00, 0.00, 0.00, 0.01, 0.01, 1.02
197, 0.00, 43989.93, 0.00, 0.00, 0.00, 0.00, 0.00, 0.00, 0.01, 0.01, 1.02
198, 0.00, 43975.07, 0.00, 0.00, 0.00, 0.00, 0.00, 0.00, 0.01, 0.01, 1.02
199, 0.00, 43995.36, 0.00, 0.00, 0.00, 0.00, 0.00, 0.00, 0.01, 0.01, 1.02
200, 0.00, 44009.38, 0.00, 0.00, 0.00, 0.00, 0.00, 0.00, 0.01, 0.01, 1.02
201, 0.00, 43994.33, 0.00, 0.00, 0.00, 0.00, 0.00, 0.00, 0.01, 0.01, 1.02
202, 0.00, 43974.48, 0.00, 0.00, 0.00, 0.00, 0.00, 0.00, 0.01, 0.01, 1.02
203, 0.00, 43983.63, 0.00, 0.00, 0.00, 0.00, 0.00, 0.00, 0.01, 0.01, 1.03
204, 0.00, 44003.88, 0.00, 0.00, 0.00, 0.00, 0.00, 0.00, 0.01, 0.01, 1.03
205, 0.00, 43994.11, 0.00, 0.00, 0.00, 0.00, 0.00, 0.00, 0.01, 0.01, 1.03
206, 0.00, 43968.65, 0.00, 0.00, 0.00, 0.00, 0.00, 0.00, 0.01, 0.01, 1.03
207, 0.00, 43978.24, 0.00, 0.00, 0.00, 0.00, 0.00, 0.00, 0.01, 0.01, 1.03
208, 0.00, 43999.86, 0.00, 0.00, 0.00, 0.00, 0.00, 0.00, 0.01, 0.01, 1.02
209, 0.00, 43993.84, 0.00, 0.00, 0.00, 0.00, 0.00, 0.00, 0.01, 0.01, 1.02
210, 0.00, 43972.68, 0.00, 0.00, 0.00, 0.00, 0.00, 0.00, 0.01, 0.01, 1.02
211, 0.00, 43976.34, 0.00, 0.00, 0.00, 0.00, 0.00, 0.00, 0.01, 0.01, 1.02
212, 0.00, 43999.72, 0.00, 0.00, 0.00, 0.00, 0.00, 0.00, 0.01, 0.01, 1.02
213, 0.00, 44001.38, 0.00, 0.00, 0.00, 0.00, 0.00, 0.00, 0.01, 0.01, 1.02
214, 0.00, 43981.62, 0.00, 0.00, 0.00, 0.00, 0.00, 0.00, 0.01, 0.01, 1.02
215, 0.00, 43977.44, 0.00, 0.00, 0.00, 0.00, 0.00, 0.00, 0.01, 0.01, 1.02
216, 0.00, 44000.05, 0.00, 0.00, 0.00, 0.00, 0.00, 0.00, 0.01, 0.01, 1.02
217, 0.00, 44007.54, 0.00, 0.00, 0.00, 0.00, 0.00, 0.00, 0.01, 0.01, 1.02
218, 0.00, 43982.78, 0.00, 0.00, 0.00, 0.00, 0.00, 0.00, 0.01, 0.01, 1.01
219, 0.00, 43980.03, 0.00, 0.00, 0.00, 0.00, 0.00, 0.00, 0.01, 0.01, 1.01
220, 0.00, 43997.24, 0.00, 0.00, 0.00, 0.00, 0.00, 0.00, 0.01, 0.01, 1.01
221, 0.00, 44009.33, 0.00, 0.00, 0.00, 0.00, 0.00, 0.00, 0.01, 0.01, 1.01
222, 0.00, 43990.76, 0.00, 0.00, 0.00, 0.00, 0.00, 0.00, 0.01, 0.01, 1.01
223, 0.00, 43983.58, 0.00, 0.00, 0.00, 0.00, 0.00, 0.00, 0.01, 0.01, 1.02
224, 0.00, 44000.32, 0.00, 0.00, 0.00, 0.00, 0.00, 0.00, 0.01, 0.01, 1.02
225, 0.00, 44011.99, 0.00, 0.00, 0.00, 0.00, 0.00, 0.00, 0.01, 0.01, 1.02
226, 0.00, 43997.75, 0.00, 0.00, 0.00, 0.00, 0.00, 0.00, 0.01, 0.01, 1.02
227, 0.00, 43977.08, 0.00, 0.00, 0.00, 0.00, 0.00, 0.00, 0.01, 0.01, 1.02
228, 0.00, 43990.02, 0.00, 0.00, 0.00, 0.00, 0.00, 0.00, 0.01, 0.01, 1.03
229, 0.00, 44022.81, 0.00, 0.00, 0.00, 0.00, 0.00, 0.00, 0.01, 0.01, 1.03
230, 0.00, 44025.13, 0.00, 0.00, 0.00, 0.00, 0.00, 0.00, 0.01, 0.01, 1.03
231, 0.00, 43987.45, 0.00, 0.00, 0.00, 0.00, 0.00, 0.00, 0.01, 0.01, 1.03
232, 0.00, 43950.88, 0.00, 0.00, 0.00, 0.00, 0.00, 0.00, 0.01, 0.01, 1.03
233, 0.00, 43964.29, 0.00, 0.00, 0.00, 0.00, 0.00, 0.00, 0.01, 0.01, 1.03
234, 0.00, 43943.06, 0.00, 0.00, 0.00, 0.00, 0.00, 0.00, 0.01, 0.01, 1.03
235, 0.00, 43905.02, 0.00, 0.00, 0.00, 0.00, 0.00, 0.00, 0.01, 0.01, 1.03
236, 0.00, 43883.58, 0.00, 0.00, 0.00, 0.00, 0.00, 0.00, 0.01, 0.01, 1.03
237, 0.00, 43889.79, 0.00, 0.00, 0.00, 0.00, 0.00, 0.00, 0.01, 0.01, 1.03
238, 0.00, 43879.33, 0.00, 0.00, 0.00, 0.00, 0.00, 0.00, 0.01, 0.01, 1.02
239, 0.00, 43829.55, 0.00, 0.00, 0.00, 0.00, 0.00, 0.00, 0.01, 0.01, 1.02
240, 0.00, 43832.26, 0.00, 0.00, 0.00, 0.00, 0.00, 0.00, 0.01, 0.01, 1.02
241, 0.00, 43840.44, 0.00, 0.00, 0.00, 0.00, 0.00, 0.00, 0.01, 0.01, 1.02
242, 0.00, 43858.41, 0.00, 0.00, 0.00, 0.00, 0.00, 0.00, 0.01, 0.01, 1.02
243, 0.00, 43816.64, 0.00, 0.00, 0.00, 0.00, 0.00, 0.00, 0.01, 0.01, 1.01
244, 0.00, 43812.17, 0.00, 0.00, 0.00, 0.00, 0.00, 0.00, 0.01, 0.01, 1.01
245, 0.00, 43849.50, 0.00, 0.00, 0.00, 0.00, 0.00, 0.00, 0.01, 0.01, 1.01
246, 0.00, 43860.56, 0.00, 0.00, 0.00, 0.00, 0.00, 0.00, 0.01, 0.01, 1.01
247, 0.00, 43846.54, 0.00, 0.00, 0.00, 0.00, 0.00, 0.00, 0.01, 0.01, 1.01
248, 0.00, 43845.09, 0.00, 0.00, 0.00, 0.00, 0.00, 0.00, 0.01, 0.01, 1.02
249, 0.00, 43867.67, 0.00, 0.00, 0.00, 0.00, 0.00, 0.00, 0.01, 0.01, 1.02
250, 0.00, 43886.66, 0.00, 0.00, 0.00, 0.00, 0.00, 0.00, 0.01, 0.01, 1.02
251, 0.00, 43874.66, 0.00, 0.00, 0.00, 0.00, 0.00, 0.00, 0.01, 0.01, 1.02
252, 0.00, 43860.00, 0.00, 0.00, 0.00, 0.00, 0.00, 0.00, 0.01, 0.01, 1.02
253, 0.00, 43873.30, 0.00, 0.00, 0.00, 0.00, 0.00, 0.00, 0.01, 0.01, 1.02
254, 0.00, 43899.76, 0.00, 0.00, 0.00, 0.00, 0.00, 0.00, 0.01, 0.01, 1.02
255, 0.00, 43894.87, 0.00, 0.00, 0.00, 0.00, 0.00, 0.00, 0.01, 0.01, 1.02
0, 0.00, 43873.16, 0.00, 0.00, 0.00, 0.00, 0.00, 0.00, 0.01, 0.01, 1.02
1, 0.00, 43885.14, 0.00, 0.00, 0.00, 0.00, 0.00, 0.00, 0.01, 0.01, 1.02
2, 0.00, 43912.37, 0.00, 0.00, 0.00, 0.00, 0.00, 0.00, 0.01, 0.01, 1.02
3, 0.00, 43906.27, 0.00, 0.00, 0.00, 0.00, 0.00, 0.00, 0.01, 0.01, 1.02
4, 0.00, 43880.50, 0.00, 0.00, 0.00, 0.00, 0.00, 0.00, 0.01, 0.01, 1.02
5, 0.00, 43892.41, 0.00, 0.00, 0.00, 0.00, 0.00, 0.00, 0.01, 0.01, 1.02
6, 0.00, 43918.98, 0.00, 0.00, 0.00, 0.00, 0.00, 0.00, 0.01, 0.01, 1.02
7, 0.00, 43921.11, 0.00, 0.00, 0.00, 0.00, 0.00, 0.00, 0.01, 0.01, 1.01
8, 0.00, 43897.57, 0.00, 0.00, 0.00, 0.00, 0.00, 0.00, 0.01, 0.01, 1.01
9, 0.00, 43896.50, 0.00, 0.00, 0.00, 0.00, 0.00, 0.00, 0.01, 0.01, 1.01
10, 0.00, 43920.10, 0.00, 0.00, 0.00, 0.00, 0.00, 0.00, 0.01, 0.01, 1.01
11, 0.00, 43922.50, 0.00, 0.00, 0.00, 0.00, 0.00, 0.00, 0.01, 0.01, 1.01
12, 0.00, 43901.51, 0.00, 0.00, 0.00, 0.00, 0.00, 0.00, 0.01, 0.01, 1.02
13, 0.00, 43887.63, 0.00, 0.00, 0.00, 0.00, 0.00, 0.00, 0.01, 0.01, 1.02
14, 0.00, 43908.79, 0.00, 0.00, 0.00, 0.00, 0.00, 0.00, 0.01, 0.01, 1.02
15, 0.00, 43923.16, 0.00, 0.00, 0.00, 0.00, 0.00, 0.00, 0.01, 0.01, 1.02
16, 0.00, 43906.74, 0.00, 0.00, 0.00, 0.00, 0.00, 0.00, 0.01, 0.01, 1.02
17, 0.00, 43881.61, 0.00, 0.00, 0.00, 0.00, 0.00, 0.00, 0.01, 0.02, 1.02
18, 0.00, 43902.25, 0.00, 0.00, 0.00, 0.00, 0.00, 0.00, 0.01, 0.02, 1.02
19, 0.00, 43913.67, 0.00, 0.00, 0.00, 0.00, 0.00, 0.00, 0.01, 0.02, 1.02
20, 0.00, 43903.54, 0.00, 0.00, 0.00, 0.00, 0.00, 0.00, 0.01, 0.02, 1.02
21, 0.00, 43887.38, 0.00, 0.00, 0.00, 0.00, 0.00, 0.00, 0.01, 0.02, 1.02
22, 0.00, 43889.53, 0.00, 0.00, 0.00, 0.00, 0.00, 0.00, 0.01, 0.02, 1.02
23, 0.00, 43905.17, 0.00, 0.00, 0.00, 0.00, 0.00, 0.00, 0.01, 0.02, 1.02
24, 0.00, 43903.05, 0.00, 0.00, 0.00, 0.00, 0.00, 0.00, 0.01, 0.02, 1.02
25, 0.00, 43881.86, 0.00, 0.00, 0.00, 0.00, 0.00, 0.00, 0.01, 0.02, 1.02
26, 0.00, 43887.16, 0.00, 0.00, 0.00, 0.00, 0.00, 0.00, 0.01, 0.02, 1.02
27, 0.00, 43912.08, 0.00, 0.00, 0.00, 0.00, 0.00, 0.00, 0.01, 0.01, 1.02
28, 0.00, 43909.48, 0.00, 0.00, 0.00, 0.00, 0.00, 0.00, 0.01, 0.01, 1.02
29, 0.00, 43877.55, 0.00, 0.00, 0.00, 0.00, 0.00, 0.00, 0.01, 0.01, 1.02
30, 0.00, 43877.50, 0.00, 0.00, 0.00, 0.00, 0.00, 0.00, 0.01, 0.01, 1.02
31, 0.00, 43901.33, 0.00, 0.00, 0.00, 0.00, 0.00, 0.00, 0.01, 0.01, 1.02
32, 0.00, 43908.61, 0.00, 0.00, 0.00, 0.00, 0.00, 0.00, 0.01, 0.01, 1.02
33, 0.00, 43875.69, 0.00, 0.00, 0.00, 0.00, 0.00, 0.00, 0.01, 0.01, 1.02
34, 0.00, 43867.20, 0.00, 0.00, 0.00, 0.00, 0.00, 0.00, 0.01, 0.01, 1.02
35, 0.00, 43896.05, 0.00, 0.00, 0.00, 0.00, 0.00, 0.00, 0.01, 0.01, 1.02
36, 0.00, 43902.94, 0.00, 0.00, 0.00, 0.00, 0.00, 0.00, 0.01, 0.01, 1.02
37, 0.00, 43882.15, 0.00, 0.00, 0.00, 0.00, 0.00, 0.00, 0.01, 0.01, 1.02
38, 0.00, 43870.10, 0.00, 0.00, 0.00, 0.00, 0.00, 0.00, 0.01, 0.01, 1.02
39, 0.00, 43884.52, 0.00, 0.00, 0.00, 0.00, 0.00, 0.00, 0.01, 0.01, 1.02
40, 0.00, 43906.49, 0.00, 0.00, 0.00, 0.00, 0.00, 0.00, 0.01, 0.01, 1.02
41, 0.00, 43889.35, 0.00, 0.00, 0.00, 0.00, 0.00, 0.00, 0.01, 0.01, 1.02
42, 0.00, 43877.21, 0.00, 0.00, 0.00, 0.00, 0.00, 0.00, 0.01, 0.01, 1.03
43, 0.00, 43879.31, 0.00, 0.00, 0.00, 0.00, 0.00, 0.00, 0.01, 0.01, 1.03
44, 0.00, 43883.34, 0.00, 0.00, 0.00, 0.00, 0.00, 0.00, 0.01, 0.01, 1.03
45, 0.00, 43880.96, 0.00, 0.00, 0.00, 0.00, 0.00, 0.00, 0.01, 0.01, 1.03
46, 0.00, 43869.07, 0.00, 0.00, 0.00, 0.00, 0.00, 0.00, 0.01, 0.01, 1.03
47, 0.00, 43870.68, 0.00, 0.00, 0.00, 0.00, 0.00, 0.00, 0.01, 0.02, 1.02
48, 0.00, 43896.50, 0.00, 0.00, 0.00, 0.00, 0.00, 0.00, 0.01, 0.02, 1.02
49, 0.00, 43892.61, 0.00, 0.00, 0.00, 0.00, 0.00, 0.00, 0.01, 0.02, 1.02
50, 0.00, 43866.55, 0.00, 0.00, 0.00, 0.00, 0.00, 0.00, 0.01, 0.02, 1.02
51, 0.00, 43874.19, 0.00, 0.00, 0.00, 0.00, 0.00, 0.00, 0.01, 0.02, 1.02
52, 0.00, 43895.07, 0.00, 0.00, 0.00, 0.00, 0.00, 0.00, 0.01, 0.02, 1.01
53, 0.00, 43898.20, 0.00, 0.00, 0.00, 0.00, 0.00, 0.00, 0.01, 0.02, 1.01
54, 0.00, 43868.58, 0.00, 0.00, 0.00, 0.00, 0.00, 0.00, 0.01, 0.02, 1.01
55, 0.00, 43866.26, 0.00, 0.00, 0.00, 0.00, 0.00, 0.00, 0.01, 0.02, 1.01
56, 0.00, 43889.41, 0.00, 0.00, 0.00, 0.00, 0.00, 0.00, 0.01, 0.02, 1.01
57, 0.00, 43893.66, 0.00, 0.00, 0.00, 0.00, 0.00, 0.00, 0.01, 0.02, 1.01
58, 0.00, 43875.27, 0.00, 0.00, 0.00, 0.00, 0.00, 0.00, 0.01, 0.02, 1.01
59, 0.00, 43870.64, 0.00, 0.00, 0.00, 0.00, 0.00, 0.00, 0.01, 0.02, 1.01
60, 0.00, 43886.98, 0.00, 0.00, 0.00, 0.00, 0.00, 0.00, 0.01, 0.02, 1.01
61, 0.00, 43904.21, 0.00, 0.00, 0.00, 0.00, 0.00, 0.00, 0.01, 0.02, 1.01
62, 0.00, 43877.05, 0.00, 0.00, 0.00, 0.00, 0.00, 0.00, 0.01, 0.01, 1.01
63, 0.00, 43865.05, 0.00, 0.00, 0.00, 0.00, 0.00, 0.00, 0.01, 0.01, 1.01
64, 0.00, 43885.19, 0.00, 0.00, 0.00, 0.00, 0.00, 0.00, 0.01, 0.01, 1.01
65, 0.00, 43902.65, 0.00, 0.00, 0.00, 0.00, 0.00, 0.00, 0.01, 0.01, 1.01
66, 0.00, 43888.16, 0.00, 0.00, 0.00, 0.00, 0.00, 0.00, 0.01, 0.01, 1.01
67, 0.00, 43866.37, 0.00, 0.00, 0.00, 0.00, 0.00, 0.00, 0.02, 0.01, 1.02
68, 0.00, 43873.48, 0.00, 0.00, 0.00, 0.00, 0.00, 0.00, 0.02, 0.01, 1.02
69, 0.00, 43890.71, 0.00, 0.00, 0.00, 0.00, 0.00, 0.00, 0.02, 0.01, 1.02
70, 0.00, 43882.35, 0.00, 0.00, 0.00, 0.00, 0.00, 0.00, 0.02, 0.01, 1.02
71, 0.00, 43861.23, 0.00, 0.00, 0.00, 0.00, 0.00, 0.00, 0.02, 0.01, 1.02
72, 0.00, 43870.19, 0.00, 0.00, 0.00, 0.00, 0.00, 0.00, 0.01, 0.00, 1.02
73, 0.00, 43892.30, 0.00, 0.00, 0.00, 0.00, 0.00, 0.00, 0.01, 0.00, 1.02
74, 0.00, 43884.81, 0.00, 0.00, 0.00, 0.00, 0.00, 0.00, 0.01, 0.00, 1.02
75, 0.00, 43867.04, 0.00, 0.00, 0.00, 0.00, 0.00, 0.00, 0.01, 0.00, 1.02
76, 0.00, 43875.64, 0.00, 0.00, 0.00, 0.00, 0.00, 0.00, 0.01, 0.00, 1.02
77, 0.00, 43894.78, 0.00, 0.00, 0.00, 0.00, 0.00, 0.00, 0.01, 0.00, 1.02
78, 0.00, 43894.11, 0.00, 0.00, 0.00, 0.00, 0.00, 0.00, 0.01, 0.00, 1.02
79, 0.00, 43869.12, 0.00, 0.00, 0.00, 0.00, 0.00, 0.00, 0.01, 0.00, 1.02
80, 0.00, 43860.76, 0.00, 0.00, 0.00, 0.00, 0.00, 0.00, 0.01, 0.00, 1.02
81, 0.00, 43888.16, 0.00, 0.00, 0.00, 0.00, 0.00, 0.00, 0.01, 0.00, 1.02
82, 0.00, 43895.47, 0.00, 0.00, 0.00, 0.00, 0.00, 0.00, 0.00, 0.01, 1.02
83, 0.00, 43878.48, 0.00, 0.00, 0.00, 0.00, 0.00, 0.00, 0.00, 0.01, 1.02
84, 0.00, 43869.84, 0.00, 0.00, 0.00, 0.00, 0.00, 0.00, 0.00, 0.01, 1.02
85, 0.00, 43887.47, 0.00, 0.00, 0.00, 0.00, 0.00, 0.00, 0.00, 0.01, 1.02
86, 0.00, 43901.21, 0.00, 0.00, 0.00, 0.00, 0.00, 0.00, 0.00, 0.01, 1.02
87, 0.00, 43883.13, 0.00, 0.00, 0.00, 0.00, 0.00, 0.00, 0.00, 0.01, 1.01
88, 0.00, 43866.17, 0.00, 0.00, 0.00, 0.00, 0.00, 0.00, 0.00, 0.01, 1.01
89, 0.00, 43888.61, 0.00, 0.00, 0.00, 0.00, 0.00, 0.00, 0.00, 0.01, 1.01
90, 0.00, 43900.16, 0.00, 0.00, 0.00, 0.00, 0.00, 0.00, 0.00, 0.01, 1.01
91, 0.00, 43881.82, 0.00, 0.00, 0.00, 0.00, 0.00, 0.00, 0.00, 0.01, 1.01
92, 0.00, 43874.24, 0.00, 0.00, 0.00, 0.00, 0.00, 0.00, 0.01, 0.01, 1.01
93, 0.00, 43883.31, 0.00, 0.00, 0.00, 0.00, 0.00, 0.00, 0.01, 0.01, 1.01
94, 0.00, 43907.34, 0.00, 0.00, 0.00, 0.00, 0.00, 0.00, 0.01, 0.01, 1.01
95, 0.00, 43900.79, 0.00, 0.00, 0.00, 0.00, 0.00, 0.00, 0.01, 0.01, 1.01
96, 0.00, 43876.76, 0.00, 0.00, 0.00, 0.00, 0.00, 0.00, 0.01, 0.01, 1.01
97, 0.00, 43877.61, 0.00, 0.00, 0.00, 0.00, 0.00, 0.00, 0.01, 0.01, 1.01
98, 0.00, 43899.52, 0.00, 0.00, 0.00, 0.00, 0.00, 0.00, 0.01, 0.01, 1.02
99, 0.00, 43892.68, 0.00, 0.00, 0.00, 0.00, 0.00, 0.00, 0.01, 0.01, 1.02
100, 0.00, 43869.57, 0.00, 0.00, 0.00, 0.00, 0.00, 0.00, 0.01, 0.01, 1.02
101, 0.00, 43870.91, 0.00, 0.00, 0.00, 0.00, 0.00, 0.00, 0.01, 0.01, 1.02
102, 0.00, 43900.12, 0.00, 0.00, 0.00, 0.00, 0.00, 0.00, 0.01, 0.01, 1.02
103, 0.00, 43904.03, 0.00, 0.00, 0.00, 0.00, 0.00, 0.00, 0.01, 0.01, 1.02
104, 0.00, 43876.92, 0.00, 0.00, 0.00, 0.00, 0.00, 0.00, 0.01, 0.01, 1.02
105, 0.00, 43872.50, 0.00, 0.00, 0.00, 0.00, 0.00, 0.00, 0.01, 0.01, 1.02
106, 0.00, 43892.99, 0.00, 0.00, 0.00, 0.00, 0.00, 0.00, 0.01, 0.01, 1.02
107, 0.00, 43894.51, 0.00, 0.00, 0.00, 0.00, 0.00, 0.00, 0.01, 0.01, 1.02
108, 0.00, 43872.11, 0.00, 0.00, 0.00, 0.00, 0.00, 0.00, 0.01, 0.01, 1.02
109, 0.00, 43866.23, 0.00, 0.00, 0.00, 0.00, 0.00, 0.00, 0.01, 0.01, 1.02
110, 0.00, 43887.49, 0.00, 0.00, 0.00, 0.00, 0.00, 0.00, 0.01, 0.01, 1.02
111, 0.00, 43906.74, 0.00, 0.00, 0.00, 0.00, 0.00, 0.00, 0.01, 0.01, 1.02
112, 0.00, 43885.88, 0.00, 0.00, 0.00, 0.00, 0.00, 0.00, 0.01, 0.01, 1.02
113, 0.00, 43873.21, 0.00, 0.00, 0.00, 0.00, 0.00, 0.00, 0.01, 0.01, 1.03
114, 0.00, 43893.64, 0.00, 0.00, 0.00, 0.00, 0.00, 0.00, 0.01, 0.01, 1.03
115, 0.00, 43911.05, 0.00, 0.00, 0.00, 0.00, 0.00, 0.00, 0.01, 0.01, 1.03
116, 0.00, 43890.96, 0.00, 0.00, 0.00, 0.00, 0.00, 0.00, 0.01, 0.01, 1.03
117, 0.00, 43876.32, 0.00, 0.00, 0.00, 0.00, 0.00, 0.00, 0.01, 0.01, 1.03
118, 0.00, 43882.75, 0.00, 0.00, 0.00, 0.00, 0.00, 0.00, 0.01, 0.01, 1.02
119, 0.00, 43905.69, 0.00, 0.00, 0.00, 0.00, 0.00, 0.00, 0.01, 0.01, 1.02
120, 0.00, 43890.22, 0.00, 0.00, 0.00, 0.00, 0.00, 0.00, 0.01, 0.01, 1.02
121, 0.00, 43864.47, 0.00, 0.00, 0.00, 0.00, 0.00, 0.00, 0.01, 0.01, 1.02
122, 0.00, 43878.80, 0.00, 0.00, 0.00, 0.00, 0.00, 0.00, 0.01, 0.01, 1.02
123, 0.00, 43905.04, 0.00, 0.00, 0.00, 0.00, 0.00, 0.00, 0.02, 0.01, 1.02
124, 0.00, 43893.71, 0.00, 0.00, 0.00, 0.00, 0.00, 0.00, 0.02, 0.01, 1.02
125, 0.00, 43858.84, 0.00, 0.00, 0.00, 0.00, 0.00, 0.00, 0.02, 0.01, 1.02
126, 0.00, 43864.98, 0.00, 0.00, 0.00, 0.00, 0.00, 0.00, 0.02, 0.01, 1.02
127, 0.00, 43895.72, 0.00, 0.00, 0.00, 0.00, 0.00, 0.00, 0.02, 0.01, 1.02
128, 0.00, 43898.85, 0.00, 0.00, 0.00, 0.00, 0.00, 0.00, 0.02, 0.01, 1.03
129, 0.00, 43882.91, 0.00, 0.00, 0.00, 0.00, 0.00, 0.00, 0.02, 0.01, 1.03
130, 0.00, 43874.21, 0.00, 0.00, 0.00, 0.00, 0.00, 0.00, 0.02, 0.01, 1.03
131, 0.00, 43895.45, 0.00, 0.00, 0.00, 0.00, 0.00, 0.00, 0.02, 0.01, 1.03
132, 0.00, 43900.68, 0.00, 0.00, 0.00, 0.00, 0.00, 0.00, 0.02, 0.01, 1.03
133, 0.00, 43874.21, 0.00, 0.00, 0.00, 0.00, 0.00, 0.00, 0.01, 0.01, 1.02
134, 0.00, 43867.89, 0.00, 0.00, 0.00, 0.00, 0.00, 0.00, 0.01, 0.01, 1.02
135, 0.00, 43890.96, 0.00, 0.00, 0.00, 0.00, 0.00, 0.00, 0.01, 0.01, 1.02
136, 0.00, 43907.90, 0.00, 0.00, 0.00, 0.00, 0.00, 0.00, 0.01, 0.01, 1.02
137, 0.00, 43885.68, 0.00, 0.00, 0.00, 0.00, 0.00, 0.00, 0.01, 0.01, 1.02
138, 0.00, 43873.72, 0.00, 0.00, 0.00, 0.00, 0.00, 0.00, 0.01, 0.01, 1.02
139, 0.00, 43894.51, 0.00, 0.00, 0.00, 0.00, 0.00, 0.00, 0.01, 0.01, 1.02
140, 0.00, 43912.84, 0.00, 0.00, 0.00, 0.00, 0.00, 0.00, 0.01, 0.01, 1.02
141, 0.00, 43902.02, 0.00, 0.00, 0.00, 0.00, 0.00, 0.00, 0.01, 0.01, 1.02
142, 0.00, 43882.39, 0.00, 0.00, 0.00, 0.00, 0.00, 0.00, 0.01, 0.01, 1.02
143, 0.00, 43887.22, 0.00, 0.00, 0.00, 0.00, 0.00, 0.00, 0.01, 0.01, 1.03
144, 0.00, 43906.22, 0.00, 0.00, 0.00, 0.00, 0.00, 0.00, 0.01, 0.01, 1.03
145, 0.00, 43899.83, 0.00, 0.00, 0.00, 0.00, 0.00, 0.00, 0.01, 0.01, 1.03
146, 0.00, 43877.43, 0.00, 0.00, 0.00, 0.00, 0.00, 0.00, 0.01, 0.01, 1.03
147, 0.00, 43883.16, 0.00, 0.00, 0.00, 0.00, 0.00, 0.00, 0.01, 0.01, 1.03
148, 0.00, 43907.25, 0.00, 0.00, 0.00, 0.00, 0.00, 0.00, 0.02, 0.01, 1.02
149, 0.00, 43906.87, 0.00, 0.00, 0.00, 0.00, 0.00, 0.00, 0.02, 0.01, 1.02
150, 0.00, 43884.52, 0.00, 0.00, 0.00, 0.00, 0.00, 0.00, 0.02, 0.01, 1.02
151, 0.00, 43887.05, 0.00, 0.00, 0.00, 0.00, 0.00, 0.00, 0.02, 0.01, 1.02
152, 0.00, 43905.44, 0.00, 0.00, 0.00, 0.00, 0.00, 0.00, 0.02, 0.01, 1.02
153, 0.00, 43902.42, 0.00, 0.00, 0.00, 0.00, 0.00, 0.00, 0.01, 0.01, 1.02
154, 0.00, 43873.99, 0.00, 0.00, 0.00, 0.00, 0.00, 0.00, 0.01, 0.01, 1.02
155, 0.00, 43881.70, 0.00, 0.00, 0.00, 0.00, 0.00, 0.00, 0.01, 0.01, 1.02
156, 0.00, 43908.84, 0.00, 0.00, 0.00, 0.00, 0.00, 0.00, 0.01, 0.01, 1.02
157, 0.00, 43911.43, 0.00, 0.00, 0.00, 0.00, 0.00, 0.00, 0.01, 0.01, 1.02
158, 0.00, 43888.45, 0.00, 0.00, 0.00, 0.00, 0.00, 0.00, 0.01, 0.01, 1.03
159, 0.00, 43879.38, 0.00, 0.00, 0.00, 0.00, 0.00, 0.00, 0.01, 0.01, 1.03
160, 0.00, 43902.63, 0.00, 0.00, 0.00, 0.00, 0.00, 0.00, 0.01, 0.01, 1.03
161, 0.00, 43917.40, 0.00, 0.00, 0.00, 0.00, 0.00, 0.00, 0.01, 0.01, 1.03
162, 0.00, 43896.81, 0.00, 0.00, 0.00, 0.00, 0.00, 0.00, 0.01, 0.01, 1.03
163, 0.00, 43879.29, 0.00, 0.00, 0.00, 0.00, 0.00, 0.00, 0.01, 0.01, 1.03
164, 0.00, 43900.77, 0.00, 0.00, 0.00, 0.00, 0.00, 0.00, 0.01, 0.01, 1.03
165, 0.00, 43921.76, 0.00, 0.00, 0.00, 0.00, 0.00, 0.00, 0.01, 0.01, 1.03
166, 0.00, 43885.82, 0.00, 0.00, 0.00, 0.00, 0.00, 0.00, 0.01, 0.01, 1.03
167, 0.00, 43866.50, 0.00, 0.00, 0.00, 0.00, 0.00, 0.00, 0.01, 0.01, 1.03
168, 0.00, 43883.71, 0.00, 0.00, 0.00, 0.00, 0.00, 0.00, 0.02, 0.01, 1.03
169, 0.00, 43912.66, 0.00, 0.00, 0.00, 0.00, 0.00, 0.00, 0.02, 0.01, 1.03
170, 0.00, 43894.55, 0.00, 0.00, 0.00, 0.00, 0.00, 0.00, 0.02, 0.01, 1.03
171, 0.00, 43873.01, 0.00, 0.00, 0.00, 0.00, 0.00, 0.00, 0.02, 0.01, 1.03
172, 0.00, 43881.52, 0.00, 0.00, 0.00, 0.00, 0.00, 0.00, 0.02, 0.01, 1.03
173, 0.00, 43907.50, 0.00, 0.00, 0.00, 0.00, 0.00, 0.00, 0.01, 0.01, 1.02
174, 0.00, 43905.08, 0.00, 0.00, 0.00, 0.00, 0.00, 0.00, 0.01, 0.01, 1.02
175, 0.00, 43886.04, 0.00, 0.00, 0.00, 0.00, 0.00, 0.00, 0.01, 0.01, 1.02
176, 0.00, 43883.91, 0.00, 0.00, 0.00, 0.00, 0.00, 0.00, 0.01, 0.01, 1.02
177, 0.00, 43908.84, 0.00, 0.00, 0.00, 0.00, 0.00, 0.00, 0.01, 0.01, 1.02
178, 0.00, 43915.95, 0.00, 0.00, 0.00, 0.00, 0.00, 0.00, 0.02, 0.01, 1.02
179, 0.00, 43890.35, 0.00, 0.00, 0.00, 0.00, 0.00, 0.00, 0.02, 0.01, 1.02
180, 0.00, 43880.45, 0.00, 0.00, 0.00, 0.00, 0.00, 0.00, 0.02, 0.01, 1.02
181, 0.00, 43898.69, 0.00, 0.00, 0.00, 0.00, 0.00, 0.00, 0.02, 0.01, 1.02
182, 0.00, 43907.07, 0.00, 0.00, 0.00, 0.00, 0.00, 0.00, 0.02, 0.01, 1.02
183, 0.00, 43897.77, 0.00, 0.00, 0.00, 0.00, 0.00, 0.00, 0.01, 0.02, 1.01
184, 0.00, 43885.68, 0.00, 0.00, 0.00, 0.00, 0.00, 0.00, 0.01, 0.02, 1.01
185, 0.00, 43905.51, 0.00, 0.00, 0.00, 0.00, 0.00, 0.00, 0.01, 0.02, 1.01
186, 0.00, 43916.06, 0.00, 0.00, 0.00, 0.00, 0.00, 0.00, 0.01, 0.02, 1.01
187, 0.00, 43895.29, 0.00, 0.00, 0.00, 0.00, 0.00, 0.00, 0.01, 0.02, 1.01
188, 0.00, 43881.68, 0.00, 0.00, 0.00, 0.00, 0.00, 0.00, 0.01, 0.01, 1.02
189, 0.00, 43896.57, 0.00, 0.00, 0.00, 0.00, 0.00, 0.00, 0.01, 0.01, 1.02
190, 0.00, 43916.50, 0.00, 0.00, 0.00, 0.00, 0.00, 0.00, 0.01, 0.01, 1.02
191, 0.00, 43895.05, 0.00, 0.00, 0.00, 0.00, 0.00, 0.00, 0.01, 0.01, 1.02
192, 0.00, 43876.83, 0.00, 0.00, 0.00, 0.00, 0.00, 0.00, 0.01, 0.01, 1.02
193, 0.00, 43887.89, 0.00, 0.00, 0.00, 0.00, 0.00, 0.00, 0.01, 0.01, 1.02
194, 0.00, 43904.57, 0.00, 0.00, 0.00, 0.00, 0.00, 0.00, 0.01, 0.01, 1.02
195, 0.00, 43904.17, 0.00, 0.00, 0.00, 0.00, 0.00, 0.00, 0.01, 0.01, 1.02
196, 0.00, 43882.64, 0.00, 0.00, 0.00, 0.00, 0.00, 0.00, 0.01, 0.01, 1.02
197, 0.00, 43884.41, 0.00, 0.00, 0.00, 0.00, 0.00, 0.00, 0.01, 0.01, 1.02
198, 0.00, 43913.29, 0.00, 0.00, 0.00, 0.00, 0.00, 0.00, 0.01, 0.01, 1.01
199, 0.00, 43911.63, 0.00, 0.00, 0.00, 0.00, 0.00, 0.00, 0.01, 0.01, 1.01
200, 0.00, 43882.69, 0.00, 0.00, 0.00, 0.00, 0.00, 0.00, 0.01, 0.01, 1.01
201, 0.00, 43885.88, 0.00, 0.00, 0.00, 0.00, 0.00, 0.00, 0.01, 0.01, 1.01
202, 0.00, 43910.76, 0.00, 0.00, 0.00, 0.00, 0.00, 0.00, 0.01, 0.01, 1.01
203, 0.00, 43916.01, 0.00, 0.00, 0.00, 0.00, 0.00, 0.00, 0.01, 0.01, 1.01
204, 0.00, 43890.62, 0.00, 0.00, 0.00, 0.00, 0.00, 0.00, 0.01, 0.01, 1.01
205, 0.00, 43884.48, 0.00, 0.00, 0.00, 0.00, 0.00, 0.00, 0.01, 0.01, 1.01
206, 0.00, 43906.29, 0.00, 0.00, 0.00, 0.00, 0.00, 0.00, 0.01, 0.01, 1.01
207, 0.00, 43922.25, 0.00, 0.00, 0.00, 0.00, 0.00, 0.00, 0.01, 0.01, 1.01
208, 0.00, 43897.95, 0.00, 0.00, 0.00, 0.00, 0.00, 0.00, 0.01, 0.02, 1.01
209, 0.00, 43877.88, 0.00, 0.00, 0.00, 0.00, 0.00, 0.00, 0.01, 0.02, 1.01
210, 0.00, 43894.73, 0.00, 0.00, 0.00, 0.00, 0.00, 0.00, 0.01, 0.02, 1.01
211, 0.00, 43917.91, 0.00, 0.00, 0.00, 0.00, 0.00, 0.00, 0.01, 0.02, 1.01
212, 0.00, 43898.22, 0.00, 0.00, 0.00, 0.00, 0.00, 0.00, 0.01, 0.02, 1.01
213, 0.00, 43882.60, 0.00, 0.00, 0.00, 0.00, 0.00, 0.00, 0.01, 0.01, 1.02
214, 0.00, 43894.78, 0.00, 0.00, 0.00, 0.00, 0.00, 0.00, 0.01, 0.01, 1.02
215, 0.00, 43913.93, 0.00, 0.00, 0.00, 0.00, 0.00, 0.00, 0.01, 0.01, 1.02
216, 0.00, 43904.01, 0.00, 0.00, 0.00, 0.00, 0.00, 0.00, 0.01, 0.01, 1.02
217, 0.00, 43881.79, 0.00, 0.00, 0.00, 0.00, 0.00, 0.00, 0.01, 0.01, 1.02
218, 0.00, 43889.17, 0.00, 0.00, 0.00, 0.00, 0.00, 0.00, 0.02, 0.01, 1.02
219, 0.00, 43908.23, 0.00, 0.00, 0.00, 0.00, 0.00, 0.00, 0.02, 0.01, 1.02
220, 0.00, 43908.05, 0.00, 0.00, 0.00, 0.00, 0.00, 0.00, 0.02, 0.01, 1.02
221, 0.00, 43892.01, 0.00, 0.00, 0.00, 0.00, 0.00, 0.00, 0.02, 0.01, 1.02
222, 0.00, 43879.58, 0.00, 0.00, 0.00, 0.00, 0.00, 0.00, 0.02, 0.01, 1.02
223, 0.00, 43904.32, 0.00, 0.00, 0.00, 0.00, 0.00, 0.00, 0.01, 0.01, 1.02
224, 0.00, 43904.03, 0.00, 0.00, 0.00, 0.00, 0.00, 0.00, 0.01, 0.01, 1.02
225, 0.00, 43885.21, 0.00, 0.00, 0.00, 0.00, 0.00, 0.00, 0.01, 0.01, 1.02
226, 0.00, 43884.54, 0.00, 0.00, 0.00, 0.00, 0.00, 0.00, 0.01, 0.01, 1.02
227, 0.00, 43905.39, 0.00, 0.00, 0.00, 0.00, 0.00, 0.00, 0.01, 0.01, 1.02
228, 0.00, 43910.40, 0.00, 0.00, 0.00, 0.00, 0.00, 0.00, 0.02, 0.01, 1.03
229, 0.00, 43883.11, 0.00, 0.00, 0.00, 0.00, 0.00, 0.00, 0.02, 0.01, 1.03
230, 0.00, 43870.08, 0.00, 0.00, 0.00, 0.00, 0.00, 0.00, 0.02, 0.01, 1.03
231, 0.00, 43894.98, 0.00, 0.00, 0.00, 0.00, 0.00, 0.00, 0.02, 0.01, 1.03
232, 0.00, 43905.44, 0.00, 0.00, 0.00, 0.00, 0.00, 0.00, 0.02, 0.01, 1.03
233, 0.00, 43886.96, 0.00, 0.00, 0.00, 0.00, 0.00, 0.00, 0.02, 0.01, 1.03
234, 0.00, 43873.10, 0.00, 0.00, 0.00, 0.00, 0.00, 0.00, 0.02, 0.01, 1.03
235, 0.00, 43889.75, 0.00, 0.00, 0.00, 0.00, 0.00, 0.00, 0.02, 0.01, 1.03
236, 0.00, 43912.88, 0.00, 0.00, 0.00, 0.00, 0.00, 0.00, 0.02, 0.01, 1.03
237, 0.00, 43892.54, 0.00, 0.00, 0.00, 0.00, 0.00, 0.00, 0.02, 0.01, 1.03
238, 0.00, 43876.70, 0.00, 0.00, 0.00, 0.00, 0.00, 0.00, 0.01, 0.01, 1.02
239, 0.00, 43890.35, 0.00, 0.00, 0.00, 0.00, 0.00, 0.00, 0.01, 0.01, 1.02
240, 0.00, 43908.32, 0.00, 0.00, 0.00, 0.00, 0.00, 0.00, 0.01, 0.01, 1.02
241, 0.00, 43891.40, 0.00, 0.00, 0.00, 0.00, 0.00, 0.00, 0.01, 0.01, 1.02
242, 0.00, 43870.73, 0.00, 0.00, 0.00, 0.00, 0.00, 0.00, 0.01, 0.01, 1.02
243, 0.00, 43879.91, 0.00, 0.00, 0.00, 0.00, 0.00, 0.00, 0.01, 0.01, 1.02
244, 0.00, 43895.34, 0.00, 0.00, 0.00, 0.00, 0.00, 0.00, 0.01, 0.01, 1.02
245, 0.00, 43889.68, 0.00, 0.00, 0.00, 0.00, 0.00, 0.00, 0.01, 0.01, 1.02
246, 0.00, 43871.04, 0.00, 0.00, 0.00, 0.00, 0.00, 0.00, 0.01, 0.01, 1.02
247, 0.00, 43865.50, 0.00, 0.00, 0.00, 0.00, 0.00, 0.00, 0.01, 0.01, 1.02
248, 0.00, 43889.50, 0.00, 0.00, 0.00, 0.00, 0.00, 0.00, 0.01, 0.01, 1.02
249, 0.00, 43894.93, 0.00, 0.00, 0.00, 0.00, 0.00, 0.00, 0.01, 0.01, 1.02
250, 0.00, 43875.76, 0.00, 0.00, 0.00, 0.00, 0.00, 0.00, 0.01, 0.01, 1.02
251, 0.00, 43871.46, 0.00, 0.00, 0.00, 0.00, 0.00, 0.00, 0.01, 0.01, 1.02
252, 0.00, 43896.25, 0.00, 0.00, 0.00, 0.00, 0.00, 0.00, 0.01, 0.01, 1.02
253, 0.00, 43897.59, 0.00, 0.00, 0.00, 0.00, 0.00, 0.00, 0.01, 0.01, 1.02
254, 0.00, 43877.50, 0.00, 0.00, 0.00, 0.00, 0.00, 0.00, 0.01, 0.01, 1.02
255, 0.00, 43862.14, 0.00, 0.00, 0.00, 0.00, 0.00, 0.00, 0.01, 0.01, 1.02
0, 0.00, 43879.09, 0.00, 0.00, 0.00, 0.00, 0.00, 0.00, 0.01, 0.01, 1.02
1, 0.00, 43899.05, 0.00, 0.00, 0.00, 0.00, 0.00, 0.00, 0.01, 0.01, 1.02
2, 0.00, 43883.20, 0.00, 0.00, 0.00, 0.00, 0.00, 0.00, 0.01, 0.01, 1.01
3, 0.00, 43870.08, 0.00, 0.00, 0.00, 0.00, 0.00, 0.00, 0.01, 0.01, 1.01
4, 0.00, 43877.46, 0.00, 0.00, 0.00, 0.00, 0.00, 0.00, 0.01, 0.01, 1.01
5, 0.00, 43894.09, 0.00, 0.00, 0.00, 0.00, 0.00, 0.00, 0.01, 0.01, 1.01
6, 0.00, 43888.59, 0.00, 0.00, 0.00, 0.00, 0.00, 0.00, 0.01, 0.01, 1.01
7, 0.00, 43865.95, 0.00, 0.00, 0.00, 0.00, 0.00, 0.00, 0.01, 0.01, 1.02
8, 0.00, 43871.55, 0.00, 0.00, 0.00, 0.00, 0.00, 0.00, 0.01, 0.01, 1.02
9, 0.00, 43893.32, 0.00, 0.00, 0.00, 0.00, 0.00, 0.00, 0.01, 0.01, 1.02
10, 0.00, 43885.70, 0.00, 0.00, 0.00, 0.00, 0.00, 0.00, 0.01, 0.01, 1.02
11, 0.00, 43869.39, 0.00, 0.00, 0.00, 0.00, 0.00, 0.00, 0.01, 0.01, 1.02
12, 0.00, 43871.31, 0.00, 0.00, 0.00, 0.00, 0.00, 0.00, 0.01, 0.01, 1.02
13, 0.00, 43894.04, 0.00, 0.00, 0.00, 0.00, 0.00, 0.00, 0.01, 0.01, 1.02
14, 0.00, 43887.67, 0.00, 0.00, 0.00, 0.00, 0.00, 0.00, 0.01, 0.01, 1.02
15, 0.00, 43862.35, 0.00, 0.00, 0.00, 0.00, 0.00, 0.00, 0.01, 0.01, 1.02
16, 0.00, 43864.43, 0.00, 0.00, 0.00, 0.00, 0.00, 0.00, 0.01, 0.01, 1.02
17, 0.00, 43880.47, 0.00, 0.00, 0.00, 0.00, 0.00, 0.00, 0.01, 0.01, 1.02
18, 0.00, 43890.29, 0.00, 0.00, 0.00, 0.00, 0.00, 0.00, 0.01, 0.01, 1.02
19, 0.00, 43867.04, 0.00, 0.00, 0.00, 0.00, 0.00, 0.00, 0.01, 0.01, 1.02
20, 0.00, 43856.78, 0.00, 0.00, 0.00, 0.00, 0.00, 0.00, 0.01, 0.01, 1.02
21, 0.00, 43887.38, 0.00, 0.00, 0.00, 0.00, 0.00, 0.00, 0.01, 0.01, 1.02
22, 0.00, 43899.59, 0.00, 0.00, 0.00, 0.00, 0.00, 0.00, 0.01, 0.01, 1.02
23, 0.00, 43877.70, 0.00, 0.00, 0.00, 0.00, 0.00, 0.00, 0.01, 0.01, 1.02
24, 0.00, 43863.84, 0.00, 0.00, 0.00, 0.00, 0.00, 0.00, 0.01, 0.01, 1.02
25, 0.00, 43879.73, 0.00, 0.00, 0.00, 0.00, 0.00, 0.00, 0.01, 0.01, 1.02
26, 0.00, 43891.38, 0.00, 0.00, 0.00, 0.00, 0.00, 0.00, 0.01, 0.01, 1.02
27, 0.00, 43870.50, 0.00, 0.00, 0.00, 0.00, 0.00, 0.00, 0.01, 0.01, 1.01
28, 0.00, 43854.84, 0.00, 0.00, 0.00, 0.00, 0.00, 0.00, 0.01, 0.01, 1.01
29, 0.00, 43872.41, 0.00, 0.00, 0.00, 0.00, 0.00, 0.00, 0.01, 0.01, 1.01
30, 0.00, 43885.95, 0.00, 0.00, 0.00, 0.00, 0.00, 0.00, 0.01, 0.01, 1.01
31, 0.00, 43872.14, 0.00, 0.00, 0.00, 0.00, 0.00, 0.00, 0.01, 0.01, 1.01
32, 0.00, 43851.02, 0.00, 0.00, 0.00, 0.00, 0.00, 0.00, 0.01, 0.01, 1.02
33, 0.00, 43862.17, 0.00, 0.00, 0.00, 0.00, 0.00, 0.00, 0.01, 0.01, 1.02
34, 0.00, 43890.20, 0.00, 0.00, 0.00, 0.00, 0.00, 0.00, 0.01, 0.01, 1.02
35, 0.00, 43878.86, 0.00, 0.00, 0.00, 0.00, 0.00, 0.00, 0.01, 0.01, 1.02
36, 0.00, 43848.11, 0.00, 0.00, 0.00, 0.00, 0.00, 0.00, 0.01, 0.01, 1.02
37, 0.00, 43856.20, 0.00, 0.00, 0.00, 0.00, 0.00, 0.00, 0.01, 0.01, 1.02
38, 0.00, 43880.74, 0.00, 0.00, 0.00, 0.00, 0.00, 0.00, 0.01, 0.01, 1.02
39, 0.00, 43880.45, 0.00, 0.00, 0.00, 0.00, 0.00, 0.00, 0.01, 0.01, 1.02
40, 0.00, 43861.41, 0.00, 0.00, 0.00, 0.00, 0.00, 0.00, 0.01, 0.01, 1.02
41, 0.00, 43861.34, 0.00, 0.00, 0.00, 0.00, 0.00, 0.00, 0.01, 0.01, 1.02
42, 0.00, 43885.44, 0.00, 0.00, 0.00, 0.00, 0.00, 0.00, 0.01, 0.01, 1.02
43, 0.00, 43880.07, 0.00, 0.00, 0.00, 0.00, 0.00, 0.00, 0.01, 0.01, 1.02
44, 0.00, 43862.79, 0.00, 0.00, 0.00, 0.00, 0.00, 0.00, 0.01, 0.01, 1.02
45, 0.00, 43865.70, 0.00, 0.00, 0.00, 0.00, 0.00, 0.00, 0.01, 0.01, 1.02
46, 0.00, 43886.40, 0.00, 0.00, 0.00, 0.00, 0.00, 0.00, 0.01, 0.01, 1.02
47, 0.00, 43897.39, 0.00, 0.00, 0.00, 0.00, 0.00, 0.00, 0.01, 0.02, 1.02
48, 0.00, 43878.80, 0.00, 0.00, 0.00, 0.00, 0.00, 0.00, 0.01, 0.02, 1.02
49, 0.00, 43867.98, 0.00, 0.00, 0.00, 0.00, 0.00, 0.00, 0.01, 0.02, 1.02
50, 0.00, 43883.85, 0.00, 0.00, 0.00, 0.00, 0.00, 0.00, 0.01, 0.02, 1.02
51, 0.00, 43902.47, 0.00, 0.00, 0.00, 0.00, 0.00, 0.00, 0.01, 0.02, 1.02
52, 0.00, 43881.66, 0.00, 0.00, 0.00, 0.00, 0.00, 0.00, 0.01, 0.01, 1.02
53, 0.00, 43863.13, 0.00, 0.00, 0.00, 0.00, 0.00, 0.00, 0.01, 0.01, 1.02
54, 0.00, 43883.94, 0.00, 0.00, 0.00, 0.00, 0.00, 0.00, 0.01, 0.01, 1.02
55, 0.00, 43908.30, 0.00, 0.00, 0.00, 0.00, 0.00, 0.00, 0.01, 0.01, 1.02
56, 0.00, 43891.85, 0.00, 0.00, 0.00, 0.00, 0.00, 0.00, 0.01, 0.01, 1.02
57, 0.00, 43874.86, 0.00, 0.00, 0.00, 0.00, 0.00, 0.00, 0.01, 0.02, 1.01
58, 0.00, 43879.33, 0.00, 0.00, 0.00, 0.00, 0.00, 0.00, 0.01, 0.02, 1.01
59, 0.00, 43903.09, 0.00, 0.00, 0.00, 0.00, 0.00, 0.00, 0.01, 0.02, 1.01
60, 0.00, 43896.99, 0.00, 0.00, 0.00, 0.00, 0.00, 0.00, 0.01, 0.02, 1.01
61, 0.00, 43872.81, 0.00, 0.00, 0.00, 0.00, 0.00, 0.00, 0.01, 0.02, 1.01
62, 0.00, 43877.52, 0.00, 0.00, 0.00, 0.00, 0.00, 0.00, 0.01, 0.01, 1.02
63, 0.00, 43899.05, 0.00, 0.00, 0.00, 0.00, 0.00, 0.00, 0.01, 0.01, 1.02
64, 0.00, 43898.33, 0.00, 0.00, 0.00, 0.00, 0.00, 0.00, 0.01, 0.01, 1.02
65, 0.00, 43870.21, 0.00, 0.00, 0.00, 0.00, 0.00, 0.00, 0.01, 0.01, 1.02
66, 0.00, 43867.13, 0.00, 0.00, 0.00, 0.00, 0.00, 0.00, 0.01, 0.01, 1.02
67, 0.00, 43889.41, 0.00, 0.00, 0.00, 0.00, 0.00, 0.00, 0.01, 0.02, 1.02
68, 0.00, 43900.01, 0.00, 0.00, 0.00, 0.00, 0.00, 0.00, 0.01, 0.02, 1.02
69, 0.00, 43876.83, 0.00, 0.00, 0.00, 0.00, 0.00, 0.00, 0.01, 0.02, 1.02
70, 0.00, 43870.91, 0.00, 0.00, 0.00, 0.00, 0.00, 0.00, 0.01, 0.02, 1.02
71, 0.00, 43898.47, 0.00, 0.00, 0.00, 0.00, 0.00, 0.00, 0.01, 0.02, 1.02
72, 0.00, 43906.74, 0.00, 0.00, 0.00, 0.00, 0.00, 0.00, 0.01, 0.02, 1.02
73, 0.00, 43886.78, 0.00, 0.00, 0.00, 0.00, 0.00, 0.00, 0.01, 0.01, 1.02
74, 0.00, 43872.16, 0.00, 0.00, 0.00, 0.00, 0.00, 0.00, 0.01, 0.01, 1.02
75, 0.00, 43895.89, 0.00, 0.00, 0.00, 0.00, 0.00, 0.00, 0.01, 0.01, 1.02
76, 0.00, 43906.83, 0.00, 0.00, 0.00, 0.00, 0.00, 0.00, 0.01, 0.01, 1.02
77, 0.00, 43881.59, 0.00, 0.00, 0.00, 0.00, 0.00, 0.00, 0.01, 0.01, 1.02
78, 0.00, 43869.30, 0.00, 0.00, 0.00, 0.00, 0.00, 0.00, 0.01, 0.01, 1.03
79, 0.00, 43889.50, 0.00, 0.00, 0.00, 0.00, 0.00, 0.00, 0.01, 0.01, 1.03
80, 0.00, 43904.61, 0.00, 0.00, 0.00, 0.00, 0.00, 0.00, 0.01, 0.01, 1.03
81, 0.00, 43892.86, 0.00, 0.00, 0.00, 0.00, 0.00, 0.00, 0.01, 0.01, 1.03
82, 0.00, 43878.39, 0.00, 0.00, 0.00, 0.00, 0.00, 0.00, 0.01, 0.01, 1.03
83, 0.00, 43890.06, 0.00, 0.00, 0.00, 0.00, 0.00, 0.00, 0.01, 0.01, 1.02
84, 0.00, 43910.98, 0.00, 0.00, 0.00, 0.00, 0.00, 0.00, 0.01, 0.01, 1.02
85, 0.00, 43899.74, 0.00, 0.00, 0.00, 0.00, 0.00, 0.00, 0.01, 0.01, 1.02
86, 0.00, 43879.20, 0.00, 0.00, 0.00, 0.00, 0.00, 0.00, 0.01, 0.01, 1.02
87, 0.00, 43884.30, 0.00, 0.00, 0.00, 0.00, 0.00, 0.00, 0.01, 0.01, 1.02
88, 0.00, 43905.15, 0.00, 0.00, 0.00, 0.00, 0.00, 0.00, 0.01, 0.01, 1.02
89, 0.00, 43903.88, 0.00, 0.00, 0.00, 0.00, 0.00, 0.00, 0.01, 0.01, 1.02
90, 0.00, 43881.82, 0.00, 0.00, 0.00, 0.00, 0.00, 0.00, 0.01, 0.01, 1.02
91, 0.00, 43877.88, 0.00, 0.00, 0.00, 0.00, 0.00, 0.00, 0.01, 0.01, 1.02
92, 0.00, 43897.10, 0.00, 0.00, 0.00, 0.00, 0.00, 0.00, 0.01, 0.01, 1.02
