%OpenBCI Raw EEG Data
%
%Sample Rate = 250.0 Hz
%First Column = SampleIndex
%Other Columns = EEG data in microvolts followed by Accel Data (in G) interleaved with Aux Data
0, 0.00, 4935.13, 0.00, 0.00, 0.00, 0.00, 0.00, 0.00, 0.01, -0.20, 1.01
1, 0.00, 5113.94, 0.00, 0.00, 0.00, 0.00, 0.00, 0.00, 0.01, -0.20, 1.01
2, 0.00, 5256.93, 0.00, 0.00, 0.00, 0.00, 0.00, 0.00, 0.01, -0.19, 1.01
3, 0.00, 5543.59, 0.00, 0.00, 0.00, 0.00, 0.00, 0.00, 0.01, -0.19, 1.01
4, 0.00, 5863.29, 0.00, 0.00, 0.00, 0.00, 0.00, 0.00, 0.01, -0.19, 1.01
5, 0.00, 6045.43, 0.00, 0.00, 0.00, 0.00, 0.00, 0.00, 0.01, -0.19, 1.01
6, 0.00, 6159.54, 0.00, 0.00, 0.00, 0.00, 0.00, 0.00, 0.01, -0.19, 1.01
7, 0.00, 6400.42, 0.00, 0.00, 0.00, 0.00, 0.00, 0.00, 0.01, -0.19, 1.01
8, 0.00, 6732.21, 0.00, 0.00, 0.00, 0.00, 0.00, 0.00, 0.01, -0.19, 1.01
9, 0.00, 6959.33, 0.00, 0.00, 0.00, 0.00, 0.00, 0.00, 0.01, -0.19, 1.01
10, 0.00, 7083.45, 0.00, 0.00, 0.00, 0.00, 0.00, 0.00, 0.01, -0.19, 1.01
11, 0.00, 7285.95, 0.00, 0.00, 0.00, 0.00, 0.00, 0.00, 0.01, -0.19, 1.01
12, 0.00, 7602.12, 0.00, 0.00, 0.00, 0.00, 0.00, 0.00, 0.01, -0.19, 1.02
13, 0.00, 7879.35, 0.00, 0.00, 0.00, 0.00, 0.00, 0.00, 0.01, -0.19, 1.02
14, 0.00, 8075.86, 0.00, 0.00, 0.00, 0.00, 0.00, 0.00, 0.01, -0.19, 1.02
15, 0.00, 8233.78, 0.00, 0.00, 0.00, 0.00, 0.00, 0.00, 0.01, -0.19, 1.02
16, 0.00, 8505.91, 0.00, 0.00, 0.00, 0.00, 0.00, 0.00, 0.01, -0.19, 1.02
17, 0.00, 8809.36, 0.00, 0.00, 0.00, 0.00, 0.00, 0.00, 0.00, -0.20, 1.02
18, 0.00, 9002.10, 0.00, 0.00, 0.00, 0.00, 0.00, 0.00, 0.00, -0.20, 1.02
19, 0.00, 9121.28, 0.00, 0.00, 0.00, 0.00, 0.00, 0.00, 0.00, -0.20, 1.02
20, 0.00, 9257.00, 0.00, 0.00, 0.00, 0.00, 0.00, 0.00, 0.00, -0.20, 1.02
21, 0.00, 9429.80, 0.00, 0.00, 0.00, 0.00, 0.00, 0.00, 0.00, -0.20, 1.02
22, 0.00, 9667.26, 0.00, 0.00, 0.00, 0.00, 0.00, 0.00, 0.01, -0.20, 1.02
23, 0.00, 9871.76, 0.00, 0.00, 0.00, 0.00, 0.00, 0.00, 0.01, -0.20, 1.02
24, 0.00, 9931.39, 0.00, 0.00, 0.00, 0.00, 0.00, 0.00, 0.01, -0.20, 1.02
25, 0.00, 9957.95, 0.00, 0.00, 0.00, 0.00, 0.00, 0.00, 0.01, -0.20, 1.02
26, 0.00, 10084.50, 0.00, 0.00, 0.00, 0.00, 0.00, 0.00, 0.01, -0.20, 1.02
27, 0.00, 10211.75, 0.00, 0.00, 0.00, 0.00, 0.00, 0.00, 0.01, -0.20, 1.02
28, 0.00, 10181.17, 0.00, 0.00, 0.00, 0.00, 0.00, 0.00, 0.01, -0.20, 1.02
29, 0.00, 10089.11, 0.00, 0.00, 0.00, 0.00, 0.00, 0.00, 0.01, -0.20, 1.02
30, 0.00, 10087.43, 0.00, 0.00, 0.00, 0.00, 0.00, 0.00, 0.01, -0.20, 1.02
31, 0.00, 10149.39, 0.00, 0.00, 0.00, 0.00, 0.00, 0.00, 0.01, -0.20, 1.02
32, 0.00, 10103.61, 0.00, 0.00, 0.00, 0.00, 0.00, 0.00, 0.01, -0.20, 1.01
33, 0.00, 9985.15, 0.00, 0.00, 0.00, 0.00, 0.00, 0.00, 0.01, -0.20, 1.01
34, 0.00, 9966.82, 0.00, 0.00, 0.00, 0.00, 0.00, 0.00, 0.01, -0.20, 1.01
35, 0.00, 10038.59, 0.00, 0.00, 0.00, 0.00, 0.00, 0.00, 0.01, -0.20, 1.01
36, 0.00, 10018.19, 0.00, 0.00, 0.00, 0.00, 0.00, 0.00, 0.01, -0.20, 1.01
37, 0.00, 9934.81, 0.00, 0.00, 0.00, 0.00, 0.00, 0.00, 0.01, -0.19, 1.02
38, 0.00, 9951.35, 0.00, 0.00, 0.00, 0.00, 0.00, 0.00, 0.01, -0.19, 1.02
39, 0.00, 10097.42, 0.00, 0.00, 0.00, 0.00, 0.00, 0.00, 0.01, -0.19, 1.02
40, 0.00, 10193.71, 0.00, 0.00, 0.00, 0.00, 0.00, 0.00, 0.01, -0.19, 1.02
41, 0.00, 10188.35, 0.00, 0.00, 0.00, 0.00, 0.00, 0.00, 0.01, -0.19, 1.02
42, 0.00, 10246.35, 0.00, 0.00, 0.00, 0.00, 0.00, 0.00, 0.01, -0.19, 1.02
43, 0.00, 10444.75, 0.00, 0.00, 0.00, 0.00, 0.00, 0.00, 0.01, -0.19, 1.02
44, 0.00, 10611.45, 0.00, 0.00, 0.00, 0.00, 0.00, 0.00, 0.01, -0.19, 1.02
45, 0.00, 10659.84, 0.00, 0.00, 0.00, 0.00, 0.00, 0.00, 0.01, -0.19, 1.02
46, 0.00, 10733.58, 0.00, 0.00, 0.00, 0.00, 0.00, 0.00, 0.01, -0.19, 1.02
47, 0.00, 10937.07, 0.00, 0.00, 0.00, 0.00, 0.00, 0.00, 0.01, -0.19, 1.02
48, 0.00, 11155.60, 0.00, 0.00, 0.00, 0.00, 0.00, 0.00, 0.01, -0.19, 1.02
49, 0.00, 11240.04, 0.00, 0.00, 0.00, 0.00, 0.00, 0.00, 0.01, -0.19, 1.02
50, 0.00, 11311.21, 0.00, 0.00, 0.00, 0.00, 0.00, 0.00, 0.01, -0.19, 1.02
51, 0.00, 11506.50, 0.00, 0.00, 0.00, 0.00, 0.00, 0.00, 0.01, -0.19, 1.02
52, 0.00, 11741.39, 0.00, 0.00, 0.00, 0.00, 0.00, 0.00, 0.01, -0.19, 1.02
53, 0.00, 11857.85, 0.00, 0.00, 0.00, 0.00, 0.00, 0.00, 0.01, -0.19, 1.02
54, 0.00, 11937.31, 0.00, 0.00, 0.00, 0.00, 0.00, 0.00, 0.01, -0.19, 1.02
55, 0.00, 12135.81, 0.00, 0.00, 0.00, 0.00, 0.00, 0.00, 0.01, -0.19, 1.02
56, 0.00, 12415.30, 0.00, 0.00, 0.00, 0.00, 0.00, 0.00, 0.01, -0.19, 1.02
57, 0.00, 12571.60, 0.00, 0.00, 0.00, 0.00, 0.00, 0.00, 0.00, -0.20, 1.01
58, 0.00, 12668.66, 0.00, 0.00, 0.00, 0.00, 0.00, 0.00, 0.00, -0.20, 1.01
59, 0.00, 12874.87, 0.00, 0.00, 0.00, 0.00, 0.00, 0.00, 0.00, -0.20, 1.01
60, 0.00, 13157.89, 0.00, 0.00, 0.00, 0.00, 0.00, 0.00, 0.00, -0.20, 1.01
61, 0.00, 13339.83, 0.00, 0.00, 0.00, 0.00, 0.00, 0.00, 0.00, -0.20, 1.01
62, 0.00, 13450.36, 0.00, 0.00, 0.00, 0.00, 0.00, 0.00, 0.00, -0.20, 1.00
63, 0.00, 13636.31, 0.00, 0.00, 0.00, 0.00, 0.00, 0.00, 0.00, -0.20, 1.00
64, 0.00, 13944.60, 0.00, 0.00, 0.00, 0.00, 0.00, 0.00, 0.00, -0.20, 1.00
65, 0.00, 14181.49, 0.00, 0.00, 0.00, 0.00, 0.00, 0.00, 0.00, -0.20, 1.00
66, 0.00, 14333.15, 0.00, 0.00, 0.00, 0.00, 0.00, 0.00, 0.00, -0.20, 1.00
67, 0.00, 14565.80, 0.00, 0.00, 0.00, 0.00, 0.00, 0.00, -0.00, -0.20, 1.01
68, 0.00, 14939.68, 0.00, 0.00, 0.00, 0.00, 0.00, 0.00, -0.00, -0.20, 1.01
69, 0.00, 15298.09, 0.00, 0.00, 0.00, 0.00, 0.00, 0.00, -0.00, -0.20, 1.01
70, 0.00, 15542.87, 0.00, 0.00, 0.00, 0.00, 0.00, 0.00, -0.00, -0.20, 1.01
71, 0.00, 15809.77, 0.00, 0.00, 0.00, 0.00, 0.00, 0.00, -0.00, -0.20, 1.01
72, 0.00, 16212.70, 0.00, 0.00, 0.00, 0.00, 0.00, 0.00, 0.00, -0.19, 1.01
73, 0.00, 16619.04, 0.00, 0.00, 0.00, 0.00, 0.00, 0.00, 0.00, -0.19, 1.01
74, 0.00, 16890.27, 0.00, 0.00, 0.00, 0.00, 0.00, 0.00, 0.00, -0.19, 1.01
75, 0.00, 17136.39, 0.00, 0.00, 0.00, 0.00, 0.00, 0.00, 0.00, -0.19, 1.01
76, 0.00, 17480.34, 0.00, 0.00, 0.00, 0.00, 0.00, 0.00, 0.00, -0.19, 1.01
77, 0.00, 17855.53, 0.00, 0.00, 0.00, 0.00, 0.00, 0.00, 0.00, -0.19, 1.02
78, 0.00, 18115.13, 0.00, 0.00, 0.00, 0.00, 0.00, 0.00, 0.00, -0.19, 1.02
79, 0.00, 18329.23, 0.00, 0.00, 0.00, 0.00, 0.00, 0.00, 0.00, -0.19, 1.02
80, 0.00, 18609.55, 0.00, 0.00, 0.00, 0.00, 0.00, 0.00, 0.00, -0.19, 1.02
81, 0.00, 18921.11, 0.00, 0.00, 0.00, 0.00, 0.00, 0.00, 0.00, -0.19, 1.02
82, 0.00, 19124.71, 0.00, 0.00, 0.00, 0.00, 0.00, 0.00, 0.01, -0.19, 1.01
83, 0.00, 19265.08, 0.00, 0.00, 0.00, 0.00, 0.00, 0.00, 0.01, -0.19, 1.01
84, 0.00, 19447.69, 0.00, 0.00, 0.00, 0.00, 0.00, 0.00, 0.01, -0.19, 1.01
85, 0.00, 19684.49, 0.00, 0.00, 0.00, 0.00, 0.00, 0.00, 0.01, -0.19, 1.01
86, 0.00, 19843.05, 0.00, 0.00, 0.00, 0.00, 0.00, 0.00, 0.01, -0.19, 1.01
87, 0.00, 19921.84, 0.00, 0.00, 0.00, 0.00, 0.00, 0.00, 0.01, -0.19, 1.01
88, 0.00, 20035.12, 0.00, 0.00, 0.00, 0.00, 0.00, 0.00, 0.01, -0.19, 1.01
89, 0.00, 20206.40, 0.00, 0.00, 0.00, 0.00, 0.00, 0.00, 0.01, -0.19, 1.01
90, 0.00, 20334.59, 0.00, 0.00, 0.00, 0.00, 0.00, 0.00, 0.01, -0.19, 1.01
91, 0.00, 20369.35, 0.00, 0.00, 0.00, 0.00, 0.00, 0.00, 0.01, -0.19, 1.01
92, 0.00, 20413.76, 0.00, 0.00, 0.00, 0.00, 0.00, 0.00, 0.01, -0.19, 1.02
93, 0.00, 20546.59, 0.00, 0.00, 0.00, 0.00, 0.00, 0.00, 0.01, -0.19, 1.02
94, 0.00, 20669.42, 0.00, 0.00, 0.00, 0.00, 0.00, 0.00, 0.01, -0.19, 1.02
95, 0.00, 20695.46, 0.00, 0.00, 0.00, 0.00, 0.00, 0.00, 0.01, -0.19, 1.02
96, 0.00, 20731.22, 0.00, 0.00, 0.00, 0.00, 0.00, 0.00, 0.01, -0.19, 1.02
97, 0.00, 20841.39, 0.00, 0.00, 0.00, 0.00, 0.00, 0.00, 0.01, -0.19, 1.01
98, 0.00, 20959.56, 0.00, 0.00, 0.00, 0.00, 0.00, 0.00, 0.01, -0.19, 1.01
99, 0.00, 20985.78, 0.00, 0.00, 0.00, 0.00, 0.00, 0.00, 0.01, -0.19, 1.01
100, 0.00, 21004.18, 0.00, 0.00, 0.00, 0.00, 0.00, 0.00, 0.01, -0.19, 1.01
101, 0.00, 21094.77, 0.00, 0.00, 0.00, 0.00, 0.00, 0.00, 0.01, -0.19, 1.01
102, 0.00, 21223.52, 0.00, 0.00, 0.00, 0.00, 0.00, 0.00, 0.00, -0.19, 1.01
103, 0.00, 21288.31, 0.00, 0.00, 0.00, 0.00, 0.00, 0.00, 0.00, -0.19, 1.01
104, 0.00, 21340.28, 0.00, 0.00, 0.00, 0.00, 0.00, 0.00, 0.00, -0.19, 1.01
105, 0.00, 21441.58, 0.00, 0.00, 0.00, 0.00, 0.00, 0.00, 0.00, -0.19, 1.01
106, 0.00, 21581.50, 0.00, 0.00, 0.00, 0.00, 0.00, 0.00, 0.00, -0.19, 1.01
107, 0.00, 21661.16, 0.00, 0.00, 0.00, 0.00, 0.00, 0.00, 0.00, -0.19, 1.01
108, 0.00, 21699.12, 0.00, 0.00, 0.00, 0.00, 0.00, 0.00, 0.00, -0.19, 1.01
109, 0.00, 21767.42, 0.00, 0.00, 0.00, 0.00, 0.00, 0.00, 0.00, -0.19, 1.01
110, 0.00, 21860.74, 0.00, 0.00, 0.00, 0.00, 0.00, 0.00, 0.00, -0.19, 1.01
111, 0.00, 21921.52, 0.00, 0.00, 0.00, 0.00, 0.00, 0.00, 0.00, -0.19, 1.01
112, 0.00, 21967.09, 0.00, 0.00, 0.00, 0.00, 0.00, 0.00, 0.00, -0.19, 1.01
113, 0.00, 22075.48, 0.00, 0.00, 0.00, 0.00, 0.00, 0.00, 0.00, -0.19, 1.01
114, 0.00, 22233.84, 0.00, 0.00, 0.00, 0.00, 0.00, 0.00, 0.00, -0.19, 1.01
115, 0.00, 22382.41, 0.00, 0.00, 0.00, 0.00, 0.00, 0.00, 0.00, -0.19, 1.01
116, 0.00, 22511.47, 0.00, 0.00, 0.00, 0.00, 0.00, 0.00, 0.00, -0.19, 1.01
117, 0.00, 22682.19, 0.00, 0.00, 0.00, 0.00, 0.00, 0.00, 0.01, -0.19, 1.00
118, 0.00, 22884.97, 0.00, 0.00, 0.00, 0.00, 0.00, 0.00, 0.01, -0.19, 1.00
119, 0.00, 23080.86, 0.00, 0.00, 0.00, 0.00, 0.00, 0.00, 0.01, -0.19, 1.00
120, 0.00, 23231.84, 0.00, 0.00, 0.00, 0.00, 0.00, 0.00, 0.01, -0.19, 1.00
121, 0.00, 23377.93, 0.00, 0.00, 0.00, 0.00, 0.00, 0.00, 0.01, -0.19, 1.00
122, 0.00, 23528.18, 0.00, 0.00, 0.00, 0.00, 0.00, 0.00, 0.01, -0.19, 1.01
123, 0.00, 23682.88, 0.00, 0.00, 0.00, 0.00, 0.00, 0.00, 0.01, -0.19, 1.01
124, 0.00, 23778.79, 0.00, 0.00, 0.00, 0.00, 0.00, 0.00, 0.01, -0.19, 1.01
125, 0.00, 23860.42, 0.00, 0.00, 0.00, 0.00, 0.00, 0.00, 0.01, -0.19, 1.01
126, 0.00, 23949.67, 0.00, 0.00, 0.00, 0.00, 0.00, 0.00, 0.01, -0.19, 1.01
127, 0.00, 24044.89, 0.00, 0.00, 0.00, 0.00, 0.00, 0.00, -0.00, -0.19, 1.00
128, 0.00, 24095.65, 0.00, 0.00, 0.00, 0.00, 0.00, 0.00, -0.00, -0.19, 1.00
129, 0.00, 24137.09, 0.00, 0.00, 0.00, 0.00, 0.00, 0.00, -0.00, -0.19, 1.00
130, 0.00, 24181.70, 0.00, 0.00, 0.00, 0.00, 0.00, 0.00, -0.00, -0.19, 1.00
131, 0.00, 24230.47, 0.00, 0.00, 0.00, 0.00, 0.00, 0.00, -0.00, -0.19, 1.00
132, 0.00, 24245.23, 0.00, 0.00, 0.00, 0.00, 0.00, 0.00, 0.01, -0.19, 1.01
133, 0.00, 24247.53, 0.00, 0.00, 0.00, 0.00, 0.00, 0.00, 0.01, -0.19, 1.01
134, 0.00, 24254.75, 0.00, 0.00, 0.00, 0.00, 0.00, 0.00, 0.01, -0.19, 1.01
135, 0.00, 24261.10, 0.00, 0.00, 0.00, 0.00, 0.00, 0.00, 0.01, -0.19, 1.01
136, 0.00, 24237.98, 0.00, 0.00, 0.00, 0.00, 0.00, 0.00, 0.01, -0.19, 1.01
137, 0.00, 24185.66, 0.00, 0.00, 0.00, 0.00, 0.00, 0.00, 0.00, -0.19, 1.01
138, 0.00, 24138.34, 0.00, 0.00, 0.00, 0.00, 0.00, 0.00, 0.00, -0.19, 1.01
139, 0.00, 24087.89, 0.00, 0.00, 0.00, 0.00, 0.00, 0.00, 0.00, -0.19, 1.01
140, 0.00, 24015.92, 0.00, 0.00, 0.00, 0.00, 0.00, 0.00, 0.00, -0.19, 1.01
141, 0.00, 23915.47, 0.00, 0.00, 0.00, 0.00, 0.00, 0.00, 0.00, -0.19, 1.01
142, 0.00, 23827.58, 0.00, 0.00, 0.00, 0.00, 0.00, 0.00, 0.01, -0.20, 1.01
143, 0.00, 23731.58, 0.00, 0.00, 0.00, 0.00, 0.00, 0.00, 0.01, -0.20, 1.01
144, 0.00, 23626.33, 0.00, 0.00, 0.00, 0.00, 0.00, 0.00, 0.01, -0.20, 1.01
145, 0.00, 23487.17, 0.00, 0.00, 0.00, 0.00, 0.00, 0.00, 0.01, -0.20, 1.01
146, 0.00, 23354.76, 0.00, 0.00, 0.00, 0.00, 0.00, 0.00, 0.01, -0.20, 1.01
147, 0.00, 23215.66, 0.00, 0.00, 0.00, 0.00, 0.00, 0.00, 0.01, -0.19, 1.01
148, 0.00, 23073.12, 0.00, 0.00, 0.00, 0.00, 0.00, 0.00, 0.01, -0.19, 1.01
149, 0.00, 22908.15, 0.00, 0.00, 0.00, 0.00, 0.00, 0.00, 0.01, -0.19, 1.01
150, 0.00, 22750.83, 0.00, 0.00, 0.00, 0.00, 0.00, 0.00, 0.01, -0.19, 1.01
151, 0.00, 22588.94, 0.00, 0.00, 0.00, 0.00, 0.00, 0.00, 0.01, -0.19, 1.01
152, 0.00, 22448.88, 0.00, 0.00, 0.00, 0.00, 0.00, 0.00, 0.01, -0.19, 1.01
153, 0.00, 22301.56, 0.00, 0.00, 0.00, 0.00, 0.00, 0.00, 0.01, -0.19, 1.01
154, 0.00, 22162.20, 0.00, 0.00, 0.00, 0.00, 0.00, 0.00, 0.01, -0.19, 1.01
155, 0.00, 22033.77, 0.00, 0.00, 0.00, 0.00, 0.00, 0.00, 0.01, -0.19, 1.01
156, 0.00, 21924.09, 0.00, 0.00, 0.00, 0.00, 0.00, 0.00, 0.01, -0.19, 1.01
157, 0.00, 21811.90, 0.00, 0.00, 0.00, 0.00, 0.00, 0.00, 0.01, -0.19, 1.01
158, 0.00, 21700.77, 0.00, 0.00, 0.00, 0.00, 0.00, 0.00, 0.01, -0.19, 1.01
159, 0.00, 21602.98, 0.00, 0.00, 0.00, 0.00, 0.00, 0.00, 0.01, -0.19, 1.01
160, 0.00, 21523.97, 0.00, 0.00, 0.00, 0.00, 0.00, 0.00, 0.01, -0.19, 1.01
161, 0.00, 21445.07, 0.00, 0.00, 0.00, 0.00, 0.00, 0.00, 0.01, -0.19, 1.01
162, 0.00, 21364.20, 0.00, 0.00, 0.00, 0.00, 0.00, 0.00, 0.01, -0.19, 1.01
163, 0.00, 21297.01, 0.00, 0.00, 0.00, 0.00, 0.00, 0.00, 0.00, -0.19, 1.01
164, 0.00, 21225.91, 0.00, 0.00, 0.00, 0.00, 0.00, 0.00, 0.00, -0.19, 1.01
165, 0.00, 21169.07, 0.00, 0.00, 0.00, 0.00, 0.00, 0.00, 0.00, -0.19, 1.01
166, 0.00, 21116.21, 0.00, 0.00, 0.00, 0.00, 0.00, 0.00, 0.00, -0.19, 1.01
167, 0.00, 21085.43, 0.00, 0.00, 0.00, 0.00, 0.00, 0.00, 0.00, -0.19, 1.01
168, 0.00, 21051.61, 0.00, 0.00, 0.00, 0.00, 0.00, 0.00, 0.01, -0.19, 1.01
169, 0.00, 21020.27, 0.00, 0.00, 0.00, 0.00, 0.00, 0.00, 0.01, -0.19, 1.01
170, 0.00, 20979.39, 0.00, 0.00, 0.00, 0.00, 0.00, 0.00, 0.01, -0.19, 1.01
171, 0.00, 20956.79, 0.00, 0.00, 0.00, 0.00, 0.00, 0.00, 0.01, -0.19, 1.01
172, 0.00, 20931.63, 0.00, 0.00, 0.00, 0.00, 0.00, 0.00, 0.01, -0.19, 1.01
173, 0.00, 20921.95, 0.00, 0.00, 0.00, 0.00, 0.00, 0.00, 0.01, -0.19, 1.01
174, 0.00, 20912.49, 0.00, 0.00, 0.00, 0.00, 0.00, 0.00, 0.01, -0.19, 1.01
175, 0.00, 20910.99, 0.00, 0.00, 0.00, 0.00, 0.00, 0.00, 0.01, -0.19, 1.01
176, 0.00, 20904.36, 0.00, 0.00, 0.00, 0.00, 0.00, 0.00, 0.01, -0.19, 1.01
177, 0.00, 20911.31, 0.00, 0.00, 0.00, 0.00, 0.00, 0.00, 0.01, -0.19, 1.01
178, 0.00, 20906.79, 0.00, 0.00, 0.00, 0.00, 0.00, 0.00, 0.01, -0.19, 1.01
179, 0.00, 20910.75, 0.00, 0.00, 0.00, 0.00, 0.00, 0.00, 0.01, -0.19, 1.01
180, 0.00, 20908.78, 0.00, 0.00, 0.00, 0.00, 0.00, 0.00, 0.01, -0.19, 1.01
181, 0.00, 20909.16, 0.00, 0.00, 0.00, 0.00, 0.00, 0.00, 0.01, -0.19, 1.01
182, 0.00, 20902.61, 0.00, 0.00, 0.00, 0.00, 0.00, 0.00, 0.01, -0.19, 1.01
183, 0.00, 20897.61, 0.00, 0.00, 0.00, 0.00, 0.00, 0.00, 0.01, -0.19, 1.01
184, 0.00, 20903.93, 0.00, 0.00, 0.00, 0.00, 0.00, 0.00, 0.01, -0.19, 1.01
185, 0.00, 20905.61, 0.00, 0.00, 0.00, 0.00, 0.00, 0.00, 0.01, -0.19, 1.01
186, 0.00, 20909.21, 0.00, 0.00, 0.00, 0.00, 0.00, 0.00, 0.01, -0.19, 1.01
187, 0.00, 20903.98, 0.00, 0.00, 0.00, 0.00, 0.00, 0.00, 0.01, -0.19, 1.01
188, 0.00, 20898.75, 0.00, 0.00, 0.00, 0.00, 0.00, 0.00, 0.01, -0.19, 1.01
189, 0.00, 20899.13, 0.00, 0.00, 0.00, 0.00, 0.00, 0.00, 0.01, -0.19, 1.01
190, 0.00, 20912.13, 0.00, 0.00, 0.00, 0.00, 0.00, 0.00, 0.01, -0.19, 1.01
191, 0.00, 20915.29, 0.00, 0.00, 0.00, 0.00, 0.00, 0.00, 0.01, -0.19, 1.01
192, 0.00, 20931.92, 0.00, 0.00, 0.00, 0.00, 0.00, 0.00, 0.01, -0.19, 1.01
193, 0.00, 20933.28, 0.00, 0.00, 0.00, 0.00, 0.00, 0.00, 0.01, -0.19, 1.01
194, 0.00, 20939.96, 0.00, 0.00, 0.00, 0.00, 0.00, 0.00, 0.01, -0.19, 1.01
195, 0.00, 20933.26, 0.00, 0.00, 0.00, 0.00, 0.00, 0.00, 0.01, -0.19, 1.01
196, 0.00, 20932.36, 0.00, 0.00, 0.00, 0.00, 0.00, 0.00, 0.01, -0.19, 1.01
197, 0.00, 20918.97, 0.00, 0.00, 0.00, 0.00, 0.00, 0.00, 0.01, -0.19, 1.01
198, 0.00, 20925.17, 0.00, 0.00, 0.00, 0.00, 0.00, 0.00, 0.01, -0.19, 1.01
199, 0.00, 20924.70, 0.00, 0.00, 0.00, 0.00, 0.00, 0.00, 0.01, -0.19, 1.01
200, 0.00, 20932.36, 0.00, 0.00, 0.00, 0.00, 0.00, 0.00, 0.01, -0.19, 1.01
201, 0.00, 20921.41, 0.00, 0.00, 0.00, 0.00, 0.00, 0.00, 0.01, -0.19, 1.01
202, 0.00, 20919.91, 0.00, 0.00, 0.00, 0.00, 0.00, 0.00, 0.01, -0.19, 1.01
203, 0.00, 20922.53, 0.00, 0.00, 0.00, 0.00, 0.00, 0.00, 0.00, -0.19, 1.01
204, 0.00, 20923.62, 0.00, 0.00, 0.00, 0.00, 0.00, 0.00, 0.00, -0.19, 1.01
205, 0.00, 20917.03, 0.00, 0.00, 0.00, 0.00, 0.00, 0.00, 0.00, -0.19, 1.01
206, 0.00, 20912.31, 0.00, 0.00, 0.00, 0.00, 0.00, 0.00, 0.00, -0.19, 1.01
207, 0.00, 20912.87, 0.00, 0.00, 0.00, 0.00, 0.00, 0.00, 0.00, -0.19, 1.01
208, 0.00, 20919.18, 0.00, 0.00, 0.00, 0.00, 0.00, 0.00, 0.00, -0.19, 1.01
209, 0.00, 20916.92, 0.00, 0.00, 0.00, 0.00, 0.00, 0.00, 0.00, -0.19, 1.01
210, 0.00, 20904.02, 0.00, 0.00, 0.00, 0.00, 0.00, 0.00, 0.00, -0.19, 1.01
211, 0.00, 20900.02, 0.00, 0.00, 0.00, 0.00, 0.00, 0.00, 0.00, -0.19, 1.01
212, 0.00, 20892.20, 0.00, 0.00, 0.00, 0.00, 0.00, 0.00, 0.00, -0.19, 1.01
213, 0.00, 20895.73, 0.00, 0.00, 0.00, 0.00, 0.00, 0.00, 0.00, -0.19, 1.00
214, 0.00, 20887.28, 0.00, 0.00, 0.00, 0.00, 0.00, 0.00, 0.00, -0.19, 1.00
215, 0.00, 20897.23, 0.00, 0.00, 0.00, 0.00, 0.00, 0.00, 0.00, -0.19, 1.00
216, 0.00, 20913.34, 0.00, 0.00, 0.00, 0.00, 0.00, 0.00, 0.00, -0.19, 1.00
217, 0.00, 20932.99, 0.00, 0.00, 0.00, 0.00, 0.00, 0.00, 0.00, -0.19, 1.00
218, 0.00, 20933.28, 0.00, 0.00, 0.00, 0.00, 0.00, 0.00, 0.01, -0.19, 1.01
219, 0.00, 20946.24, 0.00, 0.00, 0.00, 0.00, 0.00, 0.00, 0.01, -0.19, 1.01
220, 0.00, 20959.99, 0.00, 0.00, 0.00, 0.00, 0.00, 0.00, 0.01, -0.19, 1.01
221, 0.00, 20989.94, 0.00, 0.00, 0.00, 0.00, 0.00, 0.00, 0.01, -0.19, 1.01
222, 0.00, 20994.28, 0.00, 0.00, 0.00, 0.00, 0.00, 0.00, 0.01, -0.19, 1.01
223, 0.00, 21006.32, 0.00, 0.00, 0.00, 0.00, 0.00, 0.00, 0.01, -0.19, 1.01
224, 0.00, 21023.63, 0.00, 0.00, 0.00, 0.00, 0.00, 0.00, 0.01, -0.19, 1.01
225, 0.00, 21049.20, 0.00, 0.00, 0.00, 0.00, 0.00, 0.00, 0.01, -0.19, 1.01
226, 0.00, 21055.03, 0.00, 0.00, 0.00, 0.00, 0.00, 0.00, 0.01, -0.19, 1.01
227, 0.00, 21053.51, 0.00, 0.00, 0.00, 0.00, 0.00, 0.00, 0.01, -0.19, 1.01
228, 0.00, 21051.52, 0.00, 0.00, 0.00, 0.00, 0.00, 0.00, 0.01, -0.19, 1.01
229, 0.00, 21059.19, 0.00, 0.00, 0.00, 0.00, 0.00, 0.00, 0.01, -0.19, 1.01
230, 0.00, 21054.07, 0.00, 0.00, 0.00, 0.00, 0.00, 0.00, 0.01, -0.19, 1.01
231, 0.00, 21037.10, 0.00, 0.00, 0.00, 0.00, 0.00, 0.00, 0.01, -0.19, 1.01
232, 0.00, 21038.13, 0.00, 0.00, 0.00, 0.00, 0.00, 0.00, 0.01, -0.19, 1.01
233, 0.00, 21042.65, 0.00, 0.00, 0.00, 0.00, 0.00, 0.00, 0.01, -0.20, 1.01
234, 0.00, 21042.94, 0.00, 0.00, 0.00, 0.00, 0.00, 0.00, 0.01, -0.20, 1.01
235, 0.00, 21024.90, 0.00, 0.00, 0.00, 0.00, 0.00, 0.00, 0.01, -0.20, 1.01
236, 0.00, 21014.35, 0.00, 0.00, 0.00, 0.00, 0.00, 0.00, 0.01, -0.20, 1.01
237, 0.00, 21017.37, 0.00, 0.00, 0.00, 0.00, 0.00, 0.00, 0.01, -0.20, 1.01
238, 0.00, 21028.99, 0.00, 0.00, 0.00, 0.00, 0.00, 0.00, 0.00, -0.20, 1.01
239, 0.00, 21013.70, 0.00, 0.00, 0.00, 0.00, 0.00, 0.00, 0.00, -0.20, 1.01
240, 0.00, 21011.89, 0.00, 0.00, 0.00, 0.00, 0.00, 0.00, 0.00, -0.20, 1.01
241, 0.00, 21015.38, 0.00, 0.00, 0.00, 0.00, 0.00, 0.00, 0.00, -0.20, 1.01
242, 0.00, 21039.92, 0.00, 0.00, 0.00, 0.00, 0.00, 0.00, 0.00, -0.20, 1.01
243, 0.00, 21031.74, 0.00, 0.00, 0.00, 0.00, 0.00, 0.00, -0.00, -0.19, 1.01
244, 0.00, 21026.60, 0.00, 0.00, 0.00, 0.00, 0.00, 0.00, -0.00, -0.19, 1.01
245, 0.00, 21034.40, 0.00, 0.00, 0.00, 0.00, 0.00, 0.00, -0.00, -0.19, 1.01
246, 0.00, 21063.17, 0.00, 0.00, 0.00, 0.00, 0.00, 0.00, -0.00, -0.19, 1.01
247, 0.00, 21065.15, 0.00, 0.00, 0.00, 0.00, 0.00, 0.00, -0.00, -0.19, 1.01
248, 0.00, 21075.15, 0.00, 0.00, 0.00, 0.00, 0.00, 0.00, 0.00, -0.19, 1.01
249, 0.00, 21091.17, 0.00, 0.00, 0.00, 0.00, 0.00, 0.00, 0.00, -0.19, 1.01
250, 0.00, 21125.95, 0.00, 0.00, 0.00, 0.00, 0.00, 0.00, 0.00, -0.19, 1.01
251, 0.00, 21143.83, 0.00, 0.00, 0.00, 0.00, 0.00, 0.00, 0.00, -0.19, 1.01
252, 0.00, 21139.25, 0.00, 0.00, 0.00, 0.00, 0.00, 0.00, 0.00, -0.19, 1.01
253, 0.00, 21149.31, 0.00, 0.00, 0.00, 0.00, 0.00, 0.00, 0.00, -0.19, 1.01
254, 0.00, 21186.35, 0.00, 0.00, 0.00, 0.00, 0.00, 0.00, 0.00, -0.19, 1.01
255, 0.00, 21211.40, 0.00, 0.00, 0.00, 0.00, 0.00, 0.00, 0.00, -0.19, 1.01
0, 0.00, 21224.39, 0.00, 0.00, 0.00, 0.00, 0.00, 0.00, 0.00, -0.19, 1.01
1, 0.00, 21245.40, 0.00, 0.00, 0.00, 0.00, 0.00, 0.00, 0.00, -0.19, 1.01
2, 0.00, 21278.93, 0.00, 0.00, 0.00, 0.00, 0.00, 0.00, 0.01, -0.19, 1.01
3, 0.00, 21317.55, 0.00, 0.00, 0.00, 0.00, 0.00, 0.00, 0.01, -0.19, 1.01
4, 0.00, 21321.75, 0.00, 0.00, 0.00, 0.00, 0.00, 0.00, 0.01, -0.19, 1.01
5, 0.00, 21342.88, 0.00, 0.00, 0.00, 0.00, 0.00, 0.00, 0.01, -0.19, 1.01
6, 0.00, 21380.72, 0.00, 0.00, 0.00, 0.00, 0.00, 0.00, 0.01, -0.19, 1.01
7, 0.00, 21434.23, 0.00, 0.00, 0.00, 0.00, 0.00, 0.00, 0.01, -0.19, 1.01
8, 0.00, 21453.85, 0.00, 0.00, 0.00, 0.00, 0.00, 0.00, 0.01, -0.19, 1.01
9, 0.00, 21489.37, 0.00, 0.00, 0.00, 0.00, 0.00, 0.00, 0.01, -0.19, 1.01
10, 0.00, 21539.24, 0.00, 0.00, 0.00, 0.00, 0.00, 0.00, 0.01, -0.19, 1.01
11, 0.00, 21610.36, 0.00, 0.00, 0.00, 0.00, 0.00, 0.00, 0.01, -0.19, 1.01
12, 0.00, 21643.44, 0.00, 0.00, 0.00, 0.00, 0.00, 0.00, 0.01, -0.20, 1.02
13, 0.00, 21682.58, 0.00, 0.00, 0.00, 0.00, 0.00, 0.00, 0.01, -0.20, 1.02
14, 0.00, 21734.88, 0.00, 0.00, 0.00, 0.00, 0.00, 0.00, 0.01, -0.20, 1.02
15, 0.00, 21809.78, 0.00, 0.00, 0.00, 0.00, 0.00, 0.00, 0.01, -0.20, 1.02
16, 0.00, 21846.35, 0.00, 0.00, 0.00, 0.00, 0.00, 0.00, 0.01, -0.20, 1.02
17, 0.00, 21845.03, 0.00, 0.00, 0.00, 0.00, 0.00, 0.00, 0.01, -0.20, 1.02
18, 0.00, 21820.20, 0.00, 0.00, 0.00, 0.00, 0.00, 0.00, 0.01, -0.20, 1.02
19, 0.00, 21805.40, 0.00, 0.00, 0.00, 0.00, 0.00, 0.00, 0.01, -0.20, 1.02
20, 0.00, 21758.60, 0.00, 0.00, 0.00, 0.00, 0.00, 0.00, 0.01, -0.20, 1.02
21, 0.00, 21686.40, 0.00, 0.00, 0.00, 0.00, 0.00, 0.00, 0.01, -0.20, 1.02
22, 0.00, 21622.54, 0.00, 0.00, 0.00, 0.00, 0.00, 0.00, 0.01, -0.20, 1.01
23, 0.00, 21584.03, 0.00, 0.00, 0.00, 0.00, 0.00, 0.00, 0.01, -0.20, 1.01
24, 0.00, 21542.68, 0.00, 0.00, 0.00, 0.00, 0.00, 0.00, 0.01, -0.20, 1.01
25, 0.00, 21466.90, 0.00, 0.00, 0.00, 0.00, 0.00, 0.00, 0.01, -0.20, 1.01
26, 0.00, 21398.49, 0.00, 0.00, 0.00, 0.00, 0.00, 0.00, 0.01, -0.20, 1.01
27, 0.00, 21347.37, 0.00, 0.00, 0.00, 0.00, 0.00, 0.00, 0.01, -0.20, 1.01
28, 0.00, 21296.85, 0.00, 0.00, 0.00, 0.00, 0.00, 0.00, 0.01, -0.20, 1.01
29, 0.00, 21214.73, 0.00, 0.00, 0.00, 0.00, 0.00, 0.00, 0.01, -0.20, 1.01
30, 0.00, 21138.98, 0.00, 0.00, 0.00, 0.00, 0.00, 0.00, 0.01, -0.20, 1.01
31, 0.00, 21081.65, 0.00, 0.00, 0.00, 0.00, 0.00, 0.00, 0.01, -0.20, 1.01
32, 0.00, 21047.86, 0.00, 0.00, 0.00, 0.00, 0.00, 0.00, 0.01, -0.20, 1.01
33, 0.00, 20960.68, 0.00, 0.00, 0.00, 0.00, 0.00, 0.00, 0.01, -0.20, 1.01
34, 0.00, 20880.04, 0.00, 0.00, 0.00, 0.00, 0.00, 0.00, 0.01, -0.20, 1.01
35, 0.00, 20807.80, 0.00, 0.00, 0.00, 0.00, 0.00, 0.00, 0.01, -0.20, 1.01
36, 0.00, 20751.76, 0.00, 0.00, 0.00, 0.00, 0.00, 0.00, 0.01, -0.20, 1.01
37, 0.00, 20658.73, 0.00, 0.00, 0.00, 0.00, 0.00, 0.00, 0.01, -0.20, 1.01
38, 0.00, 20564.39, 0.00, 0.00, 0.00, 0.00, 0.00, 0.00, 0.01, -0.20, 1.01
39, 0.00, 20488.23, 0.00, 0.00, 0.00, 0.00, 0.00, 0.00, 0.01, -0.20, 1.01
40, 0.00, 20444.34, 0.00, 0.00, 0.00, 0.00, 0.00, 0.00, 0.01, -0.20, 1.01
41, 0.00, 20363.87, 0.00, 0.00, 0.00, 0.00, 0.00, 0.00, 0.01, -0.20, 1.01
42, 0.00, 20267.11, 0.00, 0.00, 0.00, 0.00, 0.00, 0.00, 0.01, -0.20, 1.01
43, 0.00, 20187.58, 0.00, 0.00, 0.00, 0.00, 0.00, 0.00, 0.01, -0.20, 1.01
44, 0.00, 20123.45, 0.00, 0.00, 0.00, 0.00, 0.00, 0.00, 0.01, -0.20, 1.01
45, 0.00, 20044.48, 0.00, 0.00, 0.00, 0.00, 0.00, 0.00, 0.01, -0.20, 1.01
46, 0.00, 19941.46, 0.00, 0.00, 0.00, 0.00, 0.00, 0.00, 0.01, -0.20, 1.01
47, 0.00, 19852.55, 0.00, 0.00, 0.00, 0.00, 0.00, 0.00, 0.01, -0.20, 1.01
48, 0.00, 19796.43, 0.00, 0.00, 0.00, 0.00, 0.00, 0.00, 0.01, -0.20, 1.01
49, 0.00, 19740.19, 0.00, 0.00, 0.00, 0.00, 0.00, 0.00, 0.01, -0.20, 1.01
50, 0.00, 19648.35, 0.00, 0.00, 0.00, 0.00, 0.00, 0.00, 0.01, -0.20, 1.01
51, 0.00, 19573.29, 0.00, 0.00, 0.00, 0.00, 0.00, 0.00, 0.01, -0.20, 1.01
52, 0.00, 19514.77, 0.00, 0.00, 0.00, 0.00, 0.00, 0.00, 0.01, -0.20, 1.01
53, 0.00, 19471.79, 0.00, 0.00, 0.00, 0.00, 0.00, 0.00, 0.01, -0.20, 1.01
54, 0.00, 19386.83, 0.00, 0.00, 0.00, 0.00, 0.00, 0.00, 0.01, -0.20, 1.01
55, 0.00, 19316.80, 0.00, 0.00, 0.00, 0.00, 0.00, 0.00, 0.01, -0.20, 1.01
56, 0.00, 19277.78, 0.00, 0.00, 0.00, 0.00, 0.00, 0.00, 0.01, -0.20, 1.01
57, 0.00, 19260.65, 0.00, 0.00, 0.00, 0.00, 0.00, 0.00, 0.01, -0.19, 1.01
58, 0.00, 19199.83, 0.00, 0.00, 0.00, 0.00, 0.00, 0.00, 0.01, -0.19, 1.01
59, 0.00, 19151.29, 0.00, 0.00, 0.00, 0.00, 0.00, 0.00, 0.01, -0.19, 1.01
60, 0.00, 19120.08, 0.00, 0.00, 0.00, 0.00, 0.00, 0.00, 0.01, -0.19, 1.01
61, 0.00, 19122.63, 0.00, 0.00, 0.00, 0.00, 0.00, 0.00, 0.01, -0.19, 1.01
62, 0.00, 19092.66, 0.00, 0.00, 0.00, 0.00, 0.00, 0.00, 0.01, -0.19, 1.01
63, 0.00, 19056.98, 0.00, 0.00, 0.00, 0.00, 0.00, 0.00, 0.01, -0.19, 1.01
64, 0.00, 19052.76, 0.00, 0.00, 0.00, 0.00, 0.00, 0.00, 0.01, -0.19, 1.01
65, 0.00, 19084.39, 0.00, 0.00, 0.00, 0.00, 0.00, 0.00, 0.01, -0.19, 1.01
66, 0.00, 19085.68, 0.00, 0.00, 0.00, 0.00, 0.00, 0.00, 0.01, -0.19, 1.01
67, 0.00, 19063.76, 0.00, 0.00, 0.00, 0.00, 0.00, 0.00, 0.00, -0.19, 1.01
68, 0.00, 19056.02, 0.00, 0.00, 0.00, 0.00, 0.00, 0.00, 0.00, -0.19, 1.01
69, 0.00, 19091.74, 0.00, 0.00, 0.00, 0.00, 0.00, 0.00, 0.00, -0.19, 1.01
70, 0.00, 19118.25, 0.00, 0.00, 0.00, 0.00, 0.00, 0.00, 0.00, -0.19, 1.01
71, 0.00, 19113.96, 0.00, 0.00, 0.00, 0.00, 0.00, 0.00, 0.00, -0.19, 1.01
72, 0.00, 19129.38, 0.00, 0.00, 0.00, 0.00, 0.00, 0.00, 0.00, -0.19, 1.02
73, 0.00, 19179.74, 0.00, 0.00, 0.00, 0.00, 0.00, 0.00, 0.00, -0.19, 1.02
74, 0.00, 19231.20, 0.00, 0.00, 0.00, 0.00, 0.00, 0.00, 0.00, -0.19, 1.02
75, 0.00, 19244.16, 0.00, 0.00, 0.00, 0.00, 0.00, 0.00, 0.00, -0.19, 1.02
76, 0.00, 19266.51, 0.00, 0.00, 0.00, 0.00, 0.00, 0.00, 0.00, -0.19, 1.02
77, 0.00, 19318.43, 0.00, 0.00, 0.00, 0.00, 0.00, 0.00, 0.00, -0.19, 1.01
78, 0.00, 19377.29, 0.00, 0.00, 0.00, 0.00, 0.00, 0.00, 0.00, -0.19, 1.01
79, 0.00, 19398.94, 0.00, 0.00, 0.00, 0.00, 0.00, 0.00, 0.00, -0.19, 1.01
80, 0.00, 19437.90, 0.00, 0.00, 0.00, 0.00, 0.00, 0.00, 0.00, -0.19, 1.01
81, 0.00, 19488.28, 0.00, 0.00, 0.00, 0.00, 0.00, 0.00, 0.00, -0.19, 1.01
82, 0.00, 19553.44, 0.00, 0.00, 0.00, 0.00, 0.00, 0.00, 0.01, -0.19, 1.01
83, 0.00, 19571.37, 0.00, 0.00, 0.00, 0.00, 0.00, 0.00, 0.01, -0.19, 1.01
84, 0.00, 19580.93, 0.00, 0.00, 0.00, 0.00, 0.00, 0.00, 0.01, -0.19, 1.01
85, 0.00, 19610.06, 0.00, 0.00, 0.00, 0.00, 0.00, 0.00, 0.01, -0.19, 1.01
86, 0.00, 19669.54, 0.00, 0.00, 0.00, 0.00, 0.00, 0.00, 0.01, -0.19, 1.01
87, 0.00, 19689.56, 0.00, 0.00, 0.00, 0.00, 0.00, 0.00, 0.01, -0.19, 1.01
88, 0.00, 19697.23, 0.00, 0.00, 0.00, 0.00, 0.00, 0.00, 0.01, -0.19, 1.01
89, 0.00, 19713.72, 0.00, 0.00, 0.00, 0.00, 0.00, 0.00, 0.01, -0.19, 1.01
90, 0.00, 19762.00, 0.00, 0.00, 0.00, 0.00, 0.00, 0.00, 0.01, -0.19, 1.01
91, 0.00, 19779.33, 0.00, 0.00, 0.00, 0.00, 0.00, 0.00, 0.01, -0.19, 1.01
92, 0.00, 19766.65, 0.00, 0.00, 0.00, 0.00, 0.00, 0.00, 0.01, -0.19, 1.01
93, 0.00, 19775.39, 0.00, 0.00, 0.00, 0.00, 0.00, 0.00, 0.01, -0.19, 1.00
94, 0.00, 19811.71, 0.00, 0.00, 0.00, 0.00, 0.00, 0.00, 0.01, -0.19, 1.00
95, 0.00, 19833.04, 0.00, 0.00, 0.00, 0.00, 0.00, 0.00, 0.01, -0.19, 1.00
96, 0.00, 19824.28, 0.00, 0.00, 0.00, 0.00, 0.00, 0.00, 0.01, -0.19, 1.00
97, 0.00, 19821.64, 0.00, 0.00, 0.00, 0.00, 0.00, 0.00, 0.01, -0.19, 1.00
98, 0.00, 19840.64, 0.00, 0.00, 0.00, 0.00, 0.00, 0.00, 0.00, -0.19, 1.00
99, 0.00, 19857.15, 0.00, 0.00, 0.00, 0.00, 0.00, 0.00, 0.00, -0.19, 1.00
100, 0.00, 19823.22, 0.00, 0.00, 0.00, 0.00, 0.00, 0.00, 0.00, -0.19, 1.00
101, 0.00, 19801.77, 0.00, 0.00, 0.00, 0.00, 0.00, 0.00, 0.00, -0.19, 1.00
102, 0.00, 19802.37, 0.00, 0.00, 0.00, 0.00, 0.00, 0.00, 0.00, -0.19, 1.00
103, 0.00, 19820.19, 0.00, 0.00, 0.00, 0.00, 0.00, 0.00, 0.00, -0.19, 1.01
104, 0.00, 19788.54, 0.00, 0.00, 0.00, 0.00, 0.00, 0.00, 0.00, -0.19, 1.01
105, 0.00, 19762.61, 0.00, 0.00, 0.00, 0.00, 0.00, 0.00, 0.00, -0.19, 1.01
106, 0.00, 19760.17, 0.00, 0.00, 0.00, 0.00, 0.00, 0.00, 0.00, -0.19, 1.01
107, 0.00, 19773.98, 0.00, 0.00, 0.00, 0.00, 0.00, 0.00, 0.00, -0.19, 1.01
108, 0.00, 19737.77, 0.00, 0.00, 0.00, 0.00, 0.00, 0.00, 0.00, -0.19, 1.01
109, 0.00, 19698.01, 0.00, 0.00, 0.00, 0.00, 0.00, 0.00, 0.00, -0.19, 1.01
110, 0.00, 19674.47, 0.00, 0.00, 0.00, 0.00, 0.00, 0.00, 0.00, -0.19, 1.01
111, 0.00, 19685.83, 0.00, 0.00, 0.00, 0.00, 0.00, 0.00, 0.00, -0.19, 1.01
112, 0.00, 19673.87, 0.00, 0.00, 0.00, 0.00, 0.00, 0.00, 0.00, -0.19, 1.01
113, 0.00, 19637.59, 0.00, 0.00, 0.00, 0.00, 0.00, 0.00, -0.00, -0.19, 1.01
114, 0.00, 19610.91, 0.00, 0.00, 0.00, 0.00, 0.00, 0.00, -0.00, -0.19, 1.01
115, 0.00, 19618.15, 0.00, 0.00, 0.00, 0.00, 0.00, 0.00, -0.00, -0.19, 1.01
116, 0.00, 19597.03, 0.00, 0.00, 0.00, 0.00, 0.00, 0.00, -0.00, -0.19, 1.01
117, 0.00, 19548.66, 0.00, 0.00, 0.00, 0.00, 0.00, 0.00, -0.00, -0.19, 1.01
118, 0.00, 19515.62, 0.00, 0.00, 0.00, 0.00, 0.00, 0.00, 0.00, -0.19, 1.00
119, 0.00, 19515.51, 0.00, 0.00, 0.00, 0.00, 0.00, 0.00, 0.00, -0.19, 1.00
120, 0.00, 19509.05, 0.00, 0.00, 0.00, 0.00, 0.00, 0.00, 0.00, -0.19, 1.00
121, 0.00, 19458.53, 0.00, 0.00, 0.00, 0.00, 0.00, 0.00, 0.00, -0.19, 1.00
122, 0.00, 19418.17, 0.00, 0.00, 0.00, 0.00, 0.00, 0.00, 0.00, -0.19, 1.00
123, 0.00, 19403.73, 0.00, 0.00, 0.00, 0.00, 0.00, 0.00, -0.01, -0.19, 1.01
124, 0.00, 19392.46, 0.00, 0.00, 0.00, 0.00, 0.00, 0.00, -0.01, -0.19, 1.01
125, 0.00, 19332.78, 0.00, 0.00, 0.00, 0.00, 0.00, 0.00, -0.01, -0.19, 1.01
126, 0.00, 19284.71, 0.00, 0.00, 0.00, 0.00, 0.00, 0.00, -0.01, -0.19, 1.01
127, 0.00, 19253.41, 0.00, 0.00, 0.00, 0.00, 0.00, 0.00, -0.01, -0.19, 1.01
128, 0.00, 19244.34, 0.00, 0.00, 0.00, 0.00, 0.00, 0.00, 0.00, -0.19, 1.01
129, 0.00, 19183.29, 0.00, 0.00, 0.00, 0.00, 0.00, 0.00, 0.00, -0.19, 1.01
130, 0.00, 19117.74, 0.00, 0.00, 0.00, 0.00, 0.00, 0.00, 0.00, -0.19, 1.01
131, 0.00, 19068.05, 0.00, 0.00, 0.00, 0.00, 0.00, 0.00, 0.00, -0.19, 1.01
132, 0.00, 19038.19, 0.00, 0.00, 0.00, 0.00, 0.00, 0.00, 0.00, -0.19, 1.01
133, 0.00, 18975.74, 0.00, 0.00, 0.00, 0.00, 0.00, 0.00, -0.00, -0.19, 1.01
134, 0.00, 18906.69, 0.00, 0.00, 0.00, 0.00, 0.00, 0.00, -0.00, -0.19, 1.01
135, 0.00, 18859.08, 0.00, 0.00, 0.00, 0.00, 0.00, 0.00, -0.00, -0.19, 1.01
136, 0.00, 18846.63, 0.00, 0.00, 0.00, 0.00, 0.00, 0.00, -0.00, -0.19, 1.01
137, 0.00, 18802.04, 0.00, 0.00, 0.00, 0.00, 0.00, 0.00, -0.00, -0.19, 1.01
138, 0.00, 18736.75, 0.00, 0.00, 0.00, 0.00, 0.00, 0.00, -0.00, -0.19, 1.01
139, 0.00, 18696.88, 0.00, 0.00, 0.00, 0.00, 0.00, 0.00, -0.00, -0.19, 1.01
140, 0.00, 18697.41, 0.00, 0.00, 0.00, 0.00, 0.00, 0.00, -0.00, -0.19, 1.01
141, 0.00, 18677.41, 0.00, 0.00, 0.00, 0.00, 0.00, 0.00, -0.00, -0.19, 1.01
142, 0.00, 18630.33, 0.00, 0.00, 0.00, 0.00, 0.00, 0.00, -0.00, -0.19, 1.01
143, 0.00, 18606.40, 0.00, 0.00, 0.00, 0.00, 0.00, 0.00, 0.00, -0.19, 1.01
144, 0.00, 18617.79, 0.00, 0.00, 0.00, 0.00, 0.00, 0.00, 0.00, -0.19, 1.01
145, 0.00, 18627.85, 0.00, 0.00, 0.00, 0.00, 0.00, 0.00, 0.00, -0.19, 1.01
146, 0.00, 18594.39, 0.00, 0.00, 0.00, 0.00, 0.00, 0.00, 0.00, -0.19, 1.01
147, 0.00, 18574.41, 0.00, 0.00, 0.00, 0.00, 0.00, 0.00, 0.00, -0.19, 1.01
148, 0.00, 18579.91, 0.00, 0.00, 0.00, 0.00, 0.00, 0.00, 0.00, -0.18, 1.01
149, 0.00, 18601.14, 0.00, 0.00, 0.00, 0.00, 0.00, 0.00, 0.00, -0.18, 1.01
150, 0.00, 18583.22, 0.00, 0.00, 0.00, 0.00, 0.00, 0.00, 0.00, -0.18, 1.01
151, 0.00, 18574.81, 0.00, 0.00, 0.00, 0.00, 0.00, 0.00, 0.00, -0.18, 1.01
152, 0.00, 18581.41, 0.00, 0.00, 0.00, 0.00, 0.00, 0.00, 0.00, -0.18, 1.01
153, 0.00, 18602.82, 0.00, 0.00, 0.00, 0.00, 0.00, 0.00, 0.01, -0.19, 1.02
154, 0.00, 18575.44, 0.00, 0.00, 0.00, 0.00, 0.00, 0.00, 0.01, -0.19, 1.02
155, 0.00, 18544.08, 0.00, 0.00, 0.00, 0.00, 0.00, 0.00, 0.01, -0.19, 1.02
156, 0.00, 18522.17, 0.00, 0.00, 0.00, 0.00, 0.00, 0.00, 0.01, -0.19, 1.02
157, 0.00, 18527.47, 0.00, 0.00, 0.00, 0.00, 0.00, 0.00, 0.01, -0.19, 1.02
158, 0.00, 18494.30, 0.00, 0.00, 0.00, 0.00, 0.00, 0.00, 0.00, -0.19, 1.01
159, 0.00, 18453.85, 0.00, 0.00, 0.00, 0.00, 0.00, 0.00, 0.00, -0.19, 1.01
160, 0.00, 18428.34, 0.00, 0.00, 0.00, 0.00, 0.00, 0.00, 0.00, -0.19, 1.01
161, 0.00, 18424.92, 0.00, 0.00, 0.00, 0.00, 0.00, 0.00, 0.00, -0.19, 1.01
162, 0.00, 18392.76, 0.00, 0.00, 0.00, 0.00, 0.00, 0.00, 0.00, -0.19, 1.01
163, 0.00, 18339.56, 0.00, 0.00, 0.00, 0.00, 0.00, 0.00, 0.00, -0.20, 1.00
164, 0.00, 18295.21, 0.00, 0.00, 0.00, 0.00, 0.00, 0.00, 0.00, -0.20, 1.00
165, 0.00, 18286.43, 0.00, 0.00, 0.00, 0.00, 0.00, 0.00, 0.00, -0.20, 1.00
166, 0.00, 18268.04, 0.00, 0.00, 0.00, 0.00, 0.00, 0.00, 0.00, -0.20, 1.00
167, 0.00, 18222.86, 0.00, 0.00, 0.00, 0.00, 0.00, 0.00, 0.00, -0.20, 1.00
168, 0.00, 18197.05, 0.00, 0.00, 0.00, 0.00, 0.00, 0.00, 0.00, -0.20, 1.01
169, 0.00, 18191.19, 0.00, 0.00, 0.00, 0.00, 0.00, 0.00, 0.00, -0.20, 1.01
170, 0.00, 18186.05, 0.00, 0.00, 0.00, 0.00, 0.00, 0.00, 0.00, -0.20, 1.01
171, 0.00, 18148.03, 0.00, 0.00, 0.00, 0.00, 0.00, 0.00, 0.00, -0.20, 1.01
172, 0.00, 18128.29, 0.00, 0.00, 0.00, 0.00, 0.00, 0.00, 0.00, -0.20, 1.01
173, 0.00, 18134.95, 0.00, 0.00, 0.00, 0.00, 0.00, 0.00, 0.01, -0.19, 1.01
174, 0.00, 18160.30, 0.00, 0.00, 0.00, 0.00, 0.00, 0.00, 0.01, -0.19, 1.01
175, 0.00, 18147.04, 0.00, 0.00, 0.00, 0.00, 0.00, 0.00, 0.01, -0.19, 1.01
176, 0.00, 18146.15, 0.00, 0.00, 0.00, 0.00, 0.00, 0.00, 0.01, -0.19, 1.01
177, 0.00, 18159.79, 0.00, 0.00, 0.00, 0.00, 0.00, 0.00, 0.01, -0.19, 1.01
178, 0.00, 18200.22, 0.00, 0.00, 0.00, 0.00, 0.00, 0.00, 0.00, -0.20, 1.01
179, 0.00, 18203.28, 0.00, 0.00, 0.00, 0.00, 0.00, 0.00, 0.00, -0.20, 1.01
180, 0.00, 18203.21, 0.00, 0.00, 0.00, 0.00, 0.00, 0.00, 0.00, -0.20, 1.01
181, 0.00, 18224.61, 0.00, 0.00, 0.00, 0.00, 0.00, 0.00, 0.00, -0.20, 1.01
182, 0.00, 18274.14, 0.00, 0.00, 0.00, 0.00, 0.00, 0.00, 0.00, -0.20, 1.01
183, 0.00, 18291.59, 0.00, 0.00, 0.00, 0.00, 0.00, 0.00, 0.00, -0.19, 1.01
184, 0.00, 18307.13, 0.00, 0.00, 0.00, 0.00, 0.00, 0.00, 0.00, -0.19, 1.01
185, 0.00, 18324.72, 0.00, 0.00, 0.00, 0.00, 0.00, 0.00, 0.00, -0.19, 1.01
186, 0.00, 18368.89, 0.00, 0.00, 0.00, 0.00, 0.00, 0.00, 0.00, -0.19, 1.01
187, 0.00, 18393.09, 0.00, 0.00, 0.00, 0.00, 0.00, 0.00, 0.00, -0.19, 1.01
188, 0.00, 18390.25, 0.00, 0.00, 0.00, 0.00, 0.00, 0.00, 0.00, -0.19, 1.01
189, 0.00, 18403.98, 0.00, 0.00, 0.00, 0.00, 0.00, 0.00, 0.00, -0.19, 1.01
190, 0.00, 18443.83, 0.00, 0.00, 0.00, 0.00, 0.00, 0.00, 0.00, -0.19, 1.01
191, 0.00, 18479.01, 0.00, 0.00, 0.00, 0.00, 0.00, 0.00, 0.00, -0.19, 1.01
192, 0.00, 18486.46, 0.00, 0.00, 0.00, 0.00, 0.00, 0.00, 0.00, -0.19, 1.01
193, 0.00, 18507.27, 0.00, 0.00, 0.00, 0.00, 0.00, 0.00, 0.01, -0.20, 1.01
194, 0.00, 18542.98, 0.00, 0.00, 0.00, 0.00, 0.00, 0.00, 0.01, -0.20, 1.01
195, 0.00, 18583.29, 0.00, 0.00, 0.00, 0.00, 0.00, 0.00, 0.01, -0.20, 1.01
196, 0.00, 18581.12, 0.00, 0.00, 0.00, 0.00, 0.00, 0.00, 0.01, -0.20, 1.01
197, 0.00, 18589.14, 0.00, 0.00, 0.00, 0.00, 0.00, 0.00, 0.01, -0.20, 1.01
198, 0.00, 18623.67, 0.00, 0.00, 0.00, 0.00, 0.00, 0.00, 0.01, -0.19, 1.01
199, 0.00, 18677.18, 0.00, 0.00, 0.00, 0.00, 0.00, 0.00, 0.01, -0.19, 1.01
200, 0.00, 18693.37, 0.00, 0.00, 0.00, 0.00, 0.00, 0.00, 0.01, -0.19, 1.01
201, 0.00, 18710.00, 0.00, 0.00, 0.00, 0.00, 0.00, 0.00, 0.01, -0.19, 1.01
202, 0.00, 18736.15, 0.00, 0.00, 0.00, 0.00, 0.00, 0.00, 0.01, -0.19, 1.01
203, 0.00, 18784.23, 0.00, 0.00, 0.00, 0.00, 0.00, 0.00, -0.00, -0.19, 1.01
204, 0.00, 18791.20, 0.00, 0.00, 0.00, 0.00, 0.00, 0.00, -0.00, -0.19, 1.01
205, 0.00, 18795.65, 0.00, 0.00, 0.00, 0.00, 0.00, 0.00, -0.00, -0.19, 1.01
206, 0.00, 18808.19, 0.00, 0.00, 0.00, 0.00, 0.00, 0.00, -0.00, -0.19, 1.01
207, 0.00, 18846.52, 0.00, 0.00, 0.00, 0.00, 0.00, 0.00, -0.00, -0.19, 1.01
208, 0.00, 18861.05, 0.00, 0.00, 0.00, 0.00, 0.00, 0.00, 0.00, -0.19, 1.01
209, 0.00, 18860.42, 0.00, 0.00, 0.00, 0.00, 0.00, 0.00, 0.00, -0.19, 1.01
210, 0.00, 18869.43, 0.00, 0.00, 0.00, 0.00, 0.00, 0.00, 0.00, -0.19, 1.01
211, 0.00, 18898.47, 0.00, 0.00, 0.00, 0.00, 0.00, 0.00, 0.00, -0.19, 1.01
212, 0.00, 18906.94, 0.00, 0.00, 0.00, 0.00, 0.00, 0.00, 0.00, -0.19, 1.01
213, 0.00, 18900.23, 0.00, 0.00, 0.00, 0.00, 0.00, 0.00, 0.01, -0.20, 1.02
214, 0.00, 18903.23, 0.00, 0.00, 0.00, 0.00, 0.00, 0.00, 0.01, -0.20, 1.02
215, 0.00, 18922.38, 0.00, 0.00, 0.00, 0.00, 0.00, 0.00, 0.01, -0.20, 1.02
216, 0.00, 18937.27, 0.00, 0.00, 0.00, 0.00, 0.00, 0.00, 0.01, -0.20, 1.02
217, 0.00, 18921.96, 0.00, 0.00, 0.00, 0.00, 0.00, 0.00, 0.01, -0.20, 1.02
218, 0.00, 18905.80, 0.00, 0.00, 0.00, 0.00, 0.00, 0.00, 0.00, -0.19, 1.02
219, 0.00, 18898.96, 0.00, 0.00, 0.00, 0.00, 0.00, 0.00, 0.00, -0.19, 1.02
220, 0.00, 18899.47, 0.00, 0.00, 0.00, 0.00, 0.00, 0.00, 0.00, -0.19, 1.02
221, 0.00, 18866.39, 0.00, 0.00, 0.00, 0.00, 0.00, 0.00, 0.00, -0.19, 1.02
222, 0.00, 18838.61, 0.00, 0.00, 0.00, 0.00, 0.00, 0.00, 0.00, -0.19, 1.02
223, 0.00, 18817.11, 0.00, 0.00, 0.00, 0.00, 0.00, 0.00, 0.00, -0.19, 1.01
224, 0.00, 18819.01, 0.00, 0.00, 0.00, 0.00, 0.00, 0.00, 0.00, -0.19, 1.01
225, 0.00, 18782.46, 0.00, 0.00, 0.00, 0.00, 0.00, 0.00, 0.00, -0.19, 1.01
226, 0.00, 18749.45, 0.00, 0.00, 0.00, 0.00, 0.00, 0.00, 0.00, -0.19, 1.01
227, 0.00, 18723.59, 0.00, 0.00, 0.00, 0.00, 0.00, 0.00, 0.00, -0.19, 1.01
228, 0.00, 18711.85, 0.00, 0.00, 0.00, 0.00, 0.00, 0.00, 0.01, -0.19, 1.01
229, 0.00, 18675.84, 0.00, 0.00, 0.00, 0.00, 0.00, 0.00, 0.01, -0.19, 1.01
230, 0.00, 18642.90, 0.00, 0.00, 0.00, 0.00, 0.00, 0.00, 0.01, -0.19, 1.01
231, 0.00, 18613.59, 0.00, 0.00, 0.00, 0.00, 0.00, 0.00, 0.01, -0.19, 1.01
232, 0.00, 18615.63, 0.00, 0.00, 0.00, 0.00, 0.00, 0.00, 0.01, -0.19, 1.01
233, 0.00, 18589.14, 0.00, 0.00, 0.00, 0.00, 0.00, 0.00, 0.01, -0.19, 1.02
234, 0.00, 18554.65, 0.00, 0.00, 0.00, 0.00, 0.00, 0.00, 0.01, -0.19, 1.02
235, 0.00, 18523.74, 0.00, 0.00, 0.00, 0.00, 0.00, 0.00, 0.01, -0.19, 1.02
236, 0.00, 18506.26, 0.00, 0.00, 0.00, 0.00, 0.00, 0.00, 0.01, -0.19, 1.02
237, 0.00, 18490.26, 0.00, 0.00, 0.00, 0.00, 0.00, 0.00, 0.01, -0.19, 1.02
238, 0.00, 18456.68, 0.00, 0.00, 0.00, 0.00, 0.00, 0.00, 0.00, -0.19, 1.02
239, 0.00, 18425.39, 0.00, 0.00, 0.00, 0.00, 0.00, 0.00, 0.00, -0.19, 1.02
240, 0.00, 18411.33, 0.00, 0.00, 0.00, 0.00, 0.00, 0.00, 0.00, -0.19, 1.02
241, 0.00, 18397.99, 0.00, 0.00, 0.00, 0.00, 0.00, 0.00, 0.00, -0.19, 1.02
242, 0.00, 18353.75, 0.00, 0.00, 0.00, 0.00, 0.00, 0.00, 0.00, -0.19, 1.02
243, 0.00, 18321.01, 0.00, 0.00, 0.00, 0.00, 0.00, 0.00, 0.00, -0.19, 1.01
244, 0.00, 18294.03, 0.00, 0.00, 0.00, 0.00, 0.00, 0.00, 0.00, -0.19, 1.01
245, 0.00, 18283.26, 0.00, 0.00, 0.00, 0.00, 0.00, 0.00, 0.00, -0.19, 1.01
246, 0.00, 18244.79, 0.00, 0.00, 0.00, 0.00, 0.00, 0.00, 0.00, -0.19, 1.01
247, 0.00, 18215.58, 0.00, 0.00, 0.00, 0.00, 0.00, 0.00, 0.00, -0.19, 1.01
248, 0.00, 18193.72, 0.00, 0.00, 0.00, 0.00, 0.00, 0.00, 0.00, -0.18, 1.01
249, 0.00, 18187.41, 0.00, 0.00, 0.00, 0.00, 0.00, 0.00, 0.00, -0.18, 1.01
250, 0.00, 18158.40, 0.00, 0.00, 0.00, 0.00, 0.00, 0.00, 0.00, -0.18, 1.01
251, 0.00, 18133.88, 0.00, 0.00, 0.00, 0.00, 0.00, 0.00, 0.00, -0.18, 1.01
252, 0.00, 18100.42, 0.00, 0.00, 0.00, 0.00, 0.00, 0.00, 0.00, -0.18, 1.01
253, 0.00, 18097.76, 0.00, 0.00, 0.00, 0.00, 0.00, 0.00, 0.00, -0.19, 1.02
254, 0.00, 18072.23, 0.00, 0.00, 0.00, 0.00, 0.00, 0.00, 0.00, -0.19, 1.02
255, 0.00, 18042.46, 0.00, 0.00, 0.00, 0.00, 0.00, 0.00, 0.00, -0.19, 1.02
0, 0.00, 18018.54, 0.00, 0.00, 0.00, 0.00, 0.00, 0.00, 0.00, -0.19, 1.02
1, 0.00, 18008.11, 0.00, 0.00, 0.00, 0.00, 0.00, 0.00, 0.00, -0.19, 1.02
2, 0.00, 17983.86, 0.00, 0.00, 0.00, 0.00, 0.00, 0.00, 0.01, -0.19, 1.02
3, 0.00, 17946.17, 0.00, 0.00, 0.00, 0.00, 0.00, 0.00, 0.01, -0.19, 1.02
4, 0.00, 17906.45, 0.00, 0.00, 0.00, 0.00, 0.00, 0.00, 0.01, -0.19, 1.02
5, 0.00, 17880.81, 0.00, 0.00, 0.00, 0.00, 0.00, 0.00, 0.01, -0.19, 1.02
6, 0.00, 17862.69, 0.00, 0.00, 0.00, 0.00, 0.00, 0.00, 0.01, -0.19, 1.02
7, 0.00, 17828.40, 0.00, 0.00, 0.00, 0.00, 0.00, 0.00, 0.00, -0.20, 1.02
8, 0.00, 17799.79, 0.00, 0.00, 0.00, 0.00, 0.00, 0.00, 0.00, -0.20, 1.02
9, 0.00, 17769.41, 0.00, 0.00, 0.00, 0.00, 0.00, 0.00, 0.00, -0.20, 1.02
10, 0.00, 17747.82, 0.00, 0.00, 0.00, 0.00, 0.00, 0.00, 0.00, -0.20, 1.02
11, 0.00, 17704.46, 0.00, 0.00, 0.00, 0.00, 0.00, 0.00, 0.00, -0.20, 1.02
12, 0.00, 17666.84, 0.00, 0.00, 0.00, 0.00, 0.00, 0.00, -0.00, -0.19, 1.03
13, 0.00, 17635.95, 0.00, 0.00, 0.00, 0.00, 0.00, 0.00, -0.00, -0.19, 1.03
14, 0.00, 17615.05, 0.00, 0.00, 0.00, 0.00, 0.00, 0.00, -0.00, -0.19, 1.03
15, 0.00, 17569.21, 0.00, 0.00, 0.00, 0.00, 0.00, 0.00, -0.00, -0.19, 1.03
16, 0.00, 17539.75, 0.00, 0.00, 0.00, 0.00, 0.00, 0.00, -0.00, -0.19, 1.03
17, 0.00, 17516.79, 0.00, 0.00, 0.00, 0.00, 0.00, 0.00, 0.00, -0.18, 1.02
18, 0.00, 17510.49, 0.00, 0.00, 0.00, 0.00, 0.00, 0.00, 0.00, -0.18, 1.02
19, 0.00, 17476.36, 0.00, 0.00, 0.00, 0.00, 0.00, 0.00, 0.00, -0.18, 1.02
20, 0.00, 17442.52, 0.00, 0.00, 0.00, 0.00, 0.00, 0.00, 0.00, -0.18, 1.02
21, 0.00, 17412.08, 0.00, 0.00, 0.00, 0.00, 0.00, 0.00, 0.00, -0.18, 1.02
22, 0.00, 17405.50, 0.00, 0.00, 0.00, 0.00, 0.00, 0.00, 0.00, -0.18, 1.02
23, 0.00, 17391.20, 0.00, 0.00, 0.00, 0.00, 0.00, 0.00, 0.00, -0.19, 1.01
24, 0.00, 17375.80, 0.00, 0.00, 0.00, 0.00, 0.00, 0.00, 0.00, -0.19, 1.01
25, 0.00, 17361.47, 0.00, 0.00, 0.00, 0.00, 0.00, 0.00, 0.00, -0.19, 1.01
26, 0.00, 17362.83, 0.00, 0.00, 0.00, 0.00, 0.00, 0.00, 0.00, -0.19, 1.01
27, 0.00, 17356.64, 0.00, 0.00, 0.00, 0.00, 0.00, 0.00, 0.00, -0.19, 1.01
28, 0.00, 17335.21, 0.00, 0.00, 0.00, 0.00, 0.00, 0.00, -0.00, -0.20, 1.01
29, 0.00, 17323.96, 0.00, 0.00, 0.00, 0.00, 0.00, 0.00, -0.00, -0.20, 1.01
30, 0.00, 17327.32, 0.00, 0.00, 0.00, 0.00, 0.00, 0.00, -0.00, -0.20, 1.01
31, 0.00, 17332.03, 0.00, 0.00, 0.00, 0.00, 0.00, 0.00, -0.00, -0.20, 1.01
32, 0.00, 17326.54, 0.00, 0.00, 0.00, 0.00, 0.00, 0.00, -0.00, -0.20, 1.01
33, 0.00, 17331.38, 0.00, 0.00, 0.00, 0.00, 0.00, 0.00, 0.00, -0.20, 1.01
34, 0.00, 17342.85, 0.00, 0.00, 0.00, 0.00, 0.00, 0.00, 0.00, -0.20, 1.01
35, 0.00, 17357.98, 0.00, 0.00, 0.00, 0.00, 0.00, 0.00, 0.00, -0.20, 1.01
36, 0.00, 17350.45, 0.00, 0.00, 0.00, 0.00, 0.00, 0.00, 0.00, -0.20, 1.01
37, 0.00, 17360.00, 0.00, 0.00, 0.00, 0.00, 0.00, 0.00, 0.00, -0.20, 1.01
38, 0.00, 17373.85, 0.00, 0.00, 0.00, 0.00, 0.00, 0.00, 0.00, -0.20, 1.02
39, 0.00, 17400.30, 0.00, 0.00, 0.00, 0.00, 0.00, 0.00, 0.00, -0.20, 1.02
40, 0.00, 17406.78, 0.00, 0.00, 0.00, 0.00, 0.00, 0.00, 0.00, -0.20, 1.02
41, 0.00, 17413.42, 0.00, 0.00, 0.00, 0.00, 0.00, 0.00, 0.00, -0.20, 1.02
42, 0.00, 17421.31, 0.00, 0.00, 0.00, 0.00, 0.00, 0.00, 0.00, -0.20, 1.02
43, 0.00, 17450.59, 0.00, 0.00, 0.00, 0.00, 0.00, 0.00, 0.00, -0.19, 1.01
44, 0.00, 17449.67, 0.00, 0.00, 0.00, 0.00, 0.00, 0.00, 0.00, -0.19, 1.01
45, 0.00, 17453.00, 0.00, 0.00, 0.00, 0.00, 0.00, 0.00, 0.00, -0.19, 1.01
46, 0.00, 17455.97, 0.00, 0.00, 0.00, 0.00, 0.00, 0.00, 0.00, -0.19, 1.01
47, 0.00, 17474.68, 0.00, 0.00, 0.00, 0.00, 0.00, 0.00, 0.00, -0.19, 1.01
48, 0.00, 17479.47, 0.00, 0.00, 0.00, 0.00, 0.00, 0.00, 0.01, -0.19, 1.01
49, 0.00, 17474.73, 0.00, 0.00, 0.00, 0.00, 0.00, 0.00, 0.01, -0.19, 1.01
50, 0.00, 17468.36, 0.00, 0.00, 0.00, 0.00, 0.00, 0.00, 0.01, -0.19, 1.01
51, 0.00, 17472.27, 0.00, 0.00, 0.00, 0.00, 0.00, 0.00, 0.01, -0.19, 1.01
52, 0.00, 17462.34, 0.00, 0.00, 0.00, 0.00, 0.00, 0.00, 0.01, -0.19, 1.01
53, 0.00, 17446.01, 0.00, 0.00, 0.00, 0.00, 0.00, 0.00, 0.01, -0.20, 1.01
54, 0.00, 17442.12, 0.00, 0.00, 0.00, 0.00, 0.00, 0.00, 0.01, -0.20, 1.01
55, 0.00, 17436.39, 0.00, 0.00, 0.00, 0.00, 0.00, 0.00, 0.01, -0.20, 1.01
56, 0.00, 17436.57, 0.00, 0.00, 0.00, 0.00, 0.00, 0.00, 0.01, -0.20, 1.01
57, 0.00, 17416.99, 0.00, 0.00, 0.00, 0.00, 0.00, 0.00, 0.01, -0.20, 1.01
58, 0.00, 17410.15, 0.00, 0.00, 0.00, 0.00, 0.00, 0.00, 0.01, -0.19, 1.01
59, 0.00, 17403.87, 0.00, 0.00, 0.00, 0.00, 0.00, 0.00, 0.01, -0.19, 1.01
60, 0.00, 17398.62, 0.00, 0.00, 0.00, 0.00, 0.00, 0.00, 0.01, -0.19, 1.01
61, 0.00, 17377.14, 0.00, 0.00, 0.00, 0.00, 0.00, 0.00, 0.01, -0.19, 1.01
62, 0.00, 17369.74, 0.00, 0.00, 0.00, 0.00, 0.00, 0.00, 0.01, -0.19, 1.01
63, 0.00, 17360.02, 0.00, 0.00, 0.00, 0.00, 0.00, 0.00, 0.01, -0.20, 1.01
64, 0.00, 17369.18, 0.00, 0.00, 0.00, 0.00, 0.00, 0.00, 0.01, -0.20, 1.01
65, 0.00, 17350.27, 0.00, 0.00, 0.00, 0.00, 0.00, 0.00, 0.01, -0.20, 1.01
66, 0.00, 17338.67, 0.00, 0.00, 0.00, 0.00, 0.00, 0.00, 0.01, -0.20, 1.01
67, 0.00, 17320.10, 0.00, 0.00, 0.00, 0.00, 0.00, 0.00, 0.01, -0.20, 1.01
68, 0.00, 17315.63, 0.00, 0.00, 0.00, 0.00, 0.00, 0.00, 0.01, -0.20, 1.01
69, 0.00, 17299.42, 0.00, 0.00, 0.00, 0.00, 0.00, 0.00, 0.01, -0.20, 1.01
70, 0.00, 17293.92, 0.00, 0.00, 0.00, 0.00, 0.00, 0.00, 0.01, -0.20, 1.01
71, 0.00, 17280.00, 0.00, 0.00, 0.00, 0.00, 0.00, 0.00, 0.01, -0.20, 1.01
72, 0.00, 17278.79, 0.00, 0.00, 0.00, 0.00, 0.00, 0.00, 0.01, -0.20, 1.01
73, 0.00, 17270.05, 0.00, 0.00, 0.00, 0.00, 0.00, 0.00, 0.01, -0.20, 1.02
74, 0.00, 17266.28, 0.00, 0.00, 0.00, 0.00, 0.00, 0.00, 0.01, -0.20, 1.02
75, 0.00, 17258.54, 0.00, 0.00, 0.00, 0.00, 0.00, 0.00, 0.01, -0.20, 1.02
76, 0.00, 17247.68, 0.00, 0.00, 0.00, 0.00, 0.00, 0.00, 0.01, -0.20, 1.02
77, 0.00, 17236.55, 0.00, 0.00, 0.00, 0.00, 0.00, 0.00, 0.01, -0.20, 1.02
78, 0.00, 17223.47, 0.00, 0.00, 0.00, 0.00, 0.00, 0.00, 0.00, -0.20, 1.02
79, 0.00, 17220.61, 0.00, 0.00, 0.00, 0.00, 0.00, 0.00, 0.00, -0.20, 1.02
80, 0.00, 17220.32, 0.00, 0.00, 0.00, 0.00, 0.00, 0.00, 0.00, -0.20, 1.02
81, 0.00, 17223.83, 0.00, 0.00, 0.00, 0.00, 0.00, 0.00, 0.00, -0.20, 1.02
82, 0.00, 17214.38, 0.00, 0.00, 0.00, 0.00, 0.00, 0.00, 0.00, -0.20, 1.02
83, 0.00, 17213.66, 0.00, 0.00, 0.00, 0.00, 0.00, 0.00, 0.00, -0.19, 1.01
84, 0.00, 17203.42, 0.00, 0.00, 0.00, 0.00, 0.00, 0.00, 0.00, -0.19, 1.01
85, 0.00, 17206.91, 0.00, 0.00, 0.00, 0.00, 0.00, 0.00, 0.00, -0.19, 1.01
86, 0.00, 17197.28, 0.00, 0.00, 0.00, 0.00, 0.00, 0.00, 0.00, -0.19, 1.01
87, 0.00, 17209.48, 0.00, 0.00, 0.00, 0.00, 0.00, 0.00, 0.00, -0.19, 1.01
88, 0.00, 17218.08, 0.00, 0.00, 0.00, 0.00, 0.00, 0.00, -0.00, -0.20, 1.01
89, 0.00, 17233.20, 0.00, 0.00, 0.00, 0.00, 0.00, 0.00, -0.00, -0.20, 1.01
90, 0.00, 17239.43, 0.00, 0.00, 0.00, 0.00, 0.00, 0.00, -0.00, -0.20, 1.01
91, 0.00, 17254.72, 0.00, 0.00, 0.00, 0.00, 0.00, 0.00, -0.00, -0.20, 1.01
92, 0.00, 17257.00, 0.00, 0.00, 0.00, 0.00, 0.00, 0.00, -0.00, -0.20, 1.01
93, 0.00, 17275.48, 0.00, 0.00, 0.00, 0.00, 0.00, 0.00, 0.00, -0.19, 1.01
94, 0.00, 17287.35, 0.00, 0.00, 0.00, 0.00, 0.00, 0.00, 0.00, -0.19, 1.01
95, 0.00, 17306.02, 0.00, 0.00, 0.00, 0.00, 0.00, 0.00, 0.00, -0.19, 1.01
96, 0.00, 17327.14, 0.00, 0.00, 0.00, 0.00, 0.00, 0.00, 0.00, -0.19, 1.01
97, 0.00, 17348.71, 0.00, 0.00, 0.00, 0.00, 0.00, 0.00, 0.00, -0.19, 1.01
98, 0.00, 17364.24, 0.00, 0.00, 0.00, 0.00, 0.00, 0.00, -0.00, -0.19, 1.01
99, 0.00, 17385.50, 0.00, 0.00, 0.00, 0.00, 0.00, 0.00, -0.00, -0.19, 1.01
100, 0.00, 17403.74, 0.00, 0.00, 0.00, 0.00, 0.00, 0.00, -0.00, -0.19, 1.01
101, 0.00, 17419.29, 0.00, 0.00, 0.00, 0.00, 0.00, 0.00, -0.00, -0.19, 1.01
102, 0.00, 17438.58, 0.00, 0.00, 0.00, 0.00, 0.00, 0.00, -0.00, -0.19, 1.01
103, 0.00, 17459.15, 0.00, 0.00, 0.00, 0.00, 0.00, 0.00, 0.01, -0.20, 1.02
104, 0.00, 17488.43, 0.00, 0.00, 0.00, 0.00, 0.00, 0.00, 0.01, -0.20, 1.02
105, 0.00, 17507.25, 0.00, 0.00, 0.00, 0.00, 0.00, 0.00, 0.01, -0.20, 1.02
106, 0.00, 17529.78, 0.00, 0.00, 0.00, 0.00, 0.00, 0.00, 0.01, -0.20, 1.02
107, 0.00, 17541.67, 0.00, 0.00, 0.00, 0.00, 0.00, 0.00, 0.01, -0.20, 1.02
108, 0.00, 17558.84, 0.00, 0.00, 0.00, 0.00, 0.00, 0.00, 0.01, -0.20, 1.01
109, 0.00, 17570.24, 0.00, 0.00, 0.00, 0.00, 0.00, 0.00, 0.01, -0.20, 1.01
110, 0.00, 17593.82, 0.00, 0.00, 0.00, 0.00, 0.00, 0.00, 0.01, -0.20, 1.01
111, 0.00, 17604.43, 0.00, 0.00, 0.00, 0.00, 0.00, 0.00, 0.01, -0.20, 1.01
112, 0.00, 17628.89, 0.00, 0.00, 0.00, 0.00, 0.00, 0.00, 0.01, -0.20, 1.01
113, 0.00, 17639.17, 0.00, 0.00, 0.00, 0.00, 0.00, 0.00, 0.01, -0.20, 1.01
114, 0.00, 17657.32, 0.00, 0.00, 0.00, 0.00, 0.00, 0.00, 0.01, -0.20, 1.01
115, 0.00, 17660.38, 0.00, 0.00, 0.00, 0.00, 0.00, 0.00, 0.01, -0.20, 1.01
116, 0.00, 17667.71, 0.00, 0.00, 0.00, 0.00, 0.00, 0.00, 0.01, -0.20, 1.01
117, 0.00, 17674.48, 0.00, 0.00, 0.00, 0.00, 0.00, 0.00, 0.01, -0.20, 1.01
118, 0.00, 17682.89, 0.00, 0.00, 0.00, 0.00, 0.00, 0.00, 0.01, -0.20, 1.01
119, 0.00, 17682.33, 0.00, 0.00, 0.00, 0.00, 0.00, 0.00, 0.01, -0.20, 1.01
120, 0.00, 17702.87, 0.00, 0.00, 0.00, 0.00, 0.00, 0.00, 0.01, -0.20, 1.01
121, 0.00, 17713.69, 0.00, 0.00, 0.00, 0.00, 0.00, 0.00, 0.01, -0.20, 1.01
122, 0.00, 17721.54, 0.00, 0.00, 0.00, 0.00, 0.00, 0.00, 0.01, -0.20, 1.01
123, 0.00, 17727.01, 0.00, 0.00, 0.00, 0.00, 0.00, 0.00, 0.01, -0.19, 1.01
124, 0.00, 17734.72, 0.00, 0.00, 0.00, 0.00, 0.00, 0.00, 0.01, -0.19, 1.01
125, 0.00, 17741.12, 0.00, 0.00, 0.00, 0.00, 0.00, 0.00, 0.01, -0.19, 1.01
126, 0.00, 17748.96, 0.00, 0.00, 0.00, 0.00, 0.00, 0.00, 0.01, -0.19, 1.01
127, 0.00, 17764.70, 0.00, 0.00, 0.00, 0.00, 0.00, 0.00, 0.01, -0.19, 1.01
128, 0.00, 17780.63, 0.00, 0.00, 0.00, 0.00, 0.00, 0.00, 0.00, -0.19, 1.02
129, 0.00, 17796.44, 0.00, 0.00, 0.00, 0.00, 0.00, 0.00, 0.00, -0.19, 1.02
130, 0.00, 17805.58, 0.00, 0.00, 0.00, 0.00, 0.00, 0.00, 0.00, -0.19, 1.02
131, 0.00, 17822.59, 0.00, 0.00, 0.00, 0.00, 0.00, 0.00, 0.00, -0.19, 1.02
132, 0.00, 17833.61, 0.00, 0.00, 0.00, 0.00, 0.00, 0.00, 0.00, -0.19, 1.02
133, 0.00, 17861.17, 0.00, 0.00, 0.00, 0.00, 0.00, 0.00, 0.01, -0.19, 1.02
134, 0.00, 17875.96, 0.00, 0.00, 0.00, 0.00, 0.00, 0.00, 0.01, -0.19, 1.02
135, 0.00, 17903.46, 0.00, 0.00, 0.00, 0.00, 0.00, 0.00, 0.01, -0.19, 1.02
136, 0.00, 17924.11, 0.00, 0.00, 0.00, 0.00, 0.00, 0.00, 0.01, -0.19, 1.02
137, 0.00, 17954.13, 0.00, 0.00, 0.00, 0.00, 0.00, 0.00, 0.01, -0.19, 1.02
138, 0.00, 17974.36, 0.00, 0.00, 0.00, 0.00, 0.00, 0.00, 0.01, -0.19, 1.02
139, 0.00, 18005.80, 0.00, 0.00, 0.00, 0.00, 0.00, 0.00, 0.01, -0.19, 1.02
140, 0.00, 18017.67, 0.00, 0.00, 0.00, 0.00, 0.00, 0.00, 0.01, -0.19, 1.02
141, 0.00, 18040.63, 0.00, 0.00, 0.00, 0.00, 0.00, 0.00, 0.01, -0.19, 1.02
142, 0.00, 18062.56, 0.00, 0.00, 0.00, 0.00, 0.00, 0.00, 0.01, -0.19, 1.02
143, 0.00, 18094.88, 0.00, 0.00, 0.00, 0.00, 0.00, 0.00, 0.00, -0.19, 1.01
144, 0.00, 18126.91, 0.00, 0.00, 0.00, 0.00, 0.00, 0.00, 0.00, -0.19, 1.01
145, 0.00, 18153.62, 0.00, 0.00, 0.00, 0.00, 0.00, 0.00, 0.00, -0.19, 1.01
146, 0.00, 18175.74, 0.00, 0.00, 0.00, 0.00, 0.00, 0.00, 0.00, -0.19, 1.01
147, 0.00, 18198.30, 0.00, 0.00, 0.00, 0.00, 0.00, 0.00, 0.00, -0.19, 1.01
148, 0.00, 18219.76, 0.00, 0.00, 0.00, 0.00, 0.00, 0.00, 0.01, -0.20, 1.01
149, 0.00, 18238.53, 0.00, 0.00, 0.00, 0.00, 0.00, 0.00, 0.01, -0.20, 1.01
150, 0.00, 18260.17, 0.00, 0.00, 0.00, 0.00, 0.00, 0.00, 0.01, -0.20, 1.01
151, 0.00, 18283.79, 0.00, 0.00, 0.00, 0.00, 0.00, 0.00, 0.01, -0.20, 1.01
152, 0.00, 18319.89, 0.00, 0.00, 0.00, 0.00, 0.00, 0.00, 0.01, -0.20, 1.01
153, 0.00, 18337.50, 0.00, 0.00, 0.00, 0.00, 0.00, 0.00, 0.00, -0.19, 1.02
154, 0.00, 18363.90, 0.00, 0.00, 0.00, 0.00, 0.00, 0.00, 0.00, -0.19, 1.02
155, 0.00, 18380.91, 0.00, 0.00, 0.00, 0.00, 0.00, 0.00, 0.00, -0.19, 1.02
156, 0.00, 18407.38, 0.00, 0.00, 0.00, 0.00, 0.00, 0.00, 0.00, -0.19, 1.02
157, 0.00, 18418.15, 0.00, 0.00, 0.00, 0.00, 0.00, 0.00, 0.00, -0.19, 1.02
158, 0.00, 18439.50, 0.00, 0.00, 0.00, 0.00, 0.00, 0.00, 0.00, -0.19, 1.02
159, 0.00, 18456.77, 0.00, 0.00, 0.00, 0.00, 0.00, 0.00, 0.00, -0.19, 1.02
160, 0.00, 18489.36, 0.00, 0.00, 0.00, 0.00, 0.00, 0.00, 0.00, -0.19, 1.02
161, 0.00, 18498.26, 0.00, 0.00, 0.00, 0.00, 0.00, 0.00, 0.00, -0.19, 1.02
162, 0.00, 18517.35, 0.00, 0.00, 0.00, 0.00, 0.00, 0.00, 0.00, -0.19, 1.02
163, 0.00, 18534.49, 0.00, 0.00, 0.00, 0.00, 0.00, 0.00, 0.01, -0.19, 1.01
164, 0.00, 18555.63, 0.00, 0.00, 0.00, 0.00, 0.00, 0.00, 0.01, -0.19, 1.01
165, 0.00, 18564.53, 0.00, 0.00, 0.00, 0.00, 0.00, 0.00, 0.01, -0.19, 1.01
166, 0.00, 18577.50, 0.00, 0.00, 0.00, 0.00, 0.00, 0.00, 0.01, -0.19, 1.01
167, 0.00, 18588.58, 0.00, 0.00, 0.00, 0.00, 0.00, 0.00, 0.01, -0.19, 1.01
168, 0.00, 18618.22, 0.00, 0.00, 0.00, 0.00, 0.00, 0.00, 0.01, -0.19, 1.01
169, 0.00, 18634.02, 0.00, 0.00, 0.00, 0.00, 0.00, 0.00, 0.01, -0.19, 1.01
170, 0.00, 18639.92, 0.00, 0.00, 0.00, 0.00, 0.00, 0.00, 0.01, -0.19, 1.01
171, 0.00, 18642.70, 0.00, 0.00, 0.00, 0.00, 0.00, 0.00, 0.01, -0.19, 1.01
172, 0.00, 18649.67, 0.00, 0.00, 0.00, 0.00, 0.00, 0.00, 0.01, -0.19, 1.01
173, 0.00, 18664.02, 0.00, 0.00, 0.00, 0.00, 0.00, 0.00, 0.00, -0.18, 1.01
174, 0.00, 18669.32, 0.00, 0.00, 0.00, 0.00, 0.00, 0.00, 0.00, -0.18, 1.01
175, 0.00, 18677.50, 0.00, 0.00, 0.00, 0.00, 0.00, 0.00, 0.00, -0.18, 1.01
176, 0.00, 18687.47, 0.00, 0.00, 0.00, 0.00, 0.00, 0.00, 0.00, -0.18, 1.01
177, 0.00, 18704.07, 0.00, 0.00, 0.00, 0.00, 0.00, 0.00, 0.00, -0.18, 1.01
178, 0.00, 18699.20, 0.00, 0.00, 0.00, 0.00, 0.00, 0.00, 0.01, -0.19, 1.01
179, 0.00, 18706.91, 0.00, 0.00, 0.00, 0.00, 0.00, 0.00, 0.01, -0.19, 1.01
180, 0.00, 18705.12, 0.00, 0.00, 0.00, 0.00, 0.00, 0.00, 0.01, -0.19, 1.01
181, 0.00, 18719.50, 0.00, 0.00, 0.00, 0.00, 0.00, 0.00, 0.01, -0.19, 1.01
182, 0.00, 18724.05, 0.00, 0.00, 0.00, 0.00, 0.00, 0.00, 0.01, -0.19, 1.01
183, 0.00, 18737.49, 0.00, 0.00, 0.00, 0.00, 0.00, 0.00, 0.00, -0.19, 1.02
184, 0.00, 18743.61, 0.00, 0.00, 0.00, 0.00, 0.00, 0.00, 0.00, -0.19, 1.02
185, 0.00, 18759.55, 0.00, 0.00, 0.00, 0.00, 0.00, 0.00, 0.00, -0.19, 1.02
186, 0.00, 18759.75, 0.00, 0.00, 0.00, 0.00, 0.00, 0.00, 0.00, -0.19, 1.02
187, 0.00, 18770.62, 0.00, 0.00, 0.00, 0.00, 0.00, 0.00, 0.00, -0.19, 1.02
188, 0.00, 18765.27, 0.00, 0.00, 0.00, 0.00, 0.00, 0.00, 0.01, -0.19, 1.02
189, 0.00, 18774.41, 0.00, 0.00, 0.00, 0.00, 0.00, 0.00, 0.01, -0.19, 1.02
190, 0.00, 18779.18, 0.00, 0.00, 0.00, 0.00, 0.00, 0.00, 0.01, -0.19, 1.02
191, 0.00, 18786.78, 0.00, 0.00, 0.00, 0.00, 0.00, 0.00, 0.01, -0.19, 1.02
192, 0.00, 18787.94, 0.00, 0.00, 0.00, 0.00, 0.00, 0.00, 0.01, -0.19, 1.02
193, 0.00, 18790.51, 0.00, 0.00, 0.00, 0.00, 0.00, 0.00, 0.01, -0.19, 1.02
194, 0.00, 18798.35, 0.00, 0.00, 0.00, 0.00, 0.00, 0.00, 0.01, -0.19, 1.02
195, 0.00, 18807.09, 0.00, 0.00, 0.00, 0.00, 0.00, 0.00, 0.01, -0.19, 1.02
196, 0.00, 18802.04, 0.00, 0.00, 0.00, 0.00, 0.00, 0.00, 0.01, -0.19, 1.02
197, 0.00, 18798.00, 0.00, 0.00, 0.00, 0.00, 0.00, 0.00, 0.01, -0.19, 1.02
198, 0.00, 18807.23, 0.00, 0.00, 0.00, 0.00, 0.00, 0.00, 0.00, -0.19, 1.01
199, 0.00, 18820.97, 0.00, 0.00, 0.00, 0.00, 0.00, 0.00, 0.00, -0.19, 1.01
200, 0.00, 18837.24, 0.00, 0.00, 0.00, 0.00, 0.00, 0.00, 0.00, -0.19, 1.01
201, 0.00, 18832.95, 0.00, 0.00, 0.00, 0.00, 0.00, 0.00, 0.00, -0.19, 1.01
202, 0.00, 18841.76, 0.00, 0.00, 0.00, 0.00, 0.00, 0.00, 0.00, -0.19, 1.01
203, 0.00, 18843.03, 0.00, 0.00, 0.00, 0.00, 0.00, 0.00, 0.00, -0.19, 1.01
204, 0.00, 18842.92, 0.00, 0.00, 0.00, 0.00, 0.00, 0.00, 0.00, -0.19, 1.01
205, 0.00, 18828.53, 0.00, 0.00, 0.00, 0.00, 0.00, 0.00, 0.00, -0.19, 1.01
206, 0.00, 18835.17, 0.00, 0.00, 0.00, 0.00, 0.00, 0.00, 0.00, -0.19, 1.01
207, 0.00, 18835.99, 0.00, 0.00, 0.00, 0.00, 0.00, 0.00, 0.00, -0.19, 1.01
208, 0.00, 18842.99, 0.00, 0.00, 0.00, 0.00, 0.00, 0.00, 0.00, -0.19, 1.01
209, 0.00, 18824.04, 0.00, 0.00, 0.00, 0.00, 0.00, 0.00, 0.00, -0.20, 1.01
210, 0.00, 18818.56, 0.00, 0.00, 0.00, 0.00, 0.00, 0.00, 0.00, -0.20, 1.01
211, 0.00, 18804.46, 0.00, 0.00, 0.00, 0.00, 0.00, 0.00, 0.00, -0.20, 1.01
212, 0.00, 18795.60, 0.00, 0.00, 0.00, 0.00, 0.00, 0.00, 0.00, -0.20, 1.01
213, 0.00, 18766.10, 0.00, 0.00, 0.00, 0.00, 0.00, 0.00, 0.00, -0.20, 1.01
214, 0.00, 18744.55, 0.00, 0.00, 0.00, 0.00, 0.00, 0.00, 0.01, -0.20, 1.01
215, 0.00, 18735.81, 0.00, 0.00, 0.00, 0.00, 0.00, 0.00, 0.01, -0.20, 1.01
216, 0.00, 18732.82, 0.00, 0.00, 0.00, 0.00, 0.00, 0.00, 0.01, -0.20, 1.01
217, 0.00, 18710.44, 0.00, 0.00, 0.00, 0.00, 0.00, 0.00, 0.01, -0.20, 1.01
218, 0.00, 18692.85, 0.00, 0.00, 0.00, 0.00, 0.00, 0.00, 0.01, -0.20, 1.01
219, 0.00, 18679.11, 0.00, 0.00, 0.00, 0.00, 0.00, 0.00, 0.01, -0.19, 1.01
220, 0.00, 18663.35, 0.00, 0.00, 0.00, 0.00, 0.00, 0.00, 0.01, -0.19, 1.01
221, 0.00, 18641.33, 0.00, 0.00, 0.00, 0.00, 0.00, 0.00, 0.01, -0.19, 1.01
222, 0.00, 18612.45, 0.00, 0.00, 0.00, 0.00, 0.00, 0.00, 0.01, -0.19, 1.01
223, 0.00, 18603.83, 0.00, 0.00, 0.00, 0.00, 0.00, 0.00, 0.01, -0.19, 1.01
224, 0.00, 18602.39, 0.00, 0.00, 0.00, 0.00, 0.00, 0.00, 0.01, -0.19, 1.01
225, 0.00, 18594.93, 0.00, 0.00, 0.00, 0.00, 0.00, 0.00, 0.01, -0.19, 1.01
226, 0.00, 18566.12, 0.00, 0.00, 0.00, 0.00, 0.00, 0.00, 0.01, -0.19, 1.01
227, 0.00, 18556.55, 0.00, 0.00, 0.00, 0.00, 0.00, 0.00, 0.01, -0.19, 1.01
228, 0.00, 18548.30, 0.00, 0.00, 0.00, 0.00, 0.00, 0.00, 0.01, -0.19, 1.01
229, 0.00, 18553.40, 0.00, 0.00, 0.00, 0.00, 0.00, 0.00, 0.00, -0.19, 1.00
230, 0.00, 18534.20, 0.00, 0.00, 0.00, 0.00, 0.00, 0.00, 0.00, -0.19, 1.00
231, 0.00, 18535.70, 0.00, 0.00, 0.00, 0.00, 0.00, 0.00, 0.00, -0.19, 1.00
232, 0.00, 18545.09, 0.00, 0.00, 0.00, 0.00, 0.00, 0.00, 0.00, -0.19, 1.00
233, 0.00, 18557.94, 0.00, 0.00, 0.00, 0.00, 0.00, 0.00, 0.00, -0.19, 1.00
234, 0.00, 18543.21, 0.00, 0.00, 0.00, 0.00, 0.00, 0.00, 0.01, -0.19, 1.00
235, 0.00, 18542.87, 0.00, 0.00, 0.00, 0.00, 0.00, 0.00, 0.01, -0.19, 1.00
236, 0.00, 18547.88, 0.00, 0.00, 0.00, 0.00, 0.00, 0.00, 0.01, -0.19, 1.00
237, 0.00, 18560.46, 0.00, 0.00, 0.00, 0.00, 0.00, 0.00, 0.01, -0.19, 1.00
238, 0.00, 18552.84, 0.00, 0.00, 0.00, 0.00, 0.00, 0.00, 0.01, -0.19, 1.00
239, 0.00, 18551.37, 0.00, 0.00, 0.00, 0.00, 0.00, 0.00, 0.01, -0.19, 1.01
240, 0.00, 18569.09, 0.00, 0.00, 0.00, 0.00, 0.00, 0.00, 0.01, -0.19, 1.01
241, 0.00, 18576.98, 0.00, 0.00, 0.00, 0.00, 0.00, 0.00, 0.01, -0.19, 1.01
242, 0.00, 18572.60, 0.00, 0.00, 0.00, 0.00, 0.00, 0.00, 0.01, -0.19, 1.01
243, 0.00, 18570.34, 0.00, 0.00, 0.00, 0.00, 0.00, 0.00, 0.01, -0.19, 1.01
244, 0.00, 18581.85, 0.00, 0.00, 0.00, 0.00, 0.00, 0.00, 0.00, -0.19, 1.01
245, 0.00, 18601.61, 0.00, 0.00, 0.00, 0.00, 0.00, 0.00, 0.00, -0.19, 1.01
246, 0.00, 18612.48, 0.00, 0.00, 0.00, 0.00, 0.00, 0.00, 0.00, -0.19, 1.01
247, 0.00, 18613.48, 0.00, 0.00, 0.00, 0.00, 0.00, 0.00, 0.00, -0.19, 1.01
248, 0.00, 18632.23, 0.00, 0.00, 0.00, 0.00, 0.00, 0.00, 0.00, -0.19, 1.01
249, 0.00, 18644.17, 0.00, 0.00, 0.00, 0.00, 0.00, 0.00, 0.01, -0.19, 1.01
250, 0.00, 18654.16, 0.00, 0.00, 0.00, 0.00, 0.00, 0.00, 0.01, -0.19, 1.01
251, 0.00, 18642.96, 0.00, 0.00, 0.00, 0.00, 0.00, 0.00, 0.01, -0.19, 1.01
252, 0.00, 18644.28, 0.00, 0.00, 0.00, 0.00, 0.00, 0.00, 0.01, -0.19, 1.01
253, 0.00, 18653.58, 0.00, 0.00, 0.00, 0.00, 0.00, 0.00, 0.01, -0.19, 1.01
254, 0.00, 18665.45, 0.00, 0.00, 0.00, 0.00, 0.00, 0.00, 0.01, -0.19, 1.01
255, 0.00, 18652.40, 0.00, 0.00, 0.00, 0.00, 0.00, 0.00, 0.01, -0.19, 1.01
0, 0.00, 18665.36, 0.00, 0.00, 0.00, 0.00, 0.00, 0.00, 0.01, -0.19, 1.01
1, 0.00, 18677.99, 0.00, 0.00, 0.00, 0.00, 0.00, 0.00, 0.01, -0.19, 1.01
2, 0.00, 18690.93, 0.00, 0.00, 0.00, 0.00, 0.00, 0.00, 0.01, -0.19, 1.01
3, 0.00, 18676.58, 0.00, 0.00, 0.00, 0.00, 0.00, 0.00, 0.00, -0.19, 1.01
4, 0.00, 18672.40, 0.00, 0.00, 0.00, 0.00, 0.00, 0.00, 0.00, -0.19, 1.01
5, 0.00, 18683.11, 0.00, 0.00, 0.00, 0.00, 0.00, 0.00, 0.00, -0.19, 1.01
6, 0.00, 18703.04, 0.00, 0.00, 0.00, 0.00, 0.00, 0.00, 0.00, -0.19, 1.01
7, 0.00, 18705.32, 0.00, 0.00, 0.00, 0.00, 0.00, 0.00, 0.00, -0.19, 1.01
8, 0.00, 18717.75, 0.00, 0.00, 0.00, 0.00, 0.00, 0.00, 0.00, -0.19, 1.02
9, 0.00, 18731.61, 0.00, 0.00, 0.00, 0.00, 0.00, 0.00, 0.00, -0.19, 1.02
10, 0.00, 18741.83, 0.00, 0.00, 0.00, 0.00, 0.00, 0.00, 0.00, -0.19, 1.02
11, 0.00, 18737.04, 0.00, 0.00, 0.00, 0.00, 0.00, 0.00, 0.00, -0.19, 1.02
12, 0.00, 18729.44, 0.00, 0.00, 0.00, 0.00, 0.00, 0.00, 0.00, -0.19, 1.02
13, 0.00, 18743.08, 0.00, 0.00, 0.00, 0.00, 0.00, 0.00, 0.01, -0.19, 1.02
14, 0.00, 18750.43, 0.00, 0.00, 0.00, 0.00, 0.00, 0.00, 0.01, -0.19, 1.02
15, 0.00, 18756.67, 0.00, 0.00, 0.00, 0.00, 0.00, 0.00, 0.01, -0.19, 1.02
16, 0.00, 18765.21, 0.00, 0.00, 0.00, 0.00, 0.00, 0.00, 0.01, -0.19, 1.02
17, 0.00, 18782.84, 0.00, 0.00, 0.00, 0.00, 0.00, 0.00, 0.01, -0.19, 1.02
18, 0.00, 18788.41, 0.00, 0.00, 0.00, 0.00, 0.00, 0.00, 0.01, -0.19, 1.01
19, 0.00, 18793.10, 0.00, 0.00, 0.00, 0.00, 0.00, 0.00, 0.01, -0.19, 1.01
20, 0.00, 18783.24, 0.00, 0.00, 0.00, 0.00, 0.00, 0.00, 0.01, -0.19, 1.01
21, 0.00, 18805.84, 0.00, 0.00, 0.00, 0.00, 0.00, 0.00, 0.01, -0.19, 1.01
22, 0.00, 18823.48, 0.00, 0.00, 0.00, 0.00, 0.00, 0.00, 0.01, -0.19, 1.01
23, 0.00, 18840.26, 0.00, 0.00, 0.00, 0.00, 0.00, 0.00, 0.01, -0.20, 1.01
24, 0.00, 18846.07, 0.00, 0.00, 0.00, 0.00, 0.00, 0.00, 0.01, -0.20, 1.01
25, 0.00, 18874.28, 0.00, 0.00, 0.00, 0.00, 0.00, 0.00, 0.01, -0.20, 1.01
26, 0.00, 18894.20, 0.00, 0.00, 0.00, 0.00, 0.00, 0.00, 0.01, -0.20, 1.01
27, 0.00, 18912.48, 0.00, 0.00, 0.00, 0.00, 0.00, 0.00, 0.01, -0.20, 1.01
28, 0.00, 18913.26, 0.00, 0.00, 0.00, 0.00, 0.00, 0.00, 0.01, -0.20, 1.02
29, 0.00, 18937.20, 0.00, 0.00, 0.00, 0.00, 0.00, 0.00, 0.01, -0.20, 1.02
30, 0.00, 18957.47, 0.00, 0.00, 0.00, 0.00, 0.00, 0.00, 0.01, -0.20, 1.02
31, 0.00, 18978.17, 0.00, 0.00, 0.00, 0.00, 0.00, 0.00, 0.01, -0.20, 1.02
32, 0.00, 18997.55, 0.00, 0.00, 0.00, 0.00, 0.00, 0.00, 0.01, -0.20, 1.02
33, 0.00, 19021.69, 0.00, 0.00, 0.00, 0.00, 0.00, 0.00, 0.01, -0.20, 1.01
34, 0.00, 19049.97, 0.00, 0.00, 0.00, 0.00, 0.00, 0.00, 0.01, -0.20, 1.01
35, 0.00, 19065.81, 0.00, 0.00, 0.00, 0.00, 0.00, 0.00, 0.01, -0.20, 1.01
36, 0.00, 19070.37, 0.00, 0.00, 0.00, 0.00, 0.00, 0.00, 0.01, -0.20, 1.01
37, 0.00, 19088.43, 0.00, 0.00, 0.00, 0.00, 0.00, 0.00, 0.01, -0.20, 1.01
38, 0.00, 19120.71, 0.00, 0.00, 0.00, 0.00, 0.00, 0.00, 0.01, -0.19, 1.01
39, 0.00, 19137.14, 0.00, 0.00, 0.00, 0.00, 0.00, 0.00, 0.01, -0.19, 1.01
40, 0.00, 19153.19, 0.00, 0.00, 0.00, 0.00, 0.00, 0.00, 0.01, -0.19, 1.01
41, 0.00, 19159.09, 0.00, 0.00, 0.00, 0.00, 0.00, 0.00, 0.01, -0.19, 1.01
42, 0.00, 19182.71, 0.00, 0.00, 0.00, 0.00, 0.00, 0.00, 0.01, -0.19, 1.01
43, 0.00, 19188.62, 0.00, 0.00, 0.00, 0.00, 0.00, 0.00, 0.00, -0.19, 1.01
44, 0.00, 19191.43, 0.00, 0.00, 0.00, 0.00, 0.00, 0.00, 0.00, -0.19, 1.01
45, 0.00, 19185.93, 0.00, 0.00, 0.00, 0.00, 0.00, 0.00, 0.00, -0.19, 1.01
46, 0.00, 19200.62, 0.00, 0.00, 0.00, 0.00, 0.00, 0.00, 0.00, -0.19, 1.01
47, 0.00, 19198.18, 0.00, 0.00, 0.00, 0.00, 0.00, 0.00, 0.00, -0.19, 1.01
48, 0.00, 19206.34, 0.00, 0.00, 0.00, 0.00, 0.00, 0.00, 0.01, -0.19, 1.00
49, 0.00, 19197.00, 0.00, 0.00, 0.00, 0.00, 0.00, 0.00, 0.01, -0.19, 1.00
50, 0.00, 19202.34, 0.00, 0.00, 0.00, 0.00, 0.00, 0.00, 0.01, -0.19, 1.00
51, 0.00, 19198.56, 0.00, 0.00, 0.00, 0.00, 0.00, 0.00, 0.01, -0.19, 1.00
52, 0.00, 19193.91, 0.00, 0.00, 0.00, 0.00, 0.00, 0.00, 0.01, -0.19, 1.00
53, 0.00, 19176.16, 0.00, 0.00, 0.00, 0.00, 0.00, 0.00, 0.01, -0.20, 1.00
54, 0.00, 19170.33, 0.00, 0.00, 0.00, 0.00, 0.00, 0.00, 0.01, -0.20, 1.00
55, 0.00, 19169.71, 0.00, 0.00, 0.00, 0.00, 0.00, 0.00, 0.01, -0.20, 1.00
56, 0.00, 19162.46, 0.00, 0.00, 0.00, 0.00, 0.00, 0.00, 0.01, -0.20, 1.00
57, 0.00, 19137.41, 0.00, 0.00, 0.00, 0.00, 0.00, 0.00, 0.01, -0.20, 1.00
58, 0.00, 19123.39, 0.00, 0.00, 0.00, 0.00, 0.00, 0.00, 0.00, -0.19, 1.01
59, 0.00, 19116.24, 0.00, 0.00, 0.00, 0.00, 0.00, 0.00, 0.00, -0.19, 1.01
60, 0.00, 19092.26, 0.00, 0.00, 0.00, 0.00, 0.00, 0.00, 0.00, -0.19, 1.01
61, 0.00, 19064.09, 0.00, 0.00, 0.00, 0.00, 0.00, 0.00, 0.00, -0.19, 1.01
62, 0.00, 19034.48, 0.00, 0.00, 0.00, 0.00, 0.00, 0.00, 0.00, -0.19, 1.01
63, 0.00, 19021.67, 0.00, 0.00, 0.00, 0.00, 0.00, 0.00, 0.01, -0.20, 1.01
64, 0.00, 18994.67, 0.00, 0.00, 0.00, 0.00, 0.00, 0.00, 0.01, -0.20, 1.01
65, 0.00, 18969.54, 0.00, 0.00, 0.00, 0.00, 0.00, 0.00, 0.01, -0.20, 1.01
66, 0.00, 18934.56, 0.00, 0.00, 0.00, 0.00, 0.00, 0.00, 0.01, -0.20, 1.01
67, 0.00, 18915.52, 0.00, 0.00, 0.00, 0.00, 0.00, 0.00, 0.01, -0.20, 1.01
68, 0.00, 18885.46, 0.00, 0.00, 0.00, 0.00, 0.00, 0.00, 0.01, -0.20, 1.02
69, 0.00, 18860.94, 0.00, 0.00, 0.00, 0.00, 0.00, 0.00, 0.01, -0.20, 1.02
70, 0.00, 18822.61, 0.00, 0.00, 0.00, 0.00, 0.00, 0.00, 0.01, -0.20, 1.02
71, 0.00, 18807.18, 0.00, 0.00, 0.00, 0.00, 0.00, 0.00, 0.01, -0.20, 1.02
72, 0.00, 18787.58, 0.00, 0.00, 0.00, 0.00, 0.00, 0.00, 0.01, -0.20, 1.02
73, 0.00, 18763.93, 0.00, 0.00, 0.00, 0.00, 0.00, 0.00, 0.01, -0.20, 1.02
74, 0.00, 18721.89, 0.00, 0.00, 0.00, 0.00, 0.00, 0.00, 0.01, -0.20, 1.02
75, 0.00, 18700.16, 0.00, 0.00, 0.00, 0.00, 0.00, 0.00, 0.01, -0.20, 1.02
76, 0.00, 18675.42, 0.00, 0.00, 0.00, 0.00, 0.00, 0.00, 0.01, -0.20, 1.02
77, 0.00, 18650.03, 0.00, 0.00, 0.00, 0.00, 0.00, 0.00, 0.01, -0.20, 1.02
78, 0.00, 18606.42, 0.00, 0.00, 0.00, 0.00, 0.00, 0.00, 0.00, -0.19, 1.02
79, 0.00, 18573.45, 0.00, 0.00, 0.00, 0.00, 0.00, 0.00, 0.00, -0.19, 1.02
80, 0.00, 18548.57, 0.00, 0.00, 0.00, 0.00, 0.00, 0.00, 0.00, -0.19, 1.02
81, 0.00, 18525.66, 0.00, 0.00, 0.00, 0.00, 0.00, 0.00, 0.00, -0.19, 1.02
82, 0.00, 18493.32, 0.00, 0.00, 0.00, 0.00, 0.00, 0.00, 0.00, -0.19, 1.02
83, 0.00, 18453.09, 0.00, 0.00, 0.00, 0.00, 0.00, 0.00, 0.00, -0.19, 1.01
84, 0.00, 18426.40, 0.00, 0.00, 0.00, 0.00, 0.00, 0.00, 0.00, -0.19, 1.01
85, 0.00, 18404.07, 0.00, 0.00, 0.00, 0.00, 0.00, 0.00, 0.00, -0.19, 1.01
86, 0.00, 18367.84, 0.00, 0.00, 0.00, 0.00, 0.00, 0.00, 0.00, -0.19, 1.01
87, 0.00, 18319.15, 0.00, 0.00, 0.00, 0.00, 0.00, 0.00, 0.00, -0.19, 1.01
88, 0.00, 18292.64, 0.00, 0.00, 0.00, 0.00, 0.00, 0.00, 0.00, -0.19, 1.01
89, 0.00, 18267.97, 0.00, 0.00, 0.00, 0.00, 0.00, 0.00, 0.00, -0.19, 1.01
90, 0.00, 18234.22, 0.00, 0.00, 0.00, 0.00, 0.00, 0.00, 0.00, -0.19, 1.01
91, 0.00, 18176.01, 0.00, 0.00, 0.00, 0.00, 0.00, 0.00, 0.00, -0.19, 1.01
92, 0.00, 18135.96, 0.00, 0.00, 0.00, 0.00, 0.00, 0.00, 0.00, -0.19, 1.01
93, 0.00, 18102.23, 0.00, 0.00, 0.00, 0.00, 0.00, 0.00, 0.01, -0.19, 1.02
94, 0.00, 18069.11, 0.00, 0.00, 0.00, 0.00, 0.00, 0.00, 0.01, -0.19, 1.02
95, 0.00, 18004.24, 0.00, 0.00, 0.00, 0.00, 0.00, 0.00, 0.01, -0.19, 1.02
96, 0.00, 17959.43, 0.00, 0.00, 0.00, 0.00, 0.00, 0.00, 0.01, -0.19, 1.02
97, 0.00, 17922.48, 0.00, 0.00, 0.00, 0.00, 0.00, 0.00, 0.01, -0.19, 1.02
98, 0.00, 17892.26, 0.00, 0.00, 0.00, 0.00, 0.00, 0.00, 0.00, -0.19, 1.01
99, 0.00, 17824.04, 0.00, 0.00, 0.00, 0.00, 0.00, 0.00, 0.00, -0.19, 1.01
100, 0.00, 17758.39, 0.00, 0.00, 0.00, 0.00, 0.00, 0.00, 0.00, -0.19, 1.01
101, 0.00, 17714.96, 0.00, 0.00, 0.00, 0.00, 0.00, 0.00, 0.00, -0.19, 1.01
102, 0.00, 17689.19, 0.00, 0.00, 0.00, 0.00, 0.00, 0.00, 0.00, -0.19, 1.01
103, 0.00, 17632.58, 0.00, 0.00, 0.00, 0.00, 0.00, 0.00, 0.01, -0.19, 1.01
104, 0.00, 17567.02, 0.00, 0.00, 0.00, 0.00, 0.00, 0.00, 0.01, -0.19, 1.01
105, 0.00, 17522.52, 0.00, 0.00, 0.00, 0.00, 0.00, 0.00, 0.01, -0.19, 1.01
106, 0.00, 17510.15, 0.00, 0.00, 0.00, 0.00, 0.00, 0.00, 0.01, -0.19, 1.01
107, 0.00, 17471.73, 0.00, 0.00, 0.00, 0.00, 0.00, 0.00, 0.01, -0.19, 1.01
108, 0.00, 17400.34, 0.00, 0.00, 0.00, 0.00, 0.00, 0.00, 0.01, -0.19, 1.01
109, 0.00, 17354.47, 0.00, 0.00, 0.00, 0.00, 0.00, 0.00, 0.01, -0.19, 1.01
110, 0.00, 17343.25, 0.00, 0.00, 0.00, 0.00, 0.00, 0.00, 0.01, -0.19, 1.01
111, 0.00, 17320.79, 0.00, 0.00, 0.00, 0.00, 0.00, 0.00, 0.01, -0.19, 1.01
112, 0.00, 17258.43, 0.00, 0.00, 0.00, 0.00, 0.00, 0.00, 0.01, -0.19, 1.01
113, 0.00, 17220.50, 0.00, 0.00, 0.00, 0.00, 0.00, 0.00, 0.01, -0.20, 1.02
114, 0.00, 17215.29, 0.00, 0.00, 0.00, 0.00, 0.00, 0.00, 0.01, -0.20, 1.02
115, 0.00, 17208.00, 0.00, 0.00, 0.00, 0.00, 0.00, 0.00, 0.01, -0.20, 1.02
116, 0.00, 17133.68, 0.00, 0.00, 0.00, 0.00, 0.00, 0.00, 0.01, -0.20, 1.02
117, 0.00, 17077.18, 0.00, 0.00, 0.00, 0.00, 0.00, 0.00, 0.01, -0.20, 1.02
118, 0.00, 17070.50, 0.00, 0.00, 0.00, 0.00, 0.00, 0.00, 0.01, -0.19, 1.01
119, 0.00, 17083.62, 0.00, 0.00, 0.00, 0.00, 0.00, 0.00, 0.01, -0.19, 1.01
120, 0.00, 17025.28, 0.00, 0.00, 0.00, 0.00, 0.00, 0.00, 0.01, -0.19, 1.01
121, 0.00, 16966.94, 0.00, 0.00, 0.00, 0.00, 0.00, 0.00, 0.01, -0.19, 1.01
122, 0.00, 16967.37, 0.00, 0.00, 0.00, 0.00, 0.00, 0.00, 0.01, -0.19, 1.01
123, 0.00, 16998.08, 0.00, 0.00, 0.00, 0.00, 0.00, 0.00, 0.01, -0.19, 1.01
124, 0.00, 16950.29, 0.00, 0.00, 0.00, 0.00, 0.00, 0.00, 0.01, -0.19, 1.01
125, 0.00, 16869.33, 0.00, 0.00, 0.00, 0.00, 0.00, 0.00, 0.01, -0.19, 1.01
126, 0.00, 16853.13, 0.00, 0.00, 0.00, 0.00, 0.00, 0.00, 0.01, -0.19, 1.01
127, 0.00, 16903.46, 0.00, 0.00, 0.00, 0.00, 0.00, 0.00, 0.01, -0.19, 1.01
128, 0.00, 16898.86, 0.00, 0.00, 0.00, 0.00, 0.00, 0.00, 0.00, -0.19, 1.01
129, 0.00, 16827.89, 0.00, 0.00, 0.00, 0.00, 0.00, 0.00, 0.00, -0.19, 1.01
130, 0.00, 16810.97, 0.00, 0.00, 0.00, 0.00, 0.00, 0.00, 0.00, -0.19, 1.01
131, 0.00, 16866.51, 0.00, 0.00, 0.00, 0.00, 0.00, 0.00, 0.00, -0.19, 1.01
132, 0.00, 16892.31, 0.00, 0.00, 0.00, 0.00, 0.00, 0.00, 0.00, -0.19, 1.01
133, 0.00, 16835.87, 0.00, 0.00, 0.00, 0.00, 0.00, 0.00, 0.01, -0.20, 1.02
134, 0.00, 16807.93, 0.00, 0.00, 0.00, 0.00, 0.00, 0.00, 0.01, -0.20, 1.02
135, 0.00, 16871.68, 0.00, 0.00, 0.00, 0.00, 0.00, 0.00, 0.01, -0.20, 1.02
136, 0.00, 16936.81, 0.00, 0.00, 0.00, 0.00, 0.00, 0.00, 0.01, -0.20, 1.02
137, 0.00, 16897.94, 0.00, 0.00, 0.00, 0.00, 0.00, 0.00, 0.01, -0.20, 1.02
138, 0.00, 16860.30, 0.00, 0.00, 0.00, 0.00, 0.00, 0.00, 0.01, -0.20, 1.02
139, 0.00, 16908.92, 0.00, 0.00, 0.00, 0.00, 0.00, 0.00, 0.01, -0.20, 1.01
140, 0.00, 16978.07, 0.00, 0.00, 0.00, 0.00, 0.00, 0.00, 0.01, -0.20, 1.01
141, 0.00, 16936.72, 0.00, 0.00, 0.00, 0.00, 0.00, 0.00, 0.01, -0.20, 1.01
142, 0.00, 16875.57, 0.00, 0.00, 0.00, 0.00, 0.00, 0.00, 0.01, -0.20, 1.01
143, 0.00, 16904.15, 0.00, 0.00, 0.00, 0.00, 0.00, 0.00, 0.01, -0.20, 1.01
144, 0.00, 16991.68, 0.00, 0.00, 0.00, 0.00, 0.00, 0.00, 0.00, -0.20, 1.01
145, 0.00, 16971.39, 0.00, 0.00, 0.00, 0.00, 0.00, 0.00, 0.00, -0.20, 1.01
146, 0.00, 16901.70, 0.00, 0.00, 0.00, 0.00, 0.00, 0.00, 0.00, -0.20, 1.01
147, 0.00, 16907.53, 0.00, 0.00, 0.00, 0.00, 0.00, 0.00, 0.00, -0.20, 1.01
148, 0.00, 16983.75, 0.00, 0.00, 0.00, 0.00, 0.00, 0.00, 0.00, -0.20, 1.01
149, 0.00, 16983.59, 0.00, 0.00, 0.00, 0.00, 0.00, 0.00, 0.00, -0.19, 1.00
150, 0.00, 16908.22, 0.00, 0.00, 0.00, 0.00, 0.00, 0.00, 0.00, -0.19, 1.00
151, 0.00, 16895.59, 0.00, 0.00, 0.00, 0.00, 0.00, 0.00, 0.00, -0.19, 1.00
152, 0.00, 16982.92, 0.00, 0.00, 0.00, 0.00, 0.00, 0.00, 0.00, -0.19, 1.00
153, 0.00, 17009.30, 0.00, 0.00, 0.00, 0.00, 0.00, 0.00, 0.00, -0.19, 1.00
154, 0.00, 16938.49, 0.00, 0.00, 0.00, 0.00, 0.00, 0.00, -0.00, -0.19, 1.02
155, 0.00, 16911.20, 0.00, 0.00, 0.00, 0.00, 0.00, 0.00, -0.00, -0.19, 1.02
156, 0.00, 16980.66, 0.00, 0.00, 0.00, 0.00, 0.00, 0.00, -0.00, -0.19, 1.02
157, 0.00, 17025.72, 0.00, 0.00, 0.00, 0.00, 0.00, 0.00, -0.00, -0.19, 1.02
158, 0.00, 16962.63, 0.00, 0.00, 0.00, 0.00, 0.00, 0.00, -0.00, -0.19, 1.02
159, 0.00, 16927.38, 0.00, 0.00, 0.00, 0.00, 0.00, 0.00, 0.01, -0.19, 1.02
160, 0.00, 16993.76, 0.00, 0.00, 0.00, 0.00, 0.00, 0.00, 0.01, -0.19, 1.02
161, 0.00, 17060.28, 0.00, 0.00, 0.00, 0.00, 0.00, 0.00, 0.01, -0.19, 1.02
162, 0.00, 17003.62, 0.00, 0.00, 0.00, 0.00, 0.00, 0.00, 0.01, -0.19, 1.02
163, 0.00, 16942.82, 0.00, 0.00, 0.00, 0.00, 0.00, 0.00, 0.01, -0.19, 1.02
164, 0.00, 16971.77, 0.00, 0.00, 0.00, 0.00, 0.00, 0.00, 0.01, -0.19, 1.02
165, 0.00, 17041.30, 0.00, 0.00, 0.00, 0.00, 0.00, 0.00, 0.01, -0.19, 1.02
166, 0.00, 16999.42, 0.00, 0.00, 0.00, 0.00, 0.00, 0.00, 0.01, -0.19, 1.02
167, 0.00, 16920.96, 0.00, 0.00, 0.00, 0.00, 0.00, 0.00, 0.01, -0.19, 1.02
168, 0.00, 16942.35, 0.00, 0.00, 0.00, 0.00, 0.00, 0.00, 0.01, -0.19, 1.02
169, 0.00, 17026.57, 0.00, 0.00, 0.00, 0.00, 0.00, 0.00, 0.00, -0.18, 1.01
170, 0.00, 16999.98, 0.00, 0.00, 0.00, 0.00, 0.00, 0.00, 0.00, -0.18, 1.01
171, 0.00, 16909.38, 0.00, 0.00, 0.00, 0.00, 0.00, 0.00, 0.00, -0.18, 1.01
172, 0.00, 16889.29, 0.00, 0.00, 0.00, 0.00, 0.00, 0.00, 0.00, -0.18, 1.01
173, 0.00, 16957.51, 0.00, 0.00, 0.00, 0.00, 0.00, 0.00, 0.00, -0.18, 1.01
174, 0.00, 16941.64, 0.00, 0.00, 0.00, 0.00, 0.00, 0.00, 0.00, -0.18, 1.02
175, 0.00, 16840.16, 0.00, 0.00, 0.00, 0.00, 0.00, 0.00, 0.00, -0.18, 1.02
176, 0.00, 16806.68, 0.00, 0.00, 0.00, 0.00, 0.00, 0.00, 0.00, -0.18, 1.02
177, 0.00, 16867.16, 0.00, 0.00, 0.00, 0.00, 0.00, 0.00, 0.00, -0.18, 1.02
178, 0.00, 16873.22, 0.00, 0.00, 0.00, 0.00, 0.00, 0.00, 0.00, -0.18, 1.02
179, 0.00, 16774.09, 0.00, 0.00, 0.00, 0.00, 0.00, 0.00, 0.01, -0.19, 1.02
180, 0.00, 16712.33, 0.00, 0.00, 0.00, 0.00, 0.00, 0.00, 0.01, -0.19, 1.02
181, 0.00, 16766.22, 0.00, 0.00, 0.00, 0.00, 0.00, 0.00, 0.01, -0.19, 1.02
182, 0.00, 16801.04, 0.00, 0.00, 0.00, 0.00, 0.00, 0.00, 0.01, -0.19, 1.02
183, 0.00, 16725.16, 0.00, 0.00, 0.00, 0.00, 0.00, 0.00, 0.01, -0.19, 1.02
184, 0.00, 16684.82, 0.00, 0.00, 0.00, 0.00, 0.00, 0.00, 0.00, -0.20, 1.02
185, 0.00, 16735.11, 0.00, 0.00, 0.00, 0.00, 0.00, 0.00, 0.00, -0.20, 1.02
186, 0.00, 16787.01, 0.00, 0.00, 0.00, 0.00, 0.00, 0.00, 0.00, -0.20, 1.02
187, 0.00, 16728.02, 0.00, 0.00, 0.00, 0.00, 0.00, 0.00, 0.00, -0.20, 1.02
188, 0.00, 16656.83, 0.00, 0.00, 0.00, 0.00, 0.00, 0.00, 0.00, -0.20, 1.02
189, 0.00, 16683.30, 0.00, 0.00, 0.00, 0.00, 0.00, 0.00, 0.00, -0.20, 1.02
190, 0.00, 16747.40, 0.00, 0.00, 0.00, 0.00, 0.00, 0.00, 0.00, -0.20, 1.02
191, 0.00, 16712.94, 0.00, 0.00, 0.00, 0.00, 0.00, 0.00, 0.00, -0.20, 1.02
192, 0.00, 16661.01, 0.00, 0.00, 0.00, 0.00, 0.00, 0.00, 0.00, -0.20, 1.02
193, 0.00, 16674.27, 0.00, 0.00, 0.00, 0.00, 0.00, 0.00, 0.00, -0.20, 1.02
194, 0.00, 16732.76, 0.00, 0.00, 0.00, 0.00, 0.00, 0.00, 0.00, -0.20, 1.01
195, 0.00, 16707.53, 0.00, 0.00, 0.00, 0.00, 0.00, 0.00, 0.00, -0.20, 1.01
196, 0.00, 16637.25, 0.00, 0.00, 0.00, 0.00, 0.00, 0.00, 0.00, -0.20, 1.01
197, 0.00, 16616.89, 0.00, 0.00, 0.00, 0.00, 0.00, 0.00, 0.00, -0.20, 1.01
198, 0.00, 16649.88, 0.00, 0.00, 0.00, 0.00, 0.00, 0.00, 0.00, -0.20, 1.01
199, 0.00, 16627.24, 0.00, 0.00, 0.00, 0.00, 0.00, 0.00, 0.01, -0.19, 1.02
200, 0.00, 16562.17, 0.00, 0.00, 0.00, 0.00, 0.00, 0.00, 0.01, -0.19, 1.02
201, 0.00, 16526.21, 0.00, 0.00, 0.00, 0.00, 0.00, 0.00, 0.01, -0.19, 1.02
202, 0.00, 16521.72, 0.00, 0.00, 0.00, 0.00, 0.00, 0.00, 0.01, -0.19, 1.02
203, 0.00, 16482.27, 0.00, 0.00, 0.00, 0.00, 0.00, 0.00, 0.01, -0.19, 1.02
204, 0.00, 16401.17, 0.00, 0.00, 0.00, 0.00, 0.00, 0.00, 0.01, -0.19, 1.01
205, 0.00, 16351.98, 0.00, 0.00, 0.00, 0.00, 0.00, 0.00, 0.01, -0.19, 1.01
206, 0.00, 16337.98, 0.00, 0.00, 0.00, 0.00, 0.00, 0.00, 0.01, -0.19, 1.01
207, 0.00, 16321.02, 0.00, 0.00, 0.00, 0.00, 0.00, 0.00, 0.01, -0.19, 1.01
208, 0.00, 16255.04, 0.00, 0.00, 0.00, 0.00, 0.00, 0.00, 0.01, -0.19, 1.01
209, 0.00, 16197.39, 0.00, 0.00, 0.00, 0.00, 0.00, 0.00, 0.01, -0.19, 1.01
210, 0.00, 16169.68, 0.00, 0.00, 0.00, 0.00, 0.00, 0.00, 0.01, -0.19, 1.01
211, 0.00, 16144.08, 0.00, 0.00, 0.00, 0.00, 0.00, 0.00, 0.01, -0.19, 1.01
212, 0.00, 16044.28, 0.00, 0.00, 0.00, 0.00, 0.00, 0.00, 0.01, -0.19, 1.01
213, 0.00, 15948.15, 0.00, 0.00, 0.00, 0.00, 0.00, 0.00, 0.01, -0.19, 1.01
214, 0.00, 15891.89, 0.00, 0.00, 0.00, 0.00, 0.00, 0.00, 0.01, -0.19, 1.01
215, 0.00, 15866.18, 0.00, 0.00, 0.00, 0.00, 0.00, 0.00, 0.01, -0.19, 1.01
216, 0.00, 15798.64, 0.00, 0.00, 0.00, 0.00, 0.00, 0.00, 0.01, -0.19, 1.01
217, 0.00, 15730.02, 0.00, 0.00, 0.00, 0.00, 0.00, 0.00, 0.01, -0.19, 1.01
218, 0.00, 15701.83, 0.00, 0.00, 0.00, 0.00, 0.00, 0.00, 0.01, -0.19, 1.01
219, 0.00, 15712.16, 0.00, 0.00, 0.00, 0.00, 0.00, 0.00, 0.01, -0.19, 1.01
220, 0.00, 15678.47, 0.00, 0.00, 0.00, 0.00, 0.00, 0.00, 0.01, -0.19, 1.01
221, 0.00, 15646.49, 0.00, 0.00, 0.00, 0.00, 0.00, 0.00, 0.01, -0.19, 1.01
222, 0.00, 15636.45, 0.00, 0.00, 0.00, 0.00, 0.00, 0.00, 0.01, -0.19, 1.01
223, 0.00, 15647.74, 0.00, 0.00, 0.00, 0.00, 0.00, 0.00, 0.01, -0.19, 1.01
224, 0.00, 15640.54, 0.00, 0.00, 0.00, 0.00, 0.00, 0.00, 0.01, -0.19, 1.02
225, 0.00, 15621.39, 0.00, 0.00, 0.00, 0.00, 0.00, 0.00, 0.01, -0.19, 1.02
226, 0.00, 15614.37, 0.00, 0.00, 0.00, 0.00, 0.00, 0.00, 0.01, -0.19, 1.02
227, 0.00, 15609.18, 0.00, 0.00, 0.00, 0.00, 0.00, 0.00, 0.01, -0.19, 1.02
228, 0.00, 15586.27, 0.00, 0.00, 0.00, 0.00, 0.00, 0.00, 0.01, -0.19, 1.02
229, 0.00, 15553.75, 0.00, 0.00, 0.00, 0.00, 0.00, 0.00, 0.00, -0.19, 1.01
230, 0.00, 15537.12, 0.00, 0.00, 0.00, 0.00, 0.00, 0.00, 0.00, -0.19, 1.01
231, 0.00, 15515.75, 0.00, 0.00, 0.00, 0.00, 0.00, 0.00, 0.00, -0.19, 1.01
232, 0.00, 15500.02, 0.00, 0.00, 0.00, 0.00, 0.00, 0.00, 0.00, -0.19, 1.01
233, 0.00, 15464.61, 0.00, 0.00, 0.00, 0.00, 0.00, 0.00, 0.00, -0.19, 1.01
234, 0.00, 15437.05, 0.00, 0.00, 0.00, 0.00, 0.00, 0.00, 0.00, -0.19, 1.01
235, 0.00, 15403.01, 0.00, 0.00, 0.00, 0.00, 0.00, 0.00, 0.00, -0.19, 1.01
236, 0.00, 15368.37, 0.00, 0.00, 0.00, 0.00, 0.00, 0.00, 0.00, -0.19, 1.01
237, 0.00, 15328.80, 0.00, 0.00, 0.00, 0.00, 0.00, 0.00, 0.00, -0.19, 1.01
238, 0.00, 15314.59, 0.00, 0.00, 0.00, 0.00, 0.00, 0.00, 0.00, -0.19, 1.01
239, 0.00, 15287.21, 0.00, 0.00, 0.00, 0.00, 0.00, 0.00, 0.01, -0.19, 1.01
240, 0.00, 15274.15, 0.00, 0.00, 0.00, 0.00, 0.00, 0.00, 0.01, -0.19, 1.01
241, 0.00, 15249.30, 0.00, 0.00, 0.00, 0.00, 0.00, 0.00, 0.01, -0.19, 1.01
242, 0.00, 15242.24, 0.00, 0.00, 0.00, 0.00, 0.00, 0.00, 0.01, -0.19, 1.01
243, 0.00, 15228.18, 0.00, 0.00, 0.00, 0.00, 0.00, 0.00, 0.01, -0.19, 1.01
244, 0.00, 15215.75, 0.00, 0.00, 0.00, 0.00, 0.00, 0.00, 0.01, -0.19, 1.01
245, 0.00, 15214.88, 0.00, 0.00, 0.00, 0.00, 0.00, 0.00, 0.01, -0.19, 1.01
246, 0.00, 15241.56, 0.00, 0.00, 0.00, 0.00, 0.00, 0.00, 0.01, -0.19, 1.01
247, 0.00, 15272.59, 0.00, 0.00, 0.00, 0.00, 0.00, 0.00, 0.01, -0.19, 1.01
248, 0.00, 15321.76, 0.00, 0.00, 0.00, 0.00, 0.00, 0.00, 0.01, -0.19, 1.01
249, 0.00, 15385.73, 0.00, 0.00, 0.00, 0.00, 0.00, 0.00, 0.01, -0.19, 1.01
250, 0.00, 15466.45, 0.00, 0.00, 0.00, 0.00, 0.00, 0.00, 0.01, -0.19, 1.01
251, 0.00, 15548.68, 0.00, 0.00, 0.00, 0.00, 0.00, 0.00, 0.01, -0.19, 1.01
252, 0.00, 15620.40, 0.00, 0.00, 0.00, 0.00, 0.00, 0.00, 0.01, -0.19, 1.01
253, 0.00, 15715.22, 0.00, 0.00, 0.00, 0.00, 0.00, 0.00, 0.01, -0.19, 1.01
254, 0.00, 15827.81, 0.00, 0.00, 0.00, 0.00, 0.00, 0.00, 0.00, -0.19, 1.01
255, 0.00, 15949.71, 0.00, 0.00, 0.00, 0.00, 0.00, 0.00, 0.00, -0.19, 1.01
0, 0.00, 16047.39, 0.00, 0.00, 0.00, 0.00, 0.00, 0.00, 0.00, -0.19, 1.01
1, 0.00, 16156.51, 0.00, 0.00, 0.00, 0.00, 0.00, 0.00, 0.00, -0.19, 1.01
2, 0.00, 16264.51, 0.00, 0.00, 0.00, 0.00, 0.00, 0.00, 0.00, -0.19, 1.01
3, 0.00, 16376.97, 0.00, 0.00, 0.00, 0.00, 0.00, 0.00, 0.00, -0.19, 1.01
4, 0.00, 16452.16, 0.00, 0.00, 0.00, 0.00, 0.00, 0.00, 0.00, -0.19, 1.01
5, 0.00, 16535.31, 0.00, 0.00, 0.00, 0.00, 0.00, 0.00, 0.00, -0.19, 1.01
6, 0.00, 16627.10, 0.00, 0.00, 0.00, 0.00, 0.00, 0.00, 0.00, -0.19, 1.01
7, 0.00, 16736.94, 0.00, 0.00, 0.00, 0.00, 0.00, 0.00, 0.00, -0.19, 1.01
8, 0.00, 16825.30, 0.00, 0.00, 0.00, 0.00, 0.00, 0.00, 0.00, -0.19, 1.01
9, 0.00, 16907.71, 0.00, 0.00, 0.00, 0.00, 0.00, 0.00, 0.00, -0.19, 1.01
10, 0.00, 16982.59, 0.00, 0.00, 0.00, 0.00, 0.00, 0.00, 0.00, -0.19, 1.01
11, 0.00, 17057.80, 0.00, 0.00, 0.00, 0.00, 0.00, 0.00, 0.00, -0.19, 1.01
12, 0.00, 17100.51, 0.00, 0.00, 0.00, 0.00, 0.00, 0.00, 0.00, -0.19, 1.01
13, 0.00, 17139.32, 0.00, 0.00, 0.00, 0.00, 0.00, 0.00, 0.01, -0.19, 1.01
14, 0.00, 17175.06, 0.00, 0.00, 0.00, 0.00, 0.00, 0.00, 0.01, -0.19, 1.01
15, 0.00, 17215.83, 0.00, 0.00, 0.00, 0.00, 0.00, 0.00, 0.01, -0.19, 1.01
16, 0.00, 17236.97, 0.00, 0.00, 0.00, 0.00, 0.00, 0.00, 0.01, -0.19, 1.01
17, 0.00, 17234.94, 0.00, 0.00, 0.00, 0.00, 0.00, 0.00, 0.01, -0.19, 1.01
18, 0.00, 17235.23, 0.00, 0.00, 0.00, 0.00, 0.00, 0.00, 0.01, -0.18, 1.02
19, 0.00, 17234.02, 0.00, 0.00, 0.00, 0.00, 0.00, 0.00, 0.01, -0.18, 1.02
20, 0.00, 17220.39, 0.00, 0.00, 0.00, 0.00, 0.00, 0.00, 0.01, -0.18, 1.02
21, 0.00, 17193.79, 0.00, 0.00, 0.00, 0.00, 0.00, 0.00, 0.01, -0.18, 1.02
22, 0.00, 17186.43, 0.00, 0.00, 0.00, 0.00, 0.00, 0.00, 0.01, -0.18, 1.02
23, 0.00, 17190.97, 0.00, 0.00, 0.00, 0.00, 0.00, 0.00, 0.00, -0.19, 1.01
24, 0.00, 17194.44, 0.00, 0.00, 0.00, 0.00, 0.00, 0.00, 0.00, -0.19, 1.01
25, 0.00, 17161.33, 0.00, 0.00, 0.00, 0.00, 0.00, 0.00, 0.00, -0.19, 1.01
26, 0.00, 17143.97, 0.00, 0.00, 0.00, 0.00, 0.00, 0.00, 0.00, -0.19, 1.01
27, 0.00, 17132.57, 0.00, 0.00, 0.00, 0.00, 0.00, 0.00, 0.00, -0.19, 1.01
28, 0.00, 17130.29, 0.00, 0.00, 0.00, 0.00, 0.00, 0.00, 0.00, -0.19, 1.01
29, 0.00, 17102.57, 0.00, 0.00, 0.00, 0.00, 0.00, 0.00, 0.00, -0.19, 1.01
30, 0.00, 17089.47, 0.00, 0.00, 0.00, 0.00, 0.00, 0.00, 0.00, -0.19, 1.01
31, 0.00, 17084.02, 0.00, 0.00, 0.00, 0.00, 0.00, 0.00, 0.00, -0.19, 1.01
32, 0.00, 17093.85, 0.00, 0.00, 0.00, 0.00, 0.00, 0.00, 0.00, -0.19, 1.01
33, 0.00, 17062.18, 0.00, 0.00, 0.00, 0.00, 0.00, 0.00, 0.00, -0.19, 1.01
34, 0.00, 17034.06, 0.00, 0.00, 0.00, 0.00, 0.00, 0.00, 0.00, -0.19, 1.01
35, 0.00, 17028.77, 0.00, 0.00, 0.00, 0.00, 0.00, 0.00, 0.00, -0.19, 1.01
36, 0.00, 17036.83, 0.00, 0.00, 0.00, 0.00, 0.00, 0.00, 0.00, -0.19, 1.01
37, 0.00, 17029.08, 0.00, 0.00, 0.00, 0.00, 0.00, 0.00, 0.00, -0.19, 1.01
38, 0.00, 17022.42, 0.00, 0.00, 0.00, 0.00, 0.00, 0.00, 0.00, -0.19, 1.00
39, 0.00, 17038.27, 0.00, 0.00, 0.00, 0.00, 0.00, 0.00, 0.00, -0.19, 1.00
40, 0.00, 17077.54, 0.00, 0.00, 0.00, 0.00, 0.00, 0.00, 0.00, -0.19, 1.00
41, 0.00, 17092.42, 0.00, 0.00, 0.00, 0.00, 0.00, 0.00, 0.00, -0.19, 1.00
42, 0.00, 17083.95, 0.00, 0.00, 0.00, 0.00, 0.00, 0.00, 0.00, -0.19, 1.00
43, 0.00, 17093.81, 0.00, 0.00, 0.00, 0.00, 0.00, 0.00, 0.00, -0.19, 1.00
44, 0.00, 17130.00, 0.00, 0.00, 0.00, 0.00, 0.00, 0.00, 0.00, -0.19, 1.00
45, 0.00, 17163.66, 0.00, 0.00, 0.00, 0.00, 0.00, 0.00, 0.00, -0.19, 1.00
46, 0.00, 17153.02, 0.00, 0.00, 0.00, 0.00, 0.00, 0.00, 0.00, -0.19, 1.00
47, 0.00, 17161.98, 0.00, 0.00, 0.00, 0.00, 0.00, 0.00, 0.00, -0.19, 1.00
48, 0.00, 17204.72, 0.00, 0.00, 0.00, 0.00, 0.00, 0.00, 0.00, -0.19, 1.00
49, 0.00, 17251.41, 0.00, 0.00, 0.00, 0.00, 0.00, 0.00, 0.00, -0.19, 1.00
50, 0.00, 17237.02, 0.00, 0.00, 0.00, 0.00, 0.00, 0.00, 0.00, -0.19, 1.00
51, 0.00, 17240.55, 0.00, 0.00, 0.00, 0.00, 0.00, 0.00, 0.00, -0.19, 1.00
52, 0.00, 17280.33, 0.00, 0.00, 0.00, 0.00, 0.00, 0.00, 0.00, -0.19, 1.00
53, 0.00, 17341.91, 0.00, 0.00, 0.00, 0.00, 0.00, 0.00, 0.00, -0.19, 1.00
54, 0.00, 17345.04, 0.00, 0.00, 0.00, 0.00, 0.00, 0.00, 0.00, -0.19, 1.00
55, 0.00, 17351.90, 0.00, 0.00, 0.00, 0.00, 0.00, 0.00, 0.00, -0.19, 1.00
56, 0.00, 17402.91, 0.00, 0.00, 0.00, 0.00, 0.00, 0.00, 0.00, -0.19, 1.00
57, 0.00, 17484.14, 0.00, 0.00, 0.00, 0.00, 0.00, 0.00, 0.00, -0.19, 1.00
58, 0.00, 17502.04, 0.00, 0.00, 0.00, 0.00, 0.00, 0.00, 0.00, -0.19, 1.01
59, 0.00, 17492.65, 0.00, 0.00, 0.00, 0.00, 0.00, 0.00, 0.00, -0.19, 1.01
60, 0.00, 17522.31, 0.00, 0.00, 0.00, 0.00, 0.00, 0.00, 0.00, -0.19, 1.01
61, 0.00, 17603.09, 0.00, 0.00, 0.00, 0.00, 0.00, 0.00, 0.00, -0.19, 1.01
62, 0.00, 17637.45, 0.00, 0.00, 0.00, 0.00, 0.00, 0.00, 0.00, -0.19, 1.01
63, 0.00, 17628.35, 0.00, 0.00, 0.00, 0.00, 0.00, 0.00, 0.00, -0.19, 1.01
64, 0.00, 17657.79, 0.00, 0.00, 0.00, 0.00, 0.00, 0.00, 0.00, -0.18, 1.02
65, 0.00, 17730.34, 0.00, 0.00, 0.00, 0.00, 0.00, 0.00, 0.00, -0.18, 1.02
66, 0.00, 17771.80, 0.00, 0.00, 0.00, 0.00, 0.00, 0.00, 0.00, -0.18, 1.02
67, 0.00, 17758.82, 0.00, 0.00, 0.00, 0.00, 0.00, 0.00, 0.00, -0.18, 1.02
68, 0.00, 17767.15, 0.00, 0.00, 0.00, 0.00, 0.00, 0.00, 0.00, -0.18, 1.02
69, 0.00, 17831.95, 0.00, 0.00, 0.00, 0.00, 0.00, 0.00, 0.01, -0.19, 1.01
70, 0.00, 17890.36, 0.00, 0.00, 0.00, 0.00, 0.00, 0.00, 0.01, -0.19, 1.01
71, 0.00, 17883.07, 0.00, 0.00, 0.00, 0.00, 0.00, 0.00, 0.01, -0.19, 1.01
72, 0.00, 17890.69, 0.00, 0.00, 0.00, 0.00, 0.00, 0.00, 0.01, -0.19, 1.01
73, 0.00, 17937.70, 0.00, 0.00, 0.00, 0.00, 0.00, 0.00, 0.01, -0.19, 1.01
74, 0.00, 17991.50, 0.00, 0.00, 0.00, 0.00, 0.00, 0.00, 0.01, -0.19, 1.01
75, 0.00, 17970.04, 0.00, 0.00, 0.00, 0.00, 0.00, 0.00, 0.01, -0.19, 1.01
76, 0.00, 17942.71, 0.00, 0.00, 0.00, 0.00, 0.00, 0.00, 0.01, -0.19, 1.01
77, 0.00, 17963.29, 0.00, 0.00, 0.00, 0.00, 0.00, 0.00, 0.01, -0.19, 1.01
78, 0.00, 18004.73, 0.00, 0.00, 0.00, 0.00, 0.00, 0.00, 0.01, -0.19, 1.01
79, 0.00, 17982.07, 0.00, 0.00, 0.00, 0.00, 0.00, 0.00, 0.00, -0.19, 1.02
80, 0.00, 17948.58, 0.00, 0.00, 0.00, 0.00, 0.00, 0.00, 0.00, -0.19, 1.02
81, 0.00, 17943.38, 0.00, 0.00, 0.00, 0.00, 0.00, 0.00, 0.00, -0.19, 1.02
82, 0.00, 17969.19, 0.00, 0.00, 0.00, 0.00, 0.00, 0.00, 0.00, -0.19, 1.02
83, 0.00, 17939.15, 0.00, 0.00, 0.00, 0.00, 0.00, 0.00, 0.00, -0.19, 1.02
84, 0.00, 17888.14, 0.00, 0.00, 0.00, 0.00, 0.00, 0.00, 0.00, -0.19, 1.01
85, 0.00, 17866.53, 0.00, 0.00, 0.00, 0.00, 0.00, 0.00, 0.00, -0.19, 1.01
86, 0.00, 17886.89, 0.00, 0.00, 0.00, 0.00, 0.00, 0.00, 0.00, -0.19, 1.01
87, 0.00, 17874.35, 0.00, 0.00, 0.00, 0.00, 0.00, 0.00, 0.00, -0.19, 1.01
88, 0.00, 17833.81, 0.00, 0.00, 0.00, 0.00, 0.00, 0.00, 0.00, -0.19, 1.01
89, 0.00, 17817.67, 0.00, 0.00, 0.00, 0.00, 0.00, 0.00, 0.00, -0.19, 1.02
90, 0.00, 17839.73, 0.00, 0.00, 0.00, 0.00, 0.00, 0.00, 0.00, -0.19, 1.02
91, 0.00, 17839.17, 0.00, 0.00, 0.00, 0.00, 0.00, 0.00, 0.00, -0.19, 1.02
92, 0.00, 17792.21, 0.00, 0.00, 0.00, 0.00, 0.00, 0.00, 0.00, -0.19, 1.02
93, 0.00, 17766.71, 0.00, 0.00, 0.00, 0.00, 0.00, 0.00, 0.00, -0.19, 1.02
94, 0.00, 17776.36, 0.00, 0.00, 0.00, 0.00, 0.00, 0.00, -0.00, -0.19, 1.01
95, 0.00, 17778.17, 0.00, 0.00, 0.00, 0.00, 0.00, 0.00, -0.00, -0.19, 1.01
96, 0.00, 17726.47, 0.00, 0.00, 0.00, 0.00, 0.00, 0.00, -0.00, -0.19, 1.01
97, 0.00, 17685.13, 0.00, 0.00, 0.00, 0.00, 0.00, 0.00, -0.00, -0.19, 1.01
98, 0.00, 17677.23, 0.00, 0.00, 0.00, 0.00, 0.00, 0.00, -0.00, -0.19, 1.01
99, 0.00, 17681.50, 0.00, 0.00, 0.00, 0.00, 0.00, 0.00, 0.00, -0.19, 1.01
100, 0.00, 17621.80, 0.00, 0.00, 0.00, 0.00, 0.00, 0.00, 0.00, -0.19, 1.01
101, 0.00, 17579.24, 0.00, 0.00, 0.00, 0.00, 0.00, 0.00, 0.00, -0.19, 1.01
102, 0.00, 17572.36, 0.00, 0.00, 0.00, 0.00, 0.00, 0.00, 0.00, -0.19, 1.01
103, 0.00, 17592.72, 0.00, 0.00, 0.00, 0.00, 0.00, 0.00, 0.00, -0.19, 1.01
104, 0.00, 17564.07, 0.00, 0.00, 0.00, 0.00, 0.00, 0.00, 0.01, -0.20, 1.00
105, 0.00, 17524.73, 0.00, 0.00, 0.00, 0.00, 0.00, 0.00, 0.01, -0.20, 1.00
106, 0.00, 17517.60, 0.00, 0.00, 0.00, 0.00, 0.00, 0.00, 0.01, -0.20, 1.00
107, 0.00, 17545.43, 0.00, 0.00, 0.00, 0.00, 0.00, 0.00, 0.01, -0.20, 1.00
108, 0.00, 17522.92, 0.00, 0.00, 0.00, 0.00, 0.00, 0.00, 0.01, -0.20, 1.00
109, 0.00, 17481.90, 0.00, 0.00, 0.00, 0.00, 0.00, 0.00, 0.00, -0.20, 1.00
110, 0.00, 17485.77, 0.00, 0.00, 0.00, 0.00, 0.00, 0.00, 0.00, -0.20, 1.00
111, 0.00, 17529.22, 0.00, 0.00, 0.00, 0.00, 0.00, 0.00, 0.00, -0.20, 1.00
112, 0.00, 17542.52, 0.00, 0.00, 0.00, 0.00, 0.00, 0.00, 0.00, -0.20, 1.00
113, 0.00, 17519.61, 0.00, 0.00, 0.00, 0.00, 0.00, 0.00, 0.00, -0.20, 1.00
114, 0.00, 17528.66, 0.00, 0.00, 0.00, 0.00, 0.00, 0.00, 0.00, -0.19, 1.01
115, 0.00, 17575.91, 0.00, 0.00, 0.00, 0.00, 0.00, 0.00, 0.00, -0.19, 1.01
116, 0.00, 17598.11, 0.00, 0.00, 0.00, 0.00, 0.00, 0.00, 0.00, -0.19, 1.01
117, 0.00, 17580.90, 0.00, 0.00, 0.00, 0.00, 0.00, 0.00, 0.00, -0.19, 1.01
118, 0.00, 17590.15, 0.00, 0.00, 0.00, 0.00, 0.00, 0.00, 0.00, -0.19, 1.01
119, 0.00, 17631.75, 0.00, 0.00, 0.00, 0.00, 0.00, 0.00, 0.00, -0.19, 1.01
120, 0.00, 17667.36, 0.00, 0.00, 0.00, 0.00, 0.00, 0.00, 0.00, -0.19, 1.01
121, 0.00, 17644.15, 0.00, 0.00, 0.00, 0.00, 0.00, 0.00, 0.00, -0.19, 1.01
122, 0.00, 17653.77, 0.00, 0.00, 0.00, 0.00, 0.00, 0.00, 0.00, -0.19, 1.01
123, 0.00, 17686.09, 0.00, 0.00, 0.00, 0.00, 0.00, 0.00, 0.00, -0.19, 1.01
124, 0.00, 17712.93, 0.00, 0.00, 0.00, 0.00, 0.00, 0.00, -0.01, -0.19, 1.01
125, 0.00, 17688.79, 0.00, 0.00, 0.00, 0.00, 0.00, 0.00, -0.01, -0.19, 1.01
126, 0.00, 17678.17, 0.00, 0.00, 0.00, 0.00, 0.00, 0.00, -0.01, -0.19, 1.01
127, 0.00, 17706.02, 0.00, 0.00, 0.00, 0.00, 0.00, 0.00, -0.01, -0.19, 1.01
128, 0.00, 17741.21, 0.00, 0.00, 0.00, 0.00, 0.00, 0.00, -0.01, -0.19, 1.01
129, 0.00, 17714.00, 0.00, 0.00, 0.00, 0.00, 0.00, 0.00, -0.01, -0.19, 1.02
130, 0.00, 17694.20, 0.00, 0.00, 0.00, 0.00, 0.00, 0.00, -0.01, -0.19, 1.02
131, 0.00, 17704.77, 0.00, 0.00, 0.00, 0.00, 0.00, 0.00, -0.01, -0.19, 1.02
132, 0.00, 17722.09, 0.00, 0.00, 0.00, 0.00, 0.00, 0.00, -0.01, -0.19, 1.02
133, 0.00, 17698.96, 0.00, 0.00, 0.00, 0.00, 0.00, 0.00, -0.01, -0.19, 1.02
134, 0.00, 17667.60, 0.00, 0.00, 0.00, 0.00, 0.00, 0.00, 0.00, -0.20, 1.01
135, 0.00, 17669.46, 0.00, 0.00, 0.00, 0.00, 0.00, 0.00, 0.00, -0.20, 1.01
136, 0.00, 17687.63, 0.00, 0.00, 0.00, 0.00, 0.00, 0.00, 0.00, -0.20, 1.01
137, 0.00, 17659.96, 0.00, 0.00, 0.00, 0.00, 0.00, 0.00, 0.00, -0.20, 1.01
138, 0.00, 17611.03, 0.00, 0.00, 0.00, 0.00, 0.00, 0.00, 0.00, -0.20, 1.01
139, 0.00, 17596.77, 0.00, 0.00, 0.00, 0.00, 0.00, 0.00, 0.01, -0.19, 1.01
140, 0.00, 17593.01, 0.00, 0.00, 0.00, 0.00, 0.00, 0.00, 0.01, -0.19, 1.01
141, 0.00, 17559.78, 0.00, 0.00, 0.00, 0.00, 0.00, 0.00, 0.01, -0.19, 1.01
142, 0.00, 17496.54, 0.00, 0.00, 0.00, 0.00, 0.00, 0.00, 0.01, -0.19, 1.01
143, 0.00, 17475.64, 0.00, 0.00, 0.00, 0.00, 0.00, 0.00, 0.01, -0.19, 1.01
144, 0.00, 17476.67, 0.00, 0.00, 0.00, 0.00, 0.00, 0.00, 0.01, -0.19, 1.01
145, 0.00, 17451.41, 0.00, 0.00, 0.00, 0.00, 0.00, 0.00, 0.01, -0.19, 1.01
146, 0.00, 17383.22, 0.00, 0.00, 0.00, 0.00, 0.00, 0.00, 0.01, -0.19, 1.01
147, 0.00, 17349.94, 0.00, 0.00, 0.00, 0.00, 0.00, 0.00, 0.01, -0.19, 1.01
148, 0.00, 17339.39, 0.00, 0.00, 0.00, 0.00, 0.00, 0.00, 0.01, -0.19, 1.01
149, 0.00, 17327.38, 0.00, 0.00, 0.00, 0.00, 0.00, 0.00, 0.00, -0.19, 1.01
150, 0.00, 17267.48, 0.00, 0.00, 0.00, 0.00, 0.00, 0.00, 0.00, -0.19, 1.01
151, 0.00, 17233.93, 0.00, 0.00, 0.00, 0.00, 0.00, 0.00, 0.00, -0.19, 1.01
152, 0.00, 17232.10, 0.00, 0.00, 0.00, 0.00, 0.00, 0.00, 0.00, -0.19, 1.01
153, 0.00, 17229.37, 0.00, 0.00, 0.00, 0.00, 0.00, 0.00, 0.00, -0.19, 1.01
154, 0.00, 17177.63, 0.00, 0.00, 0.00, 0.00, 0.00, 0.00, 0.00, -0.19, 1.02
155, 0.00, 17134.49, 0.00, 0.00, 0.00, 0.00, 0.00, 0.00, 0.00, -0.19, 1.02
156, 0.00, 17117.84, 0.00, 0.00, 0.00, 0.00, 0.00, 0.00, 0.00, -0.19, 1.02
157, 0.00, 17112.43, 0.00, 0.00, 0.00, 0.00, 0.00, 0.00, 0.00, -0.19, 1.02
158, 0.00, 17069.89, 0.00, 0.00, 0.00, 0.00, 0.00, 0.00, 0.00, -0.19, 1.02
159, 0.00, 17028.16, 0.00, 0.00, 0.00, 0.00, 0.00, 0.00, 0.01, -0.19, 1.02
160, 0.00, 17037.57, 0.00, 0.00, 0.00, 0.00, 0.00, 0.00, 0.01, -0.19, 1.02
161, 0.00, 17067.52, 0.00, 0.00, 0.00, 0.00, 0.00, 0.00, 0.01, -0.19, 1.02
162, 0.00, 17065.91, 0.00, 0.00, 0.00, 0.00, 0.00, 0.00, 0.01, -0.19, 1.02
163, 0.00, 17050.27, 0.00, 0.00, 0.00, 0.00, 0.00, 0.00, 0.01, -0.19, 1.02
164, 0.00, 17084.06, 0.00, 0.00, 0.00, 0.00, 0.00, 0.00, 0.00, -0.19, 1.01
165, 0.00, 17156.44, 0.00, 0.00, 0.00, 0.00, 0.00, 0.00, 0.00, -0.19, 1.01
166, 0.00, 17211.58, 0.00, 0.00, 0.00, 0.00, 0.00, 0.00, 0.00, -0.19, 1.01
167, 0.00, 17220.70, 0.00, 0.00, 0.00, 0.00, 0.00, 0.00, 0.00, -0.19, 1.01
168, 0.00, 17257.47, 0.00, 0.00, 0.00, 0.00, 0.00, 0.00, 0.00, -0.19, 1.01
169, 0.00, 17318.60, 0.00, 0.00, 0.00, 0.00, 0.00, 0.00, 0.00, -0.19, 1.02
170, 0.00, 17365.09, 0.00, 0.00, 0.00, 0.00, 0.00, 0.00, 0.00, -0.19, 1.02
171, 0.00, 17341.55, 0.00, 0.00, 0.00, 0.00, 0.00, 0.00, 0.00, -0.19, 1.02
172, 0.00, 17323.72, 0.00, 0.00, 0.00, 0.00, 0.00, 0.00, 0.00, -0.19, 1.02
173, 0.00, 17330.56, 0.00, 0.00, 0.00, 0.00, 0.00, 0.00, 0.00, -0.19, 1.02
174, 0.00, 17325.84, 0.00, 0.00, 0.00, 0.00, 0.00, 0.00, 0.00, -0.19, 1.02
175, 0.00, 17244.13, 0.00, 0.00, 0.00, 0.00, 0.00, 0.00, 0.00, -0.19, 1.02
176, 0.00, 17185.65, 0.00, 0.00, 0.00, 0.00, 0.00, 0.00, 0.00, -0.19, 1.02
177, 0.00, 17184.00, 0.00, 0.00, 0.00, 0.00, 0.00, 0.00, 0.00, -0.19, 1.02
178, 0.00, 17199.76, 0.00, 0.00, 0.00, 0.00, 0.00, 0.00, 0.00, -0.19, 1.02
179, 0.00, 17165.49, 0.00, 0.00, 0.00, 0.00, 0.00, 0.00, -0.00, -0.19, 1.02
180, 0.00, 17145.69, 0.00, 0.00, 0.00, 0.00, 0.00, 0.00, -0.00, -0.19, 1.02
181, 0.00, 17184.60, 0.00, 0.00, 0.00, 0.00, 0.00, 0.00, -0.00, -0.19, 1.02
182, 0.00, 17253.20, 0.00, 0.00, 0.00, 0.00, 0.00, 0.00, -0.00, -0.19, 1.02
183, 0.00, 17278.21, 0.00, 0.00, 0.00, 0.00, 0.00, 0.00, -0.00, -0.19, 1.02
184, 0.00, 17283.55, 0.00, 0.00, 0.00, 0.00, 0.00, 0.00, -0.00, -0.19, 1.02
185, 0.00, 17332.32, 0.00, 0.00, 0.00, 0.00, 0.00, 0.00, -0.00, -0.19, 1.02
186, 0.00, 17404.48, 0.00, 0.00, 0.00, 0.00, 0.00, 0.00, -0.00, -0.19, 1.02
187, 0.00, 17421.04, 0.00, 0.00, 0.00, 0.00, 0.00, 0.00, -0.00, -0.19, 1.02
188, 0.00, 17379.38, 0.00, 0.00, 0.00, 0.00, 0.00, 0.00, -0.00, -0.19, 1.02
189, 0.00, 17379.24, 0.00, 0.00, 0.00, 0.00, 0.00, 0.00, -0.00, -0.19, 1.02
190, 0.00, 17405.37, 0.00, 0.00, 0.00, 0.00, 0.00, 0.00, -0.00, -0.19, 1.02
191, 0.00, 17401.35, 0.00, 0.00, 0.00, 0.00, 0.00, 0.00, -0.00, -0.19, 1.02
192, 0.00, 17346.61, 0.00, 0.00, 0.00, 0.00, 0.00, 0.00, -0.00, -0.19, 1.02
193, 0.00, 17324.93, 0.00, 0.00, 0.00, 0.00, 0.00, 0.00, -0.00, -0.19, 1.02
194, 0.00, 17342.63, 0.00, 0.00, 0.00, 0.00, 0.00, 0.00, 0.00, -0.19, 1.01
195, 0.00, 17352.96, 0.00, 0.00, 0.00, 0.00, 0.00, 0.00, 0.00, -0.19, 1.01
196, 0.00, 17302.51, 0.00, 0.00, 0.00, 0.00, 0.00, 0.00, 0.00, -0.19, 1.01
197, 0.00, 17281.12, 0.00, 0.00, 0.00, 0.00, 0.00, 0.00, 0.00, -0.19, 1.01
198, 0.00, 17293.10, 0.00, 0.00, 0.00, 0.00, 0.00, 0.00, 0.00, -0.19, 1.01
199, 0.00, 17308.68, 0.00, 0.00, 0.00, 0.00, 0.00, 0.00, 0.00, -0.20, 1.01
200, 0.00, 17269.38, 0.00, 0.00, 0.00, 0.00, 0.00, 0.00, 0.00, -0.20, 1.01
201, 0.00, 17243.34, 0.00, 0.00, 0.00, 0.00, 0.00, 0.00, 0.00, -0.20, 1.01
202, 0.00, 17246.22, 0.00, 0.00, 0.00, 0.00, 0.00, 0.00, 0.00, -0.20, 1.01
203, 0.00, 17261.89, 0.00, 0.00, 0.00, 0.00, 0.00, 0.00, 0.00, -0.20, 1.01
204, 0.00, 17219.98, 0.00, 0.00, 0.00, 0.00, 0.00, 0.00, 0.00, -0.19, 1.01
205, 0.00, 17178.86, 0.00, 0.00, 0.00, 0.00, 0.00, 0.00, 0.00, -0.19, 1.01
206, 0.00, 17173.36, 0.00, 0.00, 0.00, 0.00, 0.00, 0.00, 0.00, -0.19, 1.01
207, 0.00, 17183.86, 0.00, 0.00, 0.00, 0.00, 0.00, 0.00, 0.00, -0.19, 1.01
208, 0.00, 17157.42, 0.00, 0.00, 0.00, 0.00, 0.00, 0.00, 0.00, -0.19, 1.01
209, 0.00, 17119.29, 0.00, 0.00, 0.00, 0.00, 0.00, 0.00, -0.00, -0.19, 1.01
210, 0.00, 17121.41, 0.00, 0.00, 0.00, 0.00, 0.00, 0.00, -0.00, -0.19, 1.01
211, 0.00, 17137.84, 0.00, 0.00, 0.00, 0.00, 0.00, 0.00, -0.00, -0.19, 1.01
212, 0.00, 17127.16, 0.00, 0.00, 0.00, 0.00, 0.00, 0.00, -0.00, -0.19, 1.01
213, 0.00, 17101.30, 0.00, 0.00, 0.00, 0.00, 0.00, 0.00, -0.00, -0.19, 1.01
214, 0.00, 17112.14, 0.00, 0.00, 0.00, 0.00, 0.00, 0.00, -0.00, -0.19, 1.01
215, 0.00, 17140.23, 0.00, 0.00, 0.00, 0.00, 0.00, 0.00, -0.00, -0.19, 1.01
216, 0.00, 17156.62, 0.00, 0.00, 0.00, 0.00, 0.00, 0.00, -0.00, -0.19, 1.01
217, 0.00, 17142.47, 0.00, 0.00, 0.00, 0.00, 0.00, 0.00, -0.00, -0.19, 1.01
218, 0.00, 17159.93, 0.00, 0.00, 0.00, 0.00, 0.00, 0.00, -0.00, -0.19, 1.01
219, 0.00, 17201.48, 0.00, 0.00, 0.00, 0.00, 0.00, 0.00, 0.00, -0.19, 1.02
220, 0.00, 17240.64, 0.00, 0.00, 0.00, 0.00, 0.00, 0.00, 0.00, -0.19, 1.02
221, 0.00, 17245.44, 0.00, 0.00, 0.00, 0.00, 0.00, 0.00, 0.00, -0.19, 1.02
222, 0.00, 17276.87, 0.00, 0.00, 0.00, 0.00, 0.00, 0.00, 0.00, -0.19, 1.02
223, 0.00, 17336.19, 0.00, 0.00, 0.00, 0.00, 0.00, 0.00, 0.00, -0.19, 1.02
224, 0.00, 17403.89, 0.00, 0.00, 0.00, 0.00, 0.00, 0.00, 0.00, -0.19, 1.02
225, 0.00, 17431.52, 0.00, 0.00, 0.00, 0.00, 0.00, 0.00, 0.00, -0.19, 1.02
226, 0.00, 17486.15, 0.00, 0.00, 0.00, 0.00, 0.00, 0.00, 0.00, -0.19, 1.02
227, 0.00, 17569.45, 0.00, 0.00, 0.00, 0.00, 0.00, 0.00, 0.00, -0.19, 1.02
228, 0.00, 17659.60, 0.00, 0.00, 0.00, 0.00, 0.00, 0.00, 0.00, -0.19, 1.02
229, 0.00, 17716.01, 0.00, 0.00, 0.00, 0.00, 0.00, 0.00, 0.01, -0.19, 1.02
230, 0.00, 17774.96, 0.00, 0.00, 0.00, 0.00, 0.00, 0.00, 0.01, -0.19, 1.02
231, 0.00, 17858.08, 0.00, 0.00, 0.00, 0.00, 0.00, 0.00, 0.01, -0.19, 1.02
232, 0.00, 17934.59, 0.00, 0.00, 0.00, 0.00, 0.00, 0.00, 0.01, -0.19, 1.02
233, 0.00, 17942.17, 0.00, 0.00, 0.00, 0.00, 0.00, 0.00, 0.01, -0.19, 1.02
234, 0.00, 17892.46, 0.00, 0.00, 0.00, 0.00, 0.00, 0.00, 0.00, -0.20, 1.01
235, 0.00, 17848.52, 0.00, 0.00, 0.00, 0.00, 0.00, 0.00, 0.00, -0.20, 1.01
236, 0.00, 17817.45, 0.00, 0.00, 0.00, 0.00, 0.00, 0.00, 0.00, -0.20, 1.01
237, 0.00, 17775.31, 0.00, 0.00, 0.00, 0.00, 0.00, 0.00, 0.00, -0.20, 1.01
238, 0.00, 17708.59, 0.00, 0.00, 0.00, 0.00, 0.00, 0.00, 0.00, -0.20, 1.01
239, 0.00, 17695.92, 0.00, 0.00, 0.00, 0.00, 0.00, 0.00, 0.01, -0.19, 1.01
240, 0.00, 17737.12, 0.00, 0.00, 0.00, 0.00, 0.00, 0.00, 0.01, -0.19, 1.01
241, 0.00, 17776.01, 0.00, 0.00, 0.00, 0.00, 0.00, 0.00, 0.01, -0.19, 1.01
242, 0.00, 17790.15, 0.00, 0.00, 0.00, 0.00, 0.00, 0.00, 0.01, -0.19, 1.01
243, 0.00, 17838.70, 0.00, 0.00, 0.00, 0.00, 0.00, 0.00, 0.01, -0.19, 1.01
244, 0.00, 17910.47, 0.00, 0.00, 0.00, 0.00, 0.00, 0.00, 0.00, -0.18, 1.01
245, 0.00, 17981.49, 0.00, 0.00, 0.00, 0.00, 0.00, 0.00, 0.00, -0.18, 1.01
246, 0.00, 17991.34, 0.00, 0.00, 0.00, 0.00, 0.00, 0.00, 0.00, -0.18, 1.01
247, 0.00, 18008.67, 0.00, 0.00, 0.00, 0.00, 0.00, 0.00, 0.00, -0.18, 1.01
248, 0.00, 18068.30, 0.00, 0.00, 0.00, 0.00, 0.00, 0.00, 0.00, -0.18, 1.01
249, 0.00, 18135.56, 0.00, 0.00, 0.00, 0.00, 0.00, 0.00, 0.00, -0.18, 1.01
250, 0.00, 18140.81, 0.00, 0.00, 0.00, 0.00, 0.00, 0.00, 0.00, -0.18, 1.00
251, 0.00, 18139.54, 0.00, 0.00, 0.00, 0.00, 0.00, 0.00, 0.00, -0.18, 1.00
252, 0.00, 18173.85, 0.00, 0.00, 0.00, 0.00, 0.00, 0.00, 0.00, -0.18, 1.00
253, 0.00, 18225.34, 0.00, 0.00, 0.00, 0.00, 0.00, 0.00, 0.00, -0.18, 1.00
254, 0.00, 18229.39, 0.00, 0.00, 0.00, 0.00, 0.00, 0.00, 0.00, -0.18, 1.00
255, 0.00, 18211.37, 0.00, 0.00, 0.00, 0.00, 0.00, 0.00, 0.01, -0.18, 1.01
0, 0.00, 18228.07, 0.00, 0.00, 0.00, 0.00, 0.00, 0.00, 0.01, -0.18, 1.01
1, 0.00, 18273.87, 0.00, 0.00, 0.00, 0.00, 0.00, 0.00, 0.01, -0.18, 1.01
2, 0.00, 18288.04, 0.00, 0.00, 0.00, 0.00, 0.00, 0.00, 0.01, -0.18, 1.01
3, 0.00, 18253.69, 0.00, 0.00, 0.00, 0.00, 0.00, 0.00, 0.01, -0.18, 1.01
4, 0.00, 18242.38, 0.00, 0.00, 0.00, 0.00, 0.00, 0.00, 0.01, -0.19, 1.01
5, 0.00, 18269.94, 0.00, 0.00, 0.00, 0.00, 0.00, 0.00, 0.01, -0.19, 1.01
6, 0.00, 18282.03, 0.00, 0.00, 0.00, 0.00, 0.00, 0.00, 0.01, -0.19, 1.01
7, 0.00, 18239.69, 0.00, 0.00, 0.00, 0.00, 0.00, 0.00, 0.01, -0.19, 1.01
8, 0.00, 18226.48, 0.00, 0.00, 0.00, 0.00, 0.00, 0.00, 0.01, -0.19, 1.01
9, 0.00, 18249.46, 0.00, 0.00, 0.00, 0.00, 0.00, 0.00, 0.00, -0.19, 1.02
10, 0.00, 18269.85, 0.00, 0.00, 0.00, 0.00, 0.00, 0.00, 0.00, -0.19, 1.02
11, 0.00, 18222.35, 0.00, 0.00, 0.00, 0.00, 0.00, 0.00, 0.00, -0.19, 1.02
12, 0.00, 18187.99, 0.00, 0.00, 0.00, 0.00, 0.00, 0.00, 0.00, -0.19, 1.02
13, 0.00, 18201.00, 0.00, 0.00, 0.00, 0.00, 0.00, 0.00, 0.00, -0.19, 1.02
14, 0.00, 18223.35, 0.00, 0.00, 0.00, 0.00, 0.00, 0.00, 0.01, -0.19, 1.01
15, 0.00, 18184.69, 0.00, 0.00, 0.00, 0.00, 0.00, 0.00, 0.01, -0.19, 1.01
16, 0.00, 18147.98, 0.00, 0.00, 0.00, 0.00, 0.00, 0.00, 0.01, -0.19, 1.01
17, 0.00, 18151.16, 0.00, 0.00, 0.00, 0.00, 0.00, 0.00, 0.01, -0.19, 1.01
18, 0.00, 18180.55, 0.00, 0.00, 0.00, 0.00, 0.00, 0.00, 0.01, -0.19, 1.01
19, 0.00, 18155.43, 0.00, 0.00, 0.00, 0.00, 0.00, 0.00, 0.01, -0.19, 1.01
20, 0.00, 18104.69, 0.00, 0.00, 0.00, 0.00, 0.00, 0.00, 0.01, -0.19, 1.01
21, 0.00, 18096.20, 0.00, 0.00, 0.00, 0.00, 0.00, 0.00, 0.01, -0.19, 1.01
22, 0.00, 18122.73, 0.00, 0.00, 0.00, 0.00, 0.00, 0.00, 0.01, -0.19, 1.01
23, 0.00, 18106.66, 0.00, 0.00, 0.00, 0.00, 0.00, 0.00, 0.01, -0.19, 1.01
24, 0.00, 18057.28, 0.00, 0.00, 0.00, 0.00, 0.00, 0.00, 0.01, -0.19, 1.01
25, 0.00, 18034.93, 0.00, 0.00, 0.00, 0.00, 0.00, 0.00, 0.01, -0.19, 1.01
26, 0.00, 18042.75, 0.00, 0.00, 0.00, 0.00, 0.00, 0.00, 0.01, -0.19, 1.01
27, 0.00, 18021.59, 0.00, 0.00, 0.00, 0.00, 0.00, 0.00, 0.01, -0.19, 1.01
28, 0.00, 17945.52, 0.00, 0.00, 0.00, 0.00, 0.00, 0.00, 0.01, -0.19, 1.01
29, 0.00, 17905.11, 0.00, 0.00, 0.00, 0.00, 0.00, 0.00, 0.01, -0.19, 1.01
30, 0.00, 17896.75, 0.00, 0.00, 0.00, 0.00, 0.00, 0.00, 0.01, -0.19, 1.01
31, 0.00, 17874.04, 0.00, 0.00, 0.00, 0.00, 0.00, 0.00, 0.01, -0.19, 1.01
32, 0.00, 17803.70, 0.00, 0.00, 0.00, 0.00, 0.00, 0.00, 0.01, -0.19, 1.01
33, 0.00, 17755.96, 0.00, 0.00, 0.00, 0.00, 0.00, 0.00, 0.01, -0.19, 1.01
34, 0.00, 17746.17, 0.00, 0.00, 0.00, 0.00, 0.00, 0.00, 0.01, -0.19, 1.01
35, 0.00, 17740.51, 0.00, 0.00, 0.00, 0.00, 0.00, 0.00, 0.01, -0.19, 1.01
36, 0.00, 17678.29, 0.00, 0.00, 0.00, 0.00, 0.00, 0.00, 0.01, -0.19, 1.01
37, 0.00, 17636.49, 0.00, 0.00, 0.00, 0.00, 0.00, 0.00, 0.01, -0.19, 1.01
38, 0.00, 17627.59, 0.00, 0.00, 0.00, 0.00, 0.00, 0.00, 0.01, -0.19, 1.01
39, 0.00, 17620.82, 0.00, 0.00, 0.00, 0.00, 0.00, 0.00, 0.00, -0.18, 1.01
40, 0.00, 17542.52, 0.00, 0.00, 0.00, 0.00, 0.00, 0.00, 0.00, -0.18, 1.01
41, 0.00, 17454.25, 0.00, 0.00, 0.00, 0.00, 0.00, 0.00, 0.00, -0.18, 1.01
42, 0.00, 17413.19, 0.00, 0.00, 0.00, 0.00, 0.00, 0.00, 0.00, -0.18, 1.01
43, 0.00, 17412.14, 0.00, 0.00, 0.00, 0.00, 0.00, 0.00, 0.00, -0.18, 1.01
44, 0.00, 17369.63, 0.00, 0.00, 0.00, 0.00, 0.00, 0.00, 0.01, -0.19, 1.02
45, 0.00, 17322.74, 0.00, 0.00, 0.00, 0.00, 0.00, 0.00, 0.01, -0.19, 1.02
46, 0.00, 17324.68, 0.00, 0.00, 0.00, 0.00, 0.00, 0.00, 0.01, -0.19, 1.02
47, 0.00, 17366.59, 0.00, 0.00, 0.00, 0.00, 0.00, 0.00, 0.01, -0.19, 1.02
48, 0.00, 17397.79, 0.00, 0.00, 0.00, 0.00, 0.00, 0.00, 0.01, -0.19, 1.02
49, 0.00, 17409.71, 0.00, 0.00, 0.00, 0.00, 0.00, 0.00, 0.01, -0.19, 1.01
50, 0.00, 17472.43, 0.00, 0.00, 0.00, 0.00, 0.00, 0.00, 0.01, -0.19, 1.01
51, 0.00, 17584.59, 0.00, 0.00, 0.00, 0.00, 0.00, 0.00, 0.01, -0.19, 1.01
52, 0.00, 17695.67, 0.00, 0.00, 0.00, 0.00, 0.00, 0.00, 0.01, -0.19, 1.01
53, 0.00, 17784.08, 0.00, 0.00, 0.00, 0.00, 0.00, 0.00, 0.01, -0.19, 1.01
54, 0.00, 17887.23, 0.00, 0.00, 0.00, 0.00, 0.00, 0.00, 0.01, -0.20, 1.01
55, 0.00, 17998.90, 0.00, 0.00, 0.00, 0.00, 0.00, 0.00, 0.01, -0.20, 1.01
56, 0.00, 18099.30, 0.00, 0.00, 0.00, 0.00, 0.00, 0.00, 0.01, -0.20, 1.01
57, 0.00, 18122.55, 0.00, 0.00, 0.00, 0.00, 0.00, 0.00, 0.01, -0.20, 1.01
58, 0.00, 18164.64, 0.00, 0.00, 0.00, 0.00, 0.00, 0.00, 0.01, -0.20, 1.01
59, 0.00, 18261.11, 0.00, 0.00, 0.00, 0.00, 0.00, 0.00, 0.00, -0.20, 1.02
60, 0.00, 18370.63, 0.00, 0.00, 0.00, 0.00, 0.00, 0.00, 0.00, -0.20, 1.02
61, 0.00, 18417.08, 0.00, 0.00, 0.00, 0.00, 0.00, 0.00, 0.00, -0.20, 1.02
62, 0.00, 18473.83, 0.00, 0.00, 0.00, 0.00, 0.00, 0.00, 0.00, -0.20, 1.02
63, 0.00, 18581.09, 0.00, 0.00, 0.00, 0.00, 0.00, 0.00, 0.00, -0.20, 1.02
64, 0.00, 18726.34, 0.00, 0.00, 0.00, 0.00, 0.00, 0.00, 0.00, -0.19, 1.02
65, 0.00, 18819.39, 0.00, 0.00, 0.00, 0.00, 0.00, 0.00, 0.00, -0.19, 1.02
66, 0.00, 18910.87, 0.00, 0.00, 0.00, 0.00, 0.00, 0.00, 0.00, -0.19, 1.02
67, 0.00, 19049.18, 0.00, 0.00, 0.00, 0.00, 0.00, 0.00, 0.00, -0.19, 1.02
68, 0.00, 19220.13, 0.00, 0.00, 0.00, 0.00, 0.00, 0.00, 0.00, -0.19, 1.02
69, 0.00, 19337.14, 0.00, 0.00, 0.00, 0.00, 0.00, 0.00, 0.01, -0.19, 1.02
70, 0.00, 19419.44, 0.00, 0.00, 0.00, 0.00, 0.00, 0.00, 0.01, -0.19, 1.02
71, 0.00, 19505.07, 0.00, 0.00, 0.00, 0.00, 0.00, 0.00, 0.01, -0.19, 1.02
72, 0.00, 19584.02, 0.00, 0.00, 0.00, 0.00, 0.00, 0.00, 0.01, -0.19, 1.02
73, 0.00, 19593.67, 0.00, 0.00, 0.00, 0.00, 0.00, 0.00, 0.01, -0.19, 1.02
74, 0.00, 19545.95, 0.00, 0.00, 0.00, 0.00, 0.00, 0.00, 0.00, -0.19, 1.02
75, 0.00, 19526.68, 0.00, 0.00, 0.00, 0.00, 0.00, 0.00, 0.00, -0.19, 1.02
76, 0.00, 19546.58, 0.00, 0.00, 0.00, 0.00, 0.00, 0.00, 0.00, -0.19, 1.02
77, 0.00, 19545.97, 0.00, 0.00, 0.00, 0.00, 0.00, 0.00, 0.00, -0.19, 1.02
78, 0.00, 19476.26, 0.00, 0.00, 0.00, 0.00, 0.00, 0.00, 0.00, -0.19, 1.02
79, 0.00, 19429.43, 0.00, 0.00, 0.00, 0.00, 0.00, 0.00, 0.01, -0.19, 1.01
80, 0.00, 19433.95, 0.00, 0.00, 0.00, 0.00, 0.00, 0.00, 0.01, -0.19, 1.01
81, 0.00, 19437.30, 0.00, 0.00, 0.00, 0.00, 0.00, 0.00, 0.01, -0.19, 1.01
82, 0.00, 19374.00, 0.00, 0.00, 0.00, 0.00, 0.00, 0.00, 0.01, -0.19, 1.01
83, 0.00, 19332.18, 0.00, 0.00, 0.00, 0.00, 0.00, 0.00, 0.01, -0.19, 1.01
84, 0.00, 19345.52, 0.00, 0.00, 0.00, 0.00, 0.00, 0.00, 0.01, -0.19, 1.01
85, 0.00, 19384.53, 0.00, 0.00, 0.00, 0.00, 0.00, 0.00, 0.01, -0.19, 1.01
86, 0.00, 19362.71, 0.00, 0.00, 0.00, 0.00, 0.00, 0.00, 0.01, -0.19, 1.01
87, 0.00, 19337.88, 0.00, 0.00, 0.00, 0.00, 0.00, 0.00, 0.01, -0.19, 1.01
88, 0.00, 19373.37, 0.00, 0.00, 0.00, 0.00, 0.00, 0.00, 0.01, -0.19, 1.01
89, 0.00, 19436.32, 0.00, 0.00, 0.00, 0.00, 0.00, 0.00, 0.01, -0.19, 1.01
90, 0.00, 19431.00, 0.00, 0.00, 0.00, 0.00, 0.00, 0.00, 0.01, -0.19, 1.01
91, 0.00, 19396.24, 0.00, 0.00, 0.00, 0.00, 0.00, 0.00, 0.01, -0.19, 1.01
92, 0.00, 19404.17, 0.00, 0.00, 0.00, 0.00, 0.00, 0.00, 0.01, -0.19, 1.01
93, 0.00, 19452.07, 0.00, 0.00, 0.00, 0.00, 0.00, 0.00, 0.01, -0.19, 1.01
94, 0.00, 19445.95, 0.00, 0.00, 0.00, 0.00, 0.00, 0.00, 0.01, -0.19, 1.01
95, 0.00, 19402.83, 0.00, 0.00, 0.00, 0.00, 0.00, 0.00, 0.01, -0.19, 1.01
96, 0.00, 19406.23, 0.00, 0.00, 0.00, 0.00, 0.00, 0.00, 0.01, -0.19, 1.01
97, 0.00, 19454.49, 0.00, 0.00, 0.00, 0.00, 0.00, 0.00, 0.01, -0.19, 1.01
98, 0.00, 19465.02, 0.00, 0.00, 0.00, 0.00, 0.00, 0.00, 0.01, -0.19, 1.01
99, 0.00, 19409.14, 0.00, 0.00, 0.00, 0.00, 0.00, 0.00, 0.01, -0.19, 1.02
100, 0.00, 19381.98, 0.00, 0.00, 0.00, 0.00, 0.00, 0.00, 0.01, -0.19, 1.02
101, 0.00, 19412.06, 0.00, 0.00, 0.00, 0.00, 0.00, 0.00, 0.01, -0.19, 1.02
102, 0.00, 19430.59, 0.00, 0.00, 0.00, 0.00, 0.00, 0.00, 0.01, -0.19, 1.02
103, 0.00, 19368.79, 0.00, 0.00, 0.00, 0.00, 0.00, 0.00, 0.01, -0.19, 1.02
104, 0.00, 19335.85, 0.00, 0.00, 0.00, 0.00, 0.00, 0.00, 0.01, -0.19, 1.01
105, 0.00, 19358.67, 0.00, 0.00, 0.00, 0.00, 0.00, 0.00, 0.01, -0.19, 1.01
106, 0.00, 19381.93, 0.00, 0.00, 0.00, 0.00, 0.00, 0.00, 0.01, -0.19, 1.01
107, 0.00, 19323.26, 0.00, 0.00, 0.00, 0.00, 0.00, 0.00, 0.01, -0.19, 1.01
108, 0.00, 19259.38, 0.00, 0.00, 0.00, 0.00, 0.00, 0.00, 0.01, -0.19, 1.01
109, 0.00, 19250.73, 0.00, 0.00, 0.00, 0.00, 0.00, 0.00, 0.01, -0.19, 1.01
110, 0.00, 19268.46, 0.00, 0.00, 0.00, 0.00, 0.00, 0.00, 0.01, -0.19, 1.01
111, 0.00, 19216.91, 0.00, 0.00, 0.00, 0.00, 0.00, 0.00, 0.01, -0.19, 1.01
112, 0.00, 19154.51, 0.00, 0.00, 0.00, 0.00, 0.00, 0.00, 0.01, -0.19, 1.01
113, 0.00, 19141.23, 0.00, 0.00, 0.00, 0.00, 0.00, 0.00, 0.01, -0.19, 1.01
114, 0.00, 19165.19, 0.00, 0.00, 0.00, 0.00, 0.00, 0.00, 0.01, -0.20, 1.02
115, 0.00, 19116.62, 0.00, 0.00, 0.00, 0.00, 0.00, 0.00, 0.01, -0.20, 1.02
116, 0.00, 19029.63, 0.00, 0.00, 0.00, 0.00, 0.00, 0.00, 0.01, -0.20, 1.02
117, 0.00, 18997.66, 0.00, 0.00, 0.00, 0.00, 0.00, 0.00, 0.01, -0.20, 1.02
118, 0.00, 19010.43, 0.00, 0.00, 0.00, 0.00, 0.00, 0.00, 0.01, -0.20, 1.02
119, 0.00, 18976.36, 0.00, 0.00, 0.00, 0.00, 0.00, 0.00, 0.01, -0.19, 1.02
120, 0.00, 18890.89, 0.00, 0.00, 0.00, 0.00, 0.00, 0.00, 0.01, -0.19, 1.02
121, 0.00, 18847.24, 0.00, 0.00, 0.00, 0.00, 0.00, 0.00, 0.01, -0.19, 1.02
122, 0.00, 18857.32, 0.00, 0.00, 0.00, 0.00, 0.00, 0.00, 0.01, -0.19, 1.02
123, 0.00, 18836.78, 0.00, 0.00, 0.00, 0.00, 0.00, 0.00, 0.01, -0.19, 1.02
124, 0.00, 18744.64, 0.00, 0.00, 0.00, 0.00, 0.00, 0.00, 0.01, -0.19, 1.01
125, 0.00, 18692.81, 0.00, 0.00, 0.00, 0.00, 0.00, 0.00, 0.01, -0.19, 1.01
126, 0.00, 18704.30, 0.00, 0.00, 0.00, 0.00, 0.00, 0.00, 0.01, -0.19, 1.01
127, 0.00, 18712.90, 0.00, 0.00, 0.00, 0.00, 0.00, 0.00, 0.01, -0.19, 1.01
128, 0.00, 18638.65, 0.00, 0.00, 0.00, 0.00, 0.00, 0.00, 0.01, -0.19, 1.01
129, 0.00, 18576.62, 0.00, 0.00, 0.00, 0.00, 0.00, 0.00, 0.01, -0.19, 1.01
130, 0.00, 18579.24, 0.00, 0.00, 0.00, 0.00, 0.00, 0.00, 0.01, -0.19, 1.01
131, 0.00, 18599.02, 0.00, 0.00, 0.00, 0.00, 0.00, 0.00, 0.01, -0.19, 1.01
132, 0.00, 18526.76, 0.00, 0.00, 0.00, 0.00, 0.00, 0.00, 0.01, -0.19, 1.01
133, 0.00, 18454.79, 0.00, 0.00, 0.00, 0.00, 0.00, 0.00, 0.01, -0.19, 1.01
134, 0.00, 18451.50, 0.00, 0.00, 0.00, 0.00, 0.00, 0.00, 0.00, -0.19, 1.01
135, 0.00, 18481.00, 0.00, 0.00, 0.00, 0.00, 0.00, 0.00, 0.00, -0.19, 1.01
136, 0.00, 18427.52, 0.00, 0.00, 0.00, 0.00, 0.00, 0.00, 0.00, -0.19, 1.01
137, 0.00, 18349.98, 0.00, 0.00, 0.00, 0.00, 0.00, 0.00, 0.00, -0.19, 1.01
138, 0.00, 18326.66, 0.00, 0.00, 0.00, 0.00, 0.00, 0.00, 0.00, -0.19, 1.01
139, 0.00, 18349.96, 0.00, 0.00, 0.00, 0.00, 0.00, 0.00, 0.00, -0.19, 1.01
140, 0.00, 18302.12, 0.00, 0.00, 0.00, 0.00, 0.00, 0.00, 0.00, -0.19, 1.01
141, 0.00, 18210.26, 0.00, 0.00, 0.00, 0.00, 0.00, 0.00, 0.00, -0.19, 1.01
142, 0.00, 18177.20, 0.00, 0.00, 0.00, 0.00, 0.00, 0.00, 0.00, -0.19, 1.01
143, 0.00, 18203.46, 0.00, 0.00, 0.00, 0.00, 0.00, 0.00, 0.00, -0.19, 1.01
144, 0.00, 18179.10, 0.00, 0.00, 0.00, 0.00, 0.00, 0.00, 0.00, -0.19, 1.01
145, 0.00, 18086.38, 0.00, 0.00, 0.00, 0.00, 0.00, 0.00, 0.00, -0.19, 1.01
146, 0.00, 18035.09, 0.00, 0.00, 0.00, 0.00, 0.00, 0.00, 0.00, -0.19, 1.01
147, 0.00, 18047.04, 0.00, 0.00, 0.00, 0.00, 0.00, 0.00, 0.00, -0.19, 1.01
148, 0.00, 18034.82, 0.00, 0.00, 0.00, 0.00, 0.00, 0.00, 0.00, -0.19, 1.01
149, 0.00, 17944.05, 0.00, 0.00, 0.00, 0.00, 0.00, 0.00, 0.00, -0.19, 1.01
150, 0.00, 17886.31, 0.00, 0.00, 0.00, 0.00, 0.00, 0.00, 0.00, -0.19, 1.01
151, 0.00, 17898.47, 0.00, 0.00, 0.00, 0.00, 0.00, 0.00, 0.00, -0.19, 1.01
152, 0.00, 17912.11, 0.00, 0.00, 0.00, 0.00, 0.00, 0.00, 0.00, -0.19, 1.01
153, 0.00, 17832.00, 0.00, 0.00, 0.00, 0.00, 0.00, 0.00, 0.00, -0.19, 1.01
154, 0.00, 17772.97, 0.00, 0.00, 0.00, 0.00, 0.00, 0.00, 0.00, -0.19, 1.02
155, 0.00, 17779.45, 0.00, 0.00, 0.00, 0.00, 0.00, 0.00, 0.00, -0.19, 1.02
156, 0.00, 17799.59, 0.00, 0.00, 0.00, 0.00, 0.00, 0.00, 0.00, -0.19, 1.02
157, 0.00, 17738.57, 0.00, 0.00, 0.00, 0.00, 0.00, 0.00, 0.00, -0.19, 1.02
158, 0.00, 17672.85, 0.00, 0.00, 0.00, 0.00, 0.00, 0.00, 0.00, -0.19, 1.02
159, 0.00, 17673.05, 0.00, 0.00, 0.00, 0.00, 0.00, 0.00, 0.01, -0.19, 1.02
160, 0.00, 17710.31, 0.00, 0.00, 0.00, 0.00, 0.00, 0.00, 0.01, -0.19, 1.02
161, 0.00, 17666.06, 0.00, 0.00, 0.00, 0.00, 0.00, 0.00, 0.01, -0.19, 1.02
162, 0.00, 17593.75, 0.00, 0.00, 0.00, 0.00, 0.00, 0.00, 0.01, -0.19, 1.02
163, 0.00, 17579.40, 0.00, 0.00, 0.00, 0.00, 0.00, 0.00, 0.01, -0.19, 1.02
164, 0.00, 17612.30, 0.00, 0.00, 0.00, 0.00, 0.00, 0.00, 0.01, -0.18, 1.02
165, 0.00, 17586.87, 0.00, 0.00, 0.00, 0.00, 0.00, 0.00, 0.01, -0.18, 1.02
166, 0.00, 17514.00, 0.00, 0.00, 0.00, 0.00, 0.00, 0.00, 0.01, -0.18, 1.02
167, 0.00, 17497.68, 0.00, 0.00, 0.00, 0.00, 0.00, 0.00, 0.01, -0.18, 1.02
168, 0.00, 17542.19, 0.00, 0.00, 0.00, 0.00, 0.00, 0.00, 0.01, -0.18, 1.02
169, 0.00, 17532.28, 0.00, 0.00, 0.00, 0.00, 0.00, 0.00, 0.01, -0.19, 1.02
170, 0.00, 17457.90, 0.00, 0.00, 0.00, 0.00, 0.00, 0.00, 0.01, -0.19, 1.02
171, 0.00, 17437.15, 0.00, 0.00, 0.00, 0.00, 0.00, 0.00, 0.01, -0.19, 1.02
172, 0.00, 17465.50, 0.00, 0.00, 0.00, 0.00, 0.00, 0.00, 0.01, -0.19, 1.02
173, 0.00, 17473.79, 0.00, 0.00, 0.00, 0.00, 0.00, 0.00, 0.01, -0.19, 1.02
174, 0.00, 17405.84, 0.00, 0.00, 0.00, 0.00, 0.00, 0.00, 0.01, -0.19, 1.02
175, 0.00, 17370.17, 0.00, 0.00, 0.00, 0.00, 0.00, 0.00, 0.01, -0.19, 1.03
176, 0.00, 17397.03, 0.00, 0.00, 0.00, 0.00, 0.00, 0.00, 0.01, -0.19, 1.03
177, 0.00, 17421.11, 0.00, 0.00, 0.00, 0.00, 0.00, 0.00, 0.01, -0.19, 1.03
178, 0.00, 17362.30, 0.00, 0.00, 0.00, 0.00, 0.00, 0.00, 0.01, -0.19, 1.03
179, 0.00, 17315.63, 0.00, 0.00, 0.00, 0.00, 0.00, 0.00, 0.01, -0.19, 1.03
180, 0.00, 17328.88, 0.00, 0.00, 0.00, 0.00, 0.00, 0.00, 0.00, -0.19, 1.01
181, 0.00, 17359.28, 0.00, 0.00, 0.00, 0.00, 0.00, 0.00, 0.00, -0.19, 1.01
182, 0.00, 17316.34, 0.00, 0.00, 0.00, 0.00, 0.00, 0.00, 0.00, -0.19, 1.01
183, 0.00, 17275.08, 0.00, 0.00, 0.00, 0.00, 0.00, 0.00, 0.00, -0.19, 1.01
184, 0.00, 17294.62, 0.00, 0.00, 0.00, 0.00, 0.00, 0.00, 0.00, -0.19, 1.01
185, 0.00, 17338.16, 0.00, 0.00, 0.00, 0.00, 0.00, 0.00, 0.00, -0.19, 1.01
186, 0.00, 17313.37, 0.00, 0.00, 0.00, 0.00, 0.00, 0.00, 0.00, -0.19, 1.01
187, 0.00, 17264.46, 0.00, 0.00, 0.00, 0.00, 0.00, 0.00, 0.00, -0.19, 1.01
188, 0.00, 17264.67, 0.00, 0.00, 0.00, 0.00, 0.00, 0.00, 0.00, -0.19, 1.01
189, 0.00, 17306.31, 0.00, 0.00, 0.00, 0.00, 0.00, 0.00, 0.00, -0.19, 1.01
190, 0.00, 17302.35, 0.00, 0.00, 0.00, 0.00, 0.00, 0.00, 0.00, -0.19, 1.00
191, 0.00, 17260.42, 0.00, 0.00, 0.00, 0.00, 0.00, 0.00, 0.00, -0.19, 1.00
192, 0.00, 17274.30, 0.00, 0.00, 0.00, 0.00, 0.00, 0.00, 0.00, -0.19, 1.00
193, 0.00, 17330.40, 0.00, 0.00, 0.00, 0.00, 0.00, 0.00, 0.00, -0.19, 1.00
194, 0.00, 17346.74, 0.00, 0.00, 0.00, 0.00, 0.00, 0.00, 0.00, -0.19, 1.00
195, 0.00, 17314.91, 0.00, 0.00, 0.00, 0.00, 0.00, 0.00, 0.01, -0.20, 1.01
196, 0.00, 17324.46, 0.00, 0.00, 0.00, 0.00, 0.00, 0.00, 0.01, -0.20, 1.01
197, 0.00, 17381.54, 0.00, 0.00, 0.00, 0.00, 0.00, 0.00, 0.01, -0.20, 1.01
198, 0.00, 17423.10, 0.00, 0.00, 0.00, 0.00, 0.00, 0.00, 0.01, -0.20, 1.01
199, 0.00, 17404.83, 0.00, 0.00, 0.00, 0.00, 0.00, 0.00, 0.01, -0.20, 1.01
200, 0.00, 17424.17, 0.00, 0.00, 0.00, 0.00, 0.00, 0.00, 0.01, -0.19, 1.02
201, 0.00, 17483.40, 0.00, 0.00, 0.00, 0.00, 0.00, 0.00, 0.01, -0.19, 1.02
202, 0.00, 17543.64, 0.00, 0.00, 0.00, 0.00, 0.00, 0.00, 0.01, -0.19, 1.02
203, 0.00, 17533.18, 0.00, 0.00, 0.00, 0.00, 0.00, 0.00, 0.01, -0.19, 1.02
204, 0.00, 17533.63, 0.00, 0.00, 0.00, 0.00, 0.00, 0.00, 0.01, -0.19, 1.02
205, 0.00, 17577.43, 0.00, 0.00, 0.00, 0.00, 0.00, 0.00, 0.00, -0.20, 1.01
206, 0.00, 17636.13, 0.00, 0.00, 0.00, 0.00, 0.00, 0.00, 0.00, -0.20, 1.01
207, 0.00, 17638.32, 0.00, 0.00, 0.00, 0.00, 0.00, 0.00, 0.00, -0.20, 1.01
208, 0.00, 17635.10, 0.00, 0.00, 0.00, 0.00, 0.00, 0.00, 0.00, -0.20, 1.01
209, 0.00, 17669.23, 0.00, 0.00, 0.00, 0.00, 0.00, 0.00, 0.00, -0.20, 1.01
210, 0.00, 17725.29, 0.00, 0.00, 0.00, 0.00, 0.00, 0.00, 0.00, -0.19, 1.01
211, 0.00, 17722.81, 0.00, 0.00, 0.00, 0.00, 0.00, 0.00, 0.00, -0.19, 1.01
212, 0.00, 17700.75, 0.00, 0.00, 0.00, 0.00, 0.00, 0.00, 0.00, -0.19, 1.01
213, 0.00, 17718.58, 0.00, 0.00, 0.00, 0.00, 0.00, 0.00, 0.00, -0.19, 1.01
214, 0.00, 17764.90, 0.00, 0.00, 0.00, 0.00, 0.00, 0.00, 0.00, -0.19, 1.01
215, 0.00, 17769.05, 0.00, 0.00, 0.00, 0.00, 0.00, 0.00, 0.01, -0.20, 1.02
216, 0.00, 17744.22, 0.00, 0.00, 0.00, 0.00, 0.00, 0.00, 0.01, -0.20, 1.02
217, 0.00, 17754.24, 0.00, 0.00, 0.00, 0.00, 0.00, 0.00, 0.01, -0.20, 1.02
218, 0.00, 17796.44, 0.00, 0.00, 0.00, 0.00, 0.00, 0.00, 0.01, -0.20, 1.02
219, 0.00, 17812.42, 0.00, 0.00, 0.00, 0.00, 0.00, 0.00, 0.01, -0.20, 1.02
220, 0.00, 17777.26, 0.00, 0.00, 0.00, 0.00, 0.00, 0.00, 0.01, -0.19, 1.01
221, 0.00, 17784.79, 0.00, 0.00, 0.00, 0.00, 0.00, 0.00, 0.01, -0.19, 1.01
222, 0.00, 17831.13, 0.00, 0.00, 0.00, 0.00, 0.00, 0.00, 0.01, -0.19, 1.01
223, 0.00, 17862.69, 0.00, 0.00, 0.00, 0.00, 0.00, 0.00, 0.01, -0.19, 1.01
224, 0.00, 17848.09, 0.00, 0.00, 0.00, 0.00, 0.00, 0.00, 0.01, -0.19, 1.01
225, 0.00, 17856.38, 0.00, 0.00, 0.00, 0.00, 0.00, 0.00, 0.01, -0.19, 1.02
226, 0.00, 17905.40, 0.00, 0.00, 0.00, 0.00, 0.00, 0.00, 0.01, -0.19, 1.02
227, 0.00, 17956.56, 0.00, 0.00, 0.00, 0.00, 0.00, 0.00, 0.01, -0.19, 1.02
228, 0.00, 17940.13, 0.00, 0.00, 0.00, 0.00, 0.00, 0.00, 0.01, -0.19, 1.02
229, 0.00, 17940.31, 0.00, 0.00, 0.00, 0.00, 0.00, 0.00, 0.01, -0.19, 1.02
230, 0.00, 17982.00, 0.00, 0.00, 0.00, 0.00, 0.00, 0.00, 0.01, -0.19, 1.02
231, 0.00, 18039.27, 0.00, 0.00, 0.00, 0.00, 0.00, 0.00, 0.01, -0.19, 1.02
232, 0.00, 18041.57, 0.00, 0.00, 0.00, 0.00, 0.00, 0.00, 0.01, -0.19, 1.02
233, 0.00, 18038.26, 0.00, 0.00, 0.00, 0.00, 0.00, 0.00, 0.01, -0.19, 1.02
234, 0.00, 18073.98, 0.00, 0.00, 0.00, 0.00, 0.00, 0.00, 0.01, -0.19, 1.02
235, 0.00, 18127.33, 0.00, 0.00, 0.00, 0.00, 0.00, 0.00, 0.00, -0.19, 1.02
236, 0.00, 18128.74, 0.00, 0.00, 0.00, 0.00, 0.00, 0.00, 0.00, -0.19, 1.02
237, 0.00, 18115.62, 0.00, 0.00, 0.00, 0.00, 0.00, 0.00, 0.00, -0.19, 1.02
238, 0.00, 18151.72, 0.00, 0.00, 0.00, 0.00, 0.00, 0.00, 0.00, -0.19, 1.02
239, 0.00, 18208.54, 0.00, 0.00, 0.00, 0.00, 0.00, 0.00, 0.00, -0.19, 1.02
240, 0.00, 18220.74, 0.00, 0.00, 0.00, 0.00, 0.00, 0.00, 0.00, -0.19, 1.02
241, 0.00, 18190.01, 0.00, 0.00, 0.00, 0.00, 0.00, 0.00, 0.00, -0.19, 1.02
242, 0.00, 18206.61, 0.00, 0.00, 0.00, 0.00, 0.00, 0.00, 0.00, -0.19, 1.02
243, 0.00, 18242.67, 0.00, 0.00, 0.00, 0.00, 0.00, 0.00, 0.00, -0.19, 1.02
244, 0.00, 18242.58, 0.00, 0.00, 0.00, 0.00, 0.00, 0.00, 0.00, -0.19, 1.02
245, 0.00, 18197.67, 0.00, 0.00, 0.00, 0.00, 0.00, 0.00, 0.00, -0.19, 1.01
246, 0.00, 18182.85, 0.00, 0.00, 0.00, 0.00, 0.00, 0.00, 0.00, -0.19, 1.01
247, 0.00, 18200.49, 0.00, 0.00, 0.00, 0.00, 0.00, 0.00, 0.00, -0.19, 1.01
248, 0.00, 18208.63, 0.00, 0.00, 0.00, 0.00, 0.00, 0.00, 0.00, -0.19, 1.01
249, 0.00, 18157.13, 0.00, 0.00, 0.00, 0.00, 0.00, 0.00, 0.00, -0.19, 1.01
250, 0.00, 18127.51, 0.00, 0.00, 0.00, 0.00, 0.00, 0.00, -0.00, -0.19, 1.01
251, 0.00, 18132.29, 0.00, 0.00, 0.00, 0.00, 0.00, 0.00, -0.00, -0.19, 1.01
252, 0.00, 18131.38, 0.00, 0.00, 0.00, 0.00, 0.00, 0.00, -0.00, -0.19, 1.01
253, 0.00, 18075.72, 0.00, 0.00, 0.00, 0.00, 0.00, 0.00, -0.00, -0.19, 1.01
254, 0.00, 18039.18, 0.00, 0.00, 0.00, 0.00, 0.00, 0.00, -0.00, -0.19, 1.01
255, 0.00, 18049.73, 0.00, 0.00, 0.00, 0.00, 0.00, 0.00, 0.00, -0.19, 1.02
0, 0.00, 18070.65, 0.00, 0.00, 0.00, 0.00, 0.00, 0.00, 0.00, -0.19, 1.02
1, 0.00, 18031.76, 0.00, 0.00, 0.00, 0.00, 0.00, 0.00, 0.00, -0.19, 1.02
2, 0.00, 17986.49, 0.00, 0.00, 0.00, 0.00, 0.00, 0.00, 0.00, -0.19, 1.02
3, 0.00, 17971.25, 0.00, 0.00, 0.00, 0.00, 0.00, 0.00, 0.00, -0.19, 1.02
4, 0.00, 17964.90, 0.00, 0.00, 0.00, 0.00, 0.00, 0.00, 0.01, -0.19, 1.02
5, 0.00, 17924.82, 0.00, 0.00, 0.00, 0.00, 0.00, 0.00, 0.01, -0.19, 1.02
6, 0.00, 17880.50, 0.00, 0.00, 0.00, 0.00, 0.00, 0.00, 0.01, -0.19, 1.02
7, 0.00, 17887.56, 0.00, 0.00, 0.00, 0.00, 0.00, 0.00, 0.01, -0.19, 1.02
8, 0.00, 17921.43, 0.00, 0.00, 0.00, 0.00, 0.00, 0.00, 0.01, -0.19, 1.02
9, 0.00, 17901.36, 0.00, 0.00, 0.00, 0.00, 0.00, 0.00, 0.01, -0.19, 1.02
10, 0.00, 17837.43, 0.00, 0.00, 0.00, 0.00, 0.00, 0.00, 0.01, -0.19, 1.02
11, 0.00, 17806.36, 0.00, 0.00, 0.00, 0.00, 0.00, 0.00, 0.01, -0.19, 1.02
12, 0.00, 17796.10, 0.00, 0.00, 0.00, 0.00, 0.00, 0.00, 0.01, -0.19, 1.02
13, 0.00, 17766.53, 0.00, 0.00, 0.00, 0.00, 0.00, 0.00, 0.01, -0.19, 1.02
14, 0.00, 17688.05, 0.00, 0.00, 0.00, 0.00, 0.00, 0.00, 0.01, -0.19, 1.03
15, 0.00, 17652.20, 0.00, 0.00, 0.00, 0.00, 0.00, 0.00, 0.01, -0.19, 1.03
16, 0.00, 17649.94, 0.00, 0.00, 0.00, 0.00, 0.00, 0.00, 0.01, -0.19, 1.03
17, 0.00, 17629.18, 0.00, 0.00, 0.00, 0.00, 0.00, 0.00, 0.01, -0.19, 1.03
18, 0.00, 17552.33, 0.00, 0.00, 0.00, 0.00, 0.00, 0.00, 0.01, -0.19, 1.03
19, 0.00, 17496.32, 0.00, 0.00, 0.00, 0.00, 0.00, 0.00, 0.00, -0.19, 1.01
20, 0.00, 17480.09, 0.00, 0.00, 0.00, 0.00, 0.00, 0.00, 0.00, -0.19, 1.01
21, 0.00, 17467.98, 0.00, 0.00, 0.00, 0.00, 0.00, 0.00, 0.00, -0.19, 1.01
22, 0.00, 17394.78, 0.00, 0.00, 0.00, 0.00, 0.00, 0.00, 0.00, -0.19, 1.01
23, 0.00, 17332.95, 0.00, 0.00, 0.00, 0.00, 0.00, 0.00, 0.00, -0.19, 1.01
24, 0.00, 17325.19, 0.00, 0.00, 0.00, 0.00, 0.00, 0.00, 0.00, -0.19, 1.01
25, 0.00, 17327.09, 0.00, 0.00, 0.00, 0.00, 0.00, 0.00, 0.00, -0.19, 1.01
26, 0.00, 17266.41, 0.00, 0.00, 0.00, 0.00, 0.00, 0.00, 0.00, -0.19, 1.01
27, 0.00, 17193.86, 0.00, 0.00, 0.00, 0.00, 0.00, 0.00, 0.00, -0.19, 1.01
28, 0.00, 17177.83, 0.00, 0.00, 0.00, 0.00, 0.00, 0.00, 0.00, -0.19, 1.01
29, 0.00, 17191.80, 0.00, 0.00, 0.00, 0.00, 0.00, 0.00, 0.01, -0.19, 1.01
30, 0.00, 17149.29, 0.00, 0.00, 0.00, 0.00, 0.00, 0.00, 0.01, -0.19, 1.01
31, 0.00, 17076.80, 0.00, 0.00, 0.00, 0.00, 0.00, 0.00, 0.01, -0.19, 1.01
32, 0.00, 17073.83, 0.00, 0.00, 0.00, 0.00, 0.00, 0.00, 0.01, -0.19, 1.01
33, 0.00, 17112.18, 0.00, 0.00, 0.00, 0.00, 0.00, 0.00, 0.01, -0.19, 1.01
34, 0.00, 17107.49, 0.00, 0.00, 0.00, 0.00, 0.00, 0.00, 0.01, -0.20, 1.00
35, 0.00, 17042.18, 0.00, 0.00, 0.00, 0.00, 0.00, 0.00, 0.01, -0.20, 1.00
36, 0.00, 17017.81, 0.00, 0.00, 0.00, 0.00, 0.00, 0.00, 0.01, -0.20, 1.00
37, 0.00, 17067.57, 0.00, 0.00, 0.00, 0.00, 0.00, 0.00, 0.01, -0.20, 1.00
38, 0.00, 17099.51, 0.00, 0.00, 0.00, 0.00, 0.00, 0.00, 0.01, -0.20, 1.00
39, 0.00, 17045.87, 0.00, 0.00, 0.00, 0.00, 0.00, 0.00, 0.00, -0.19, 1.01
40, 0.00, 17025.28, 0.00, 0.00, 0.00, 0.00, 0.00, 0.00, 0.00, -0.19, 1.01
41, 0.00, 17084.98, 0.00, 0.00, 0.00, 0.00, 0.00, 0.00, 0.00, -0.19, 1.01
42, 0.00, 17150.04, 0.00, 0.00, 0.00, 0.00, 0.00, 0.00, 0.00, -0.19, 1.01
43, 0.00, 17115.58, 0.00, 0.00, 0.00, 0.00, 0.00, 0.00, 0.00, -0.19, 1.01
44, 0.00, 17080.78, 0.00, 0.00, 0.00, 0.00, 0.00, 0.00, 0.01, -0.20, 1.01
45, 0.00, 17132.01, 0.00, 0.00, 0.00, 0.00, 0.00, 0.00, 0.01, -0.20, 1.01
46, 0.00, 17205.17, 0.00, 0.00, 0.00, 0.00, 0.00, 0.00, 0.01, -0.20, 1.01
47, 0.00, 17186.14, 0.00, 0.00, 0.00, 0.00, 0.00, 0.00, 0.01, -0.20, 1.01
48, 0.00, 17160.24, 0.00, 0.00, 0.00, 0.00, 0.00, 0.00, 0.01, -0.20, 1.01
49, 0.00, 17207.94, 0.00, 0.00, 0.00, 0.00, 0.00, 0.00, 0.00, -0.20, 1.01
50, 0.00, 17295.58, 0.00, 0.00, 0.00, 0.00, 0.00, 0.00, 0.00, -0.20, 1.01
51, 0.00, 17299.15, 0.00, 0.00, 0.00, 0.00, 0.00, 0.00, 0.00, -0.20, 1.01
52, 0.00, 17262.18, 0.00, 0.00, 0.00, 0.00, 0.00, 0.00, 0.00, -0.20, 1.01
53, 0.00, 17302.91, 0.00, 0.00, 0.00, 0.00, 0.00, 0.00, 0.00, -0.20, 1.01
54, 0.00, 17399.20, 0.00, 0.00, 0.00, 0.00, 0.00, 0.00, 0.00, -0.19, 1.01
55, 0.00, 17431.70, 0.00, 0.00, 0.00, 0.00, 0.00, 0.00, 0.00, -0.19, 1.01
56, 0.00, 17399.78, 0.00, 0.00, 0.00, 0.00, 0.00, 0.00, 0.00, -0.19, 1.01
57, 0.00, 17419.81, 0.00, 0.00, 0.00, 0.00, 0.00, 0.00, 0.00, -0.19, 1.01
58, 0.00, 17500.83, 0.00, 0.00, 0.00, 0.00, 0.00, 0.00, 0.00, -0.19, 1.01
59, 0.00, 17536.51, 0.00, 0.00, 0.00, 0.00, 0.00, 0.00, 0.01, -0.19, 1.01
60, 0.00, 17480.14, 0.00, 0.00, 0.00, 0.00, 0.00, 0.00, 0.01, -0.19, 1.01
61, 0.00, 17461.43, 0.00, 0.00, 0.00, 0.00, 0.00, 0.00, 0.01, -0.19, 1.01
62, 0.00, 17513.40, 0.00, 0.00, 0.00, 0.00, 0.00, 0.00, 0.01, -0.19, 1.01
63, 0.00, 17540.80, 0.00, 0.00, 0.00, 0.00, 0.00, 0.00, 0.01, -0.19, 1.01
64, 0.00, 17468.25, 0.00, 0.00, 0.00, 0.00, 0.00, 0.00, 0.00, -0.19, 1.02
65, 0.00, 17402.87, 0.00, 0.00, 0.00, 0.00, 0.00, 0.00, 0.00, -0.19, 1.02
66, 0.00, 17393.19, 0.00, 0.00, 0.00, 0.00, 0.00, 0.00, 0.00, -0.19, 1.02
67, 0.00, 17369.27, 0.00, 0.00, 0.00, 0.00, 0.00, 0.00, 0.00, -0.19, 1.02
68, 0.00, 17230.38, 0.00, 0.00, 0.00, 0.00, 0.00, 0.00, 0.00, -0.19, 1.02
69, 0.00, 17084.13, 0.00, 0.00, 0.00, 0.00, 0.00, 0.00, 0.00, -0.19, 1.02
