%OpenBCI Raw EEG Data
%
%Sample Rate = 250.0 Hz
%First Column = SampleIndex
%Other Columns = EEG data in microvolts followed by Accel Data (in G) interleaved with Aux Data
0, 0.00, 50130.27, 0.00, 0.00, 0.00, 0.00, 0.00, 0.00, 0.01, 0.03, 1.01
1, 0.00, 50122.45, 0.00, 0.00, 0.00, 0.00, 0.00, 0.00, 0.01, 0.03, 1.01
2, 0.00, 50111.45, 0.00, 0.00, 0.00, 0.00, 0.00, 0.00, -0.00, 0.01, 1.01
3, 0.00, 50119.16, 0.00, 0.00, 0.00, 0.00, 0.00, 0.00, -0.00, 0.01, 1.01
4, 0.00, 50139.68, 0.00, 0.00, 0.00, 0.00, 0.00, 0.00, -0.00, 0.01, 1.01
5, 0.00, 50145.49, 0.00, 0.00, 0.00, 0.00, 0.00, 0.00, -0.00, 0.01, 1.01
6, 0.00, 50123.74, 0.00, 0.00, 0.00, 0.00, 0.00, 0.00, -0.00, 0.01, 1.01
7, 0.00, 50135.59, 0.00, 0.00, 0.00, 0.00, 0.00, 0.00, 0.00, 0.01, 1.01
8, 0.00, 50155.50, 0.00, 0.00, 0.00, 0.00, 0.00, 0.00, 0.00, 0.01, 1.01
9, 0.00, 50159.93, 0.00, 0.00, 0.00, 0.00, 0.00, 0.00, 0.00, 0.01, 1.01
10, 0.00, 50147.55, 0.00, 0.00, 0.00, 0.00, 0.00, 0.00, 0.00, 0.01, 1.01
11, 0.00, 50139.81, 0.00, 0.00, 0.00, 0.00, 0.00, 0.00, 0.00, 0.01, 1.01
12, 0.00, 50168.02, 0.00, 0.00, 0.00, 0.00, 0.00, 0.00, 0.00, 0.01, 1.01
13, 0.00, 50175.73, 0.00, 0.00, 0.00, 0.00, 0.00, 0.00, 0.00, 0.01, 1.01
14, 0.00, 50152.11, 0.00, 0.00, 0.00, 0.00, 0.00, 0.00, 0.00, 0.01, 1.01
15, 0.00, 50147.77, 0.00, 0.00, 0.00, 0.00, 0.00, 0.00, 0.00, 0.01, 1.01
16, 0.00, 50174.90, 0.00, 0.00, 0.00, 0.00, 0.00, 0.00, 0.00, 0.01, 1.01
17, 0.00, 50179.93, 0.00, 0.00, 0.00, 0.00, 0.00, 0.00, 0.01, 0.01, 1.02
18, 0.00, 50179.69, 0.00, 0.00, 0.00, 0.00, 0.00, 0.00, 0.01, 0.01, 1.02
19, 0.00, 50166.99, 0.00, 0.00, 0.00, 0.00, 0.00, 0.00, 0.01, 0.01, 1.02
20, 0.00, 50177.61, 0.00, 0.00, 0.00, 0.00, 0.00, 0.00, 0.01, 0.01, 1.02
21, 0.00, 50205.13, 0.00, 0.00, 0.00, 0.00, 0.00, 0.00, 0.01, 0.01, 1.02
22, 0.00, 50194.82, 0.00, 0.00, 0.00, 0.00, 0.00, 0.00, 0.01, 0.01, 1.02
23, 0.00, 50180.29, 0.00, 0.00, 0.00, 0.00, 0.00, 0.00, 0.01, 0.01, 1.02
24, 0.00, 50191.42, 0.00, 0.00, 0.00, 0.00, 0.00, 0.00, 0.01, 0.01, 1.02
25, 0.00, 50216.23, 0.00, 0.00, 0.00, 0.00, 0.00, 0.00, 0.01, 0.01, 1.02
26, 0.00, 50225.02, 0.00, 0.00, 0.00, 0.00, 0.00, 0.00, 0.01, 0.01, 1.02
27, 0.00, 50212.50, 0.00, 0.00, 0.00, 0.00, 0.00, 0.00, 0.01, 0.01, 1.02
28, 0.00, 50200.52, 0.00, 0.00, 0.00, 0.00, 0.00, 0.00, 0.01, 0.01, 1.02
29, 0.00, 50204.65, 0.00, 0.00, 0.00, 0.00, 0.00, 0.00, 0.01, 0.01, 1.02
30, 0.00, 50214.58, 0.00, 0.00, 0.00, 0.00, 0.00, 0.00, 0.01, 0.01, 1.02
31, 0.00, 50197.68, 0.00, 0.00, 0.00, 0.00, 0.00, 0.00, 0.01, 0.01, 1.02
32, 0.00, 50195.85, 0.00, 0.00, 0.00, 0.00, 0.00, 0.00, 0.01, 0.02, 1.02
33, 0.00, 50219.00, 0.00, 0.00, 0.00, 0.00, 0.00, 0.00, 0.01, 0.02, 1.02
34, 0.00, 50233.38, 0.00, 0.00, 0.00, 0.00, 0.00, 0.00, 0.01, 0.02, 1.02
35, 0.00, 50218.96, 0.00, 0.00, 0.00, 0.00, 0.00, 0.00, 0.01, 0.02, 1.02
36, 0.00, 50206.55, 0.00, 0.00, 0.00, 0.00, 0.00, 0.00, 0.01, 0.02, 1.02
37, 0.00, 50228.35, 0.00, 0.00, 0.00, 0.00, 0.00, 0.00, 0.01, 0.02, 1.02
38, 0.00, 50242.90, 0.00, 0.00, 0.00, 0.00, 0.00, 0.00, 0.01, 0.02, 1.02
39, 0.00, 50239.19, 0.00, 0.00, 0.00, 0.00, 0.00, 0.00, 0.01, 0.02, 1.02
40, 0.00, 50238.83, 0.00, 0.00, 0.00, 0.00, 0.00, 0.00, 0.01, 0.02, 1.02
41, 0.00, 50254.63, 0.00, 0.00, 0.00, 0.00, 0.00, 0.00, 0.01, 0.02, 1.02
42, 0.00, 50275.40, 0.00, 0.00, 0.00, 0.00, 0.00, 0.00, 0.01, 0.02, 1.02
43, 0.00, 50257.05, 0.00, 0.00, 0.00, 0.00, 0.00, 0.00, 0.01, 0.02, 1.02
44, 0.00, 50241.82, 0.00, 0.00, 0.00, 0.00, 0.00, 0.00, 0.01, 0.02, 1.02
45, 0.00, 50255.39, 0.00, 0.00, 0.00, 0.00, 0.00, 0.00, 0.01, 0.02, 1.02
46, 0.00, 50276.54, 0.00, 0.00, 0.00, 0.00, 0.00, 0.00, 0.01, 0.02, 1.02
47, 0.00, 50278.23, 0.00, 0.00, 0.00, 0.00, 0.00, 0.00, 0.01, 0.02, 1.02
48, 0.00, 50257.98, 0.00, 0.00, 0.00, 0.00, 0.00, 0.00, 0.01, 0.02, 1.02
49, 0.00, 50263.21, 0.00, 0.00, 0.00, 0.00, 0.00, 0.00, 0.01, 0.02, 1.02
50, 0.00, 50282.62, 0.00, 0.00, 0.00, 0.00, 0.00, 0.00, 0.01, 0.02, 1.02
51, 0.00, 50284.23, 0.00, 0.00, 0.00, 0.00, 0.00, 0.00, 0.01, 0.02, 1.02
52, 0.00, 50274.05, 0.00, 0.00, 0.00, 0.00, 0.00, 0.00, 0.01, 0.01, 1.02
53, 0.00, 50280.07, 0.00, 0.00, 0.00, 0.00, 0.00, 0.00, 0.01, 0.01, 1.02
54, 0.00, 50292.86, 0.00, 0.00, 0.00, 0.00, 0.00, 0.00, 0.01, 0.01, 1.02
55, 0.00, 50293.19, 0.00, 0.00, 0.00, 0.00, 0.00, 0.00, 0.01, 0.01, 1.02
56, 0.00, 50277.54, 0.00, 0.00, 0.00, 0.00, 0.00, 0.00, 0.01, 0.01, 1.02
57, 0.00, 50287.11, 0.00, 0.00, 0.00, 0.00, 0.00, 0.00, 0.01, 0.01, 1.02
58, 0.00, 50307.23, 0.00, 0.00, 0.00, 0.00, 0.00, 0.00, 0.01, 0.01, 1.02
59, 0.00, 50308.05, 0.00, 0.00, 0.00, 0.00, 0.00, 0.00, 0.01, 0.01, 1.02
60, 0.00, 50296.45, 0.00, 0.00, 0.00, 0.00, 0.00, 0.00, 0.01, 0.01, 1.02
61, 0.00, 50291.38, 0.00, 0.00, 0.00, 0.00, 0.00, 0.00, 0.01, 0.01, 1.02
62, 0.00, 50303.27, 0.00, 0.00, 0.00, 0.00, 0.00, 0.00, 0.01, 0.01, 1.02
63, 0.00, 50320.84, 0.00, 0.00, 0.00, 0.00, 0.00, 0.00, 0.01, 0.01, 1.02
64, 0.00, 50318.13, 0.00, 0.00, 0.00, 0.00, 0.00, 0.00, 0.01, 0.01, 1.02
65, 0.00, 50297.26, 0.00, 0.00, 0.00, 0.00, 0.00, 0.00, 0.01, 0.01, 1.02
66, 0.00, 50319.48, 0.00, 0.00, 0.00, 0.00, 0.00, 0.00, 0.01, 0.01, 1.02
67, 0.00, 50334.74, 0.00, 0.00, 0.00, 0.00, 0.00, 0.00, 0.02, 0.01, 1.01
68, 0.00, 50327.05, 0.00, 0.00, 0.00, 0.00, 0.00, 0.00, 0.02, 0.01, 1.01
69, 0.00, 50308.99, 0.00, 0.00, 0.00, 0.00, 0.00, 0.00, 0.02, 0.01, 1.01
70, 0.00, 50321.00, 0.00, 0.00, 0.00, 0.00, 0.00, 0.00, 0.02, 0.01, 1.01
71, 0.00, 50344.38, 0.00, 0.00, 0.00, 0.00, 0.00, 0.00, 0.02, 0.01, 1.01
72, 0.00, 50347.19, 0.00, 0.00, 0.00, 0.00, 0.00, 0.00, 0.01, 0.01, 1.01
73, 0.00, 50330.61, 0.00, 0.00, 0.00, 0.00, 0.00, 0.00, 0.01, 0.01, 1.01
74, 0.00, 50339.01, 0.00, 0.00, 0.00, 0.00, 0.00, 0.00, 0.01, 0.01, 1.01
75, 0.00, 50347.55, 0.00, 0.00, 0.00, 0.00, 0.00, 0.00, 0.01, 0.01, 1.01
76, 0.00, 50342.74, 0.00, 0.00, 0.00, 0.00, 0.00, 0.00, 0.01, 0.01, 1.01
77, 0.00, 50327.68, 0.00, 0.00, 0.00, 0.00, 0.00, 0.00, 0.01, 0.01, 1.01
78, 0.00, 50344.35, 0.00, 0.00, 0.00, 0.00, 0.00, 0.00, 0.01, 0.01, 1.01
79, 0.00, 50361.34, 0.00, 0.00, 0.00, 0.00, 0.00, 0.00, 0.01, 0.01, 1.01
80, 0.00, 50367.11, 0.00, 0.00, 0.00, 0.00, 0.00, 0.00, 0.01, 0.01, 1.01
81, 0.00, 50353.07, 0.00, 0.00, 0.00, 0.00, 0.00, 0.00, 0.01, 0.01, 1.01
82, 0.00, 50344.93, 0.00, 0.00, 0.00, 0.00, 0.00, 0.00, 0.01, 0.01, 1.01
83, 0.00, 50369.68, 0.00, 0.00, 0.00, 0.00, 0.00, 0.00, 0.01, 0.01, 1.01
84, 0.00, 50377.28, 0.00, 0.00, 0.00, 0.00, 0.00, 0.00, 0.01, 0.01, 1.01
85, 0.00, 50358.75, 0.00, 0.00, 0.00, 0.00, 0.00, 0.00, 0.01, 0.01, 1.01
86, 0.00, 50351.64, 0.00, 0.00, 0.00, 0.00, 0.00, 0.00, 0.01, 0.01, 1.01
87, 0.00, 50380.99, 0.00, 0.00, 0.00, 0.00, 0.00, 0.00, 0.01, 0.01, 1.02
88, 0.00, 50406.60, 0.00, 0.00, 0.00, 0.00, 0.00, 0.00, 0.01, 0.01, 1.02
89, 0.00, 50389.95, 0.00, 0.00, 0.00, 0.00, 0.00, 0.00, 0.01, 0.01, 1.02
90, 0.00, 50377.66, 0.00, 0.00, 0.00, 0.00, 0.00, 0.00, 0.01, 0.01, 1.02
91, 0.00, 50400.45, 0.00, 0.00, 0.00, 0.00, 0.00, 0.00, 0.01, 0.01, 1.02
92, 0.00, 50420.01, 0.00, 0.00, 0.00, 0.00, 0.00, 0.00, 0.01, 0.01, 1.03
93, 0.00, 50403.90, 0.00, 0.00, 0.00, 0.00, 0.00, 0.00, 0.01, 0.01, 1.03
94, 0.00, 50389.61, 0.00, 0.00, 0.00, 0.00, 0.00, 0.00, 0.01, 0.01, 1.03
95, 0.00, 50394.31, 0.00, 0.00, 0.00, 0.00, 0.00, 0.00, 0.01, 0.01, 1.03
96, 0.00, 50411.30, 0.00, 0.00, 0.00, 0.00, 0.00, 0.00, 0.01, 0.01, 1.03
97, 0.00, 50407.92, 0.00, 0.00, 0.00, 0.00, 0.00, 0.00, 0.01, 0.01, 1.02
98, 0.00, 50389.93, 0.00, 0.00, 0.00, 0.00, 0.00, 0.00, 0.01, 0.01, 1.02
99, 0.00, 50403.41, 0.00, 0.00, 0.00, 0.00, 0.00, 0.00, 0.01, 0.01, 1.02
100, 0.00, 50428.82, 0.00, 0.00, 0.00, 0.00, 0.00, 0.00, 0.01, 0.01, 1.02
101, 0.00, 50432.30, 0.00, 0.00, 0.00, 0.00, 0.00, 0.00, 0.01, 0.01, 1.02
102, 0.00, 50410.09, 0.00, 0.00, 0.00, 0.00, 0.00, 0.00, 0.01, 0.01, 1.02
103, 0.00, 50412.88, 0.00, 0.00, 0.00, 0.00, 0.00, 0.00, 0.01, 0.01, 1.02
104, 0.00, 50438.32, 0.00, 0.00, 0.00, 0.00, 0.00, 0.00, 0.01, 0.01, 1.02
105, 0.00, 50447.95, 0.00, 0.00, 0.00, 0.00, 0.00, 0.00, 0.01, 0.01, 1.02
106, 0.00, 50422.38, 0.00, 0.00, 0.00, 0.00, 0.00, 0.00, 0.01, 0.01, 1.02
107, 0.00, 50424.17, 0.00, 0.00, 0.00, 0.00, 0.00, 0.00, 0.00, 0.01, 1.03
108, 0.00, 50448.73, 0.00, 0.00, 0.00, 0.00, 0.00, 0.00, 0.00, 0.01, 1.03
109, 0.00, 50453.72, 0.00, 0.00, 0.00, 0.00, 0.00, 0.00, 0.00, 0.01, 1.03
110, 0.00, 50438.18, 0.00, 0.00, 0.00, 0.00, 0.00, 0.00, 0.00, 0.01, 1.03
111, 0.00, 50434.72, 0.00, 0.00, 0.00, 0.00, 0.00, 0.00, 0.00, 0.01, 1.03
112, 0.00, 50441.20, 0.00, 0.00, 0.00, 0.00, 0.00, 0.00, 0.01, 0.01, 1.02
113, 0.00, 50459.64, 0.00, 0.00, 0.00, 0.00, 0.00, 0.00, 0.01, 0.01, 1.02
114, 0.00, 50450.25, 0.00, 0.00, 0.00, 0.00, 0.00, 0.00, 0.01, 0.01, 1.02
115, 0.00, 50439.62, 0.00, 0.00, 0.00, 0.00, 0.00, 0.00, 0.01, 0.01, 1.02
116, 0.00, 50458.19, 0.00, 0.00, 0.00, 0.00, 0.00, 0.00, 0.01, 0.01, 1.02
117, 0.00, 50475.89, 0.00, 0.00, 0.00, 0.00, 0.00, 0.00, 0.01, 0.01, 1.02
118, 0.00, 50468.56, 0.00, 0.00, 0.00, 0.00, 0.00, 0.00, 0.01, 0.01, 1.02
119, 0.00, 50455.29, 0.00, 0.00, 0.00, 0.00, 0.00, 0.00, 0.01, 0.01, 1.02
120, 0.00, 50469.84, 0.00, 0.00, 0.00, 0.00, 0.00, 0.00, 0.01, 0.01, 1.02
121, 0.00, 50481.03, 0.00, 0.00, 0.00, 0.00, 0.00, 0.00, 0.01, 0.01, 1.02
122, 0.00, 50473.99, 0.00, 0.00, 0.00, 0.00, 0.00, 0.00, 0.01, 0.00, 1.02
123, 0.00, 50455.39, 0.00, 0.00, 0.00, 0.00, 0.00, 0.00, 0.01, 0.00, 1.02
124, 0.00, 50458.77, 0.00, 0.00, 0.00, 0.00, 0.00, 0.00, 0.01, 0.00, 1.02
125, 0.00, 50489.97, 0.00, 0.00, 0.00, 0.00, 0.00, 0.00, 0.01, 0.00, 1.02
126, 0.00, 50493.28, 0.00, 0.00, 0.00, 0.00, 0.00, 0.00, 0.01, 0.00, 1.02
127, 0.00, 50474.13, 0.00, 0.00, 0.00, 0.00, 0.00, 0.00, 0.01, 0.00, 1.01
128, 0.00, 50476.36, 0.00, 0.00, 0.00, 0.00, 0.00, 0.00, 0.01, 0.00, 1.01
129, 0.00, 50496.95, 0.00, 0.00, 0.00, 0.00, 0.00, 0.00, 0.01, 0.00, 1.01
130, 0.00, 50498.98, 0.00, 0.00, 0.00, 0.00, 0.00, 0.00, 0.01, 0.00, 1.01
131, 0.00, 50481.77, 0.00, 0.00, 0.00, 0.00, 0.00, 0.00, 0.01, 0.00, 1.01
132, 0.00, 50473.84, 0.00, 0.00, 0.00, 0.00, 0.00, 0.00, 0.01, 0.01, 1.02
133, 0.00, 50495.20, 0.00, 0.00, 0.00, 0.00, 0.00, 0.00, 0.01, 0.01, 1.02
134, 0.00, 50506.45, 0.00, 0.00, 0.00, 0.00, 0.00, 0.00, 0.01, 0.01, 1.02
135, 0.00, 50493.17, 0.00, 0.00, 0.00, 0.00, 0.00, 0.00, 0.01, 0.01, 1.02
136, 0.00, 50484.27, 0.00, 0.00, 0.00, 0.00, 0.00, 0.00, 0.01, 0.01, 1.02
137, 0.00, 50496.68, 0.00, 0.00, 0.00, 0.00, 0.00, 0.00, 0.01, 0.01, 1.02
138, 0.00, 50513.62, 0.00, 0.00, 0.00, 0.00, 0.00, 0.00, 0.01, 0.01, 1.02
139, 0.00, 50499.96, 0.00, 0.00, 0.00, 0.00, 0.00, 0.00, 0.01, 0.01, 1.02
140, 0.00, 50486.11, 0.00, 0.00, 0.00, 0.00, 0.00, 0.00, 0.01, 0.01, 1.02
141, 0.00, 50501.35, 0.00, 0.00, 0.00, 0.00, 0.00, 0.00, 0.01, 0.01, 1.02
142, 0.00, 50523.86, 0.00, 0.00, 0.00, 0.00, 0.00, 0.00, 0.01, 0.01, 1.02
143, 0.00, 50512.10, 0.00, 0.00, 0.00, 0.00, 0.00, 0.00, 0.01, 0.01, 1.02
144, 0.00, 50496.43, 0.00, 0.00, 0.00, 0.00, 0.00, 0.00, 0.01, 0.01, 1.02
145, 0.00, 50515.05, 0.00, 0.00, 0.00, 0.00, 0.00, 0.00, 0.01, 0.01, 1.02
146, 0.00, 50613.02, 0.00, 0.00, 0.00, 0.00, 0.00, 0.00, 0.01, 0.01, 1.02
147, 0.00, 50795.05, 0.00, 0.00, 0.00, 0.00, 0.00, 0.00, 0.01, 0.01, 1.02
148, 0.00, 50936.56, 0.00, 0.00, 0.00, 0.00, 0.00, 0.00, 0.01, 0.01, 1.02
149, 0.00, 51045.82, 0.00, 0.00, 0.00, 0.00, 0.00, 0.00, 0.01, 0.01, 1.02
150, 0.00, 51150.02, 0.00, 0.00, 0.00, 0.00, 0.00, 0.00, 0.01, 0.01, 1.02
151, 0.00, 51188.91, 0.00, 0.00, 0.00, 0.00, 0.00, 0.00, 0.01, 0.01, 1.02
152, 0.00, 51194.52, 0.00, 0.00, 0.00, 0.00, 0.00, 0.00, 0.00, 0.01, 1.02
153, 0.00, 51228.77, 0.00, 0.00, 0.00, 0.00, 0.00, 0.00, 0.00, 0.01, 1.02
154, 0.00, 51272.04, 0.00, 0.00, 0.00, 0.00, 0.00, 0.00, 0.00, 0.01, 1.02
155, 0.00, 51301.97, 0.00, 0.00, 0.00, 0.00, 0.00, 0.00, 0.00, 0.01, 1.02
156, 0.00, 51309.81, 0.00, 0.00, 0.00, 0.00, 0.00, 0.00, 0.00, 0.01, 1.02
157, 0.00, 51326.04, 0.00, 0.00, 0.00, 0.00, 0.00, 0.00, 0.01, 0.02, 1.02
158, 0.00, 51364.39, 0.00, 0.00, 0.00, 0.00, 0.00, 0.00, 0.01, 0.02, 1.02
159, 0.00, 51389.45, 0.00, 0.00, 0.00, 0.00, 0.00, 0.00, 0.01, 0.02, 1.02
160, 0.00, 51392.58, 0.00, 0.00, 0.00, 0.00, 0.00, 0.00, 0.01, 0.02, 1.02
161, 0.00, 51387.13, 0.00, 0.00, 0.00, 0.00, 0.00, 0.00, 0.01, 0.02, 1.02
162, 0.00, 51411.45, 0.00, 0.00, 0.00, 0.00, 0.00, 0.00, 0.01, 0.01, 1.02
163, 0.00, 51448.28, 0.00, 0.00, 0.00, 0.00, 0.00, 0.00, 0.01, 0.01, 1.02
164, 0.00, 51461.54, 0.00, 0.00, 0.00, 0.00, 0.00, 0.00, 0.01, 0.01, 1.02
165, 0.00, 51463.84, 0.00, 0.00, 0.00, 0.00, 0.00, 0.00, 0.01, 0.01, 1.02
166, 0.00, 51485.14, 0.00, 0.00, 0.00, 0.00, 0.00, 0.00, 0.01, 0.01, 1.02
167, 0.00, 51524.77, 0.00, 0.00, 0.00, 0.00, 0.00, 0.00, 0.01, 0.01, 1.01
168, 0.00, 51525.48, 0.00, 0.00, 0.00, 0.00, 0.00, 0.00, 0.01, 0.01, 1.01
169, 0.00, 51523.54, 0.00, 0.00, 0.00, 0.00, 0.00, 0.00, 0.01, 0.01, 1.01
170, 0.00, 51550.43, 0.00, 0.00, 0.00, 0.00, 0.00, 0.00, 0.01, 0.01, 1.01
171, 0.00, 51574.30, 0.00, 0.00, 0.00, 0.00, 0.00, 0.00, 0.01, 0.01, 1.01
172, 0.00, 51580.18, 0.00, 0.00, 0.00, 0.00, 0.00, 0.00, 0.00, 0.01, 1.02
173, 0.00, 51571.86, 0.00, 0.00, 0.00, 0.00, 0.00, 0.00, 0.00, 0.01, 1.02
174, 0.00, 51567.75, 0.00, 0.00, 0.00, 0.00, 0.00, 0.00, 0.00, 0.01, 1.02
175, 0.00, 51580.11, 0.00, 0.00, 0.00, 0.00, 0.00, 0.00, 0.00, 0.01, 1.02
176, 0.00, 51569.96, 0.00, 0.00, 0.00, 0.00, 0.00, 0.00, 0.00, 0.01, 1.02
177, 0.00, 51522.54, 0.00, 0.00, 0.00, 0.00, 0.00, 0.00, 0.01, 0.02, 1.01
178, 0.00, 51477.56, 0.00, 0.00, 0.00, 0.00, 0.00, 0.00, 0.01, 0.02, 1.01
179, 0.00, 51450.76, 0.00, 0.00, 0.00, 0.00, 0.00, 0.00, 0.01, 0.02, 1.01
180, 0.00, 51397.03, 0.00, 0.00, 0.00, 0.00, 0.00, 0.00, 0.01, 0.02, 1.01
181, 0.00, 51317.84, 0.00, 0.00, 0.00, 0.00, 0.00, 0.00, 0.01, 0.02, 1.01
182, 0.00, 51249.66, 0.00, 0.00, 0.00, 0.00, 0.00, 0.00, 0.02, 0.01, 1.01
183, 0.00, 51202.79, 0.00, 0.00, 0.00, 0.00, 0.00, 0.00, 0.02, 0.01, 1.01
184, 0.00, 51153.57, 0.00, 0.00, 0.00, 0.00, 0.00, 0.00, 0.02, 0.01, 1.01
185, 0.00, 51066.47, 0.00, 0.00, 0.00, 0.00, 0.00, 0.00, 0.02, 0.01, 1.01
186, 0.00, 50921.79, 0.00, 0.00, 0.00, 0.00, 0.00, 0.00, 0.02, 0.01, 1.01
187, 0.00, 50784.41, 0.00, 0.00, 0.00, 0.00, 0.00, 0.00, 0.01, 0.01, 1.01
188, 0.00, 50713.98, 0.00, 0.00, 0.00, 0.00, 0.00, 0.00, 0.01, 0.01, 1.01
189, 0.00, 50662.29, 0.00, 0.00, 0.00, 0.00, 0.00, 0.00, 0.01, 0.01, 1.01
190, 0.00, 50626.10, 0.00, 0.00, 0.00, 0.00, 0.00, 0.00, 0.01, 0.01, 1.01
191, 0.00, 50622.43, 0.00, 0.00, 0.00, 0.00, 0.00, 0.00, 0.01, 0.01, 1.01
192, 0.00, 50629.58, 0.00, 0.00, 0.00, 0.00, 0.00, 0.00, 0.01, 0.02, 1.02
193, 0.00, 50627.91, 0.00, 0.00, 0.00, 0.00, 0.00, 0.00, 0.01, 0.02, 1.02
194, 0.00, 50600.01, 0.00, 0.00, 0.00, 0.00, 0.00, 0.00, 0.01, 0.02, 1.02
195, 0.00, 50595.92, 0.00, 0.00, 0.00, 0.00, 0.00, 0.00, 0.01, 0.02, 1.02
196, 0.00, 50610.34, 0.00, 0.00, 0.00, 0.00, 0.00, 0.00, 0.01, 0.02, 1.02
197, 0.00, 50602.14, 0.00, 0.00, 0.00, 0.00, 0.00, 0.00, 0.01, 0.01, 1.02
198, 0.00, 50584.43, 0.00, 0.00, 0.00, 0.00, 0.00, 0.00, 0.01, 0.01, 1.02
199, 0.00, 50589.73, 0.00, 0.00, 0.00, 0.00, 0.00, 0.00, 0.01, 0.01, 1.02
200, 0.00, 50624.91, 0.00, 0.00, 0.00, 0.00, 0.00, 0.00, 0.01, 0.01, 1.02
201, 0.00, 50626.39, 0.00, 0.00, 0.00, 0.00, 0.00, 0.00, 0.01, 0.01, 1.02
202, 0.00, 50606.74, 0.00, 0.00, 0.00, 0.00, 0.00, 0.00, 0.01, 0.01, 1.02
203, 0.00, 50602.47, 0.00, 0.00, 0.00, 0.00, 0.00, 0.00, 0.01, 0.01, 1.02
204, 0.00, 50635.98, 0.00, 0.00, 0.00, 0.00, 0.00, 0.00, 0.01, 0.01, 1.02
205, 0.00, 50641.92, 0.00, 0.00, 0.00, 0.00, 0.00, 0.00, 0.01, 0.01, 1.02
206, 0.00, 50620.82, 0.00, 0.00, 0.00, 0.00, 0.00, 0.00, 0.01, 0.01, 1.02
207, 0.00, 50620.48, 0.00, 0.00, 0.00, 0.00, 0.00, 0.00, 0.01, 0.01, 1.02
208, 0.00, 50638.28, 0.00, 0.00, 0.00, 0.00, 0.00, 0.00, 0.01, 0.01, 1.02
209, 0.00, 50651.11, 0.00, 0.00, 0.00, 0.00, 0.00, 0.00, 0.01, 0.01, 1.02
210, 0.00, 50637.05, 0.00, 0.00, 0.00, 0.00, 0.00, 0.00, 0.01, 0.01, 1.02
211, 0.00, 50624.15, 0.00, 0.00, 0.00, 0.00, 0.00, 0.00, 0.01, 0.01, 1.02
212, 0.00, 50633.83, 0.00, 0.00, 0.00, 0.00, 0.00, 0.00, 0.01, 0.01, 1.02
213, 0.00, 50652.34, 0.00, 0.00, 0.00, 0.00, 0.00, 0.00, 0.01, 0.01, 1.02
214, 0.00, 50638.86, 0.00, 0.00, 0.00, 0.00, 0.00, 0.00, 0.01, 0.01, 1.02
215, 0.00, 50625.94, 0.00, 0.00, 0.00, 0.00, 0.00, 0.00, 0.01, 0.01, 1.02
216, 0.00, 50644.34, 0.00, 0.00, 0.00, 0.00, 0.00, 0.00, 0.01, 0.01, 1.02
217, 0.00, 50670.02, 0.00, 0.00, 0.00, 0.00, 0.00, 0.00, 0.01, 0.01, 1.02
218, 0.00, 50659.24, 0.00, 0.00, 0.00, 0.00, 0.00, 0.00, 0.02, 0.01, 1.02
219, 0.00, 50647.78, 0.00, 0.00, 0.00, 0.00, 0.00, 0.00, 0.02, 0.01, 1.02
220, 0.00, 50660.72, 0.00, 0.00, 0.00, 0.00, 0.00, 0.00, 0.02, 0.01, 1.02
221, 0.00, 50685.93, 0.00, 0.00, 0.00, 0.00, 0.00, 0.00, 0.02, 0.01, 1.02
222, 0.00, 50703.03, 0.00, 0.00, 0.00, 0.00, 0.00, 0.00, 0.02, 0.01, 1.02
223, 0.00, 50677.41, 0.00, 0.00, 0.00, 0.00, 0.00, 0.00, 0.01, 0.01, 1.02
224, 0.00, 50658.33, 0.00, 0.00, 0.00, 0.00, 0.00, 0.00, 0.01, 0.01, 1.02
225, 0.00, 50682.64, 0.00, 0.00, 0.00, 0.00, 0.00, 0.00, 0.01, 0.01, 1.02
226, 0.00, 50696.28, 0.00, 0.00, 0.00, 0.00, 0.00, 0.00, 0.01, 0.01, 1.02
227, 0.00, 50693.29, 0.00, 0.00, 0.00, 0.00, 0.00, 0.00, 0.01, 0.01, 1.02
228, 0.00, 50683.18, 0.00, 0.00, 0.00, 0.00, 0.00, 0.00, 0.00, 0.01, 1.01
229, 0.00, 50705.36, 0.00, 0.00, 0.00, 0.00, 0.00, 0.00, 0.00, 0.01, 1.01
230, 0.00, 50724.78, 0.00, 0.00, 0.00, 0.00, 0.00, 0.00, 0.00, 0.01, 1.01
231, 0.00, 50709.16, 0.00, 0.00, 0.00, 0.00, 0.00, 0.00, 0.00, 0.01, 1.01
232, 0.00, 50699.03, 0.00, 0.00, 0.00, 0.00, 0.00, 0.00, 0.00, 0.01, 1.01
233, 0.00, 50711.84, 0.00, 0.00, 0.00, 0.00, 0.00, 0.00, 0.01, 0.01, 1.01
234, 0.00, 50725.79, 0.00, 0.00, 0.00, 0.00, 0.00, 0.00, 0.01, 0.01, 1.01
235, 0.00, 50722.05, 0.00, 0.00, 0.00, 0.00, 0.00, 0.00, 0.01, 0.01, 1.01
236, 0.00, 50703.63, 0.00, 0.00, 0.00, 0.00, 0.00, 0.00, 0.01, 0.01, 1.01
237, 0.00, 50716.13, 0.00, 0.00, 0.00, 0.00, 0.00, 0.00, 0.01, 0.01, 1.01
238, 0.00, 50729.81, 0.00, 0.00, 0.00, 0.00, 0.00, 0.00, 0.00, 0.01, 1.02
239, 0.00, 50723.21, 0.00, 0.00, 0.00, 0.00, 0.00, 0.00, 0.00, 0.01, 1.02
240, 0.00, 50706.52, 0.00, 0.00, 0.00, 0.00, 0.00, 0.00, 0.00, 0.01, 1.02
241, 0.00, 50715.23, 0.00, 0.00, 0.00, 0.00, 0.00, 0.00, 0.00, 0.01, 1.02
242, 0.00, 50739.66, 0.00, 0.00, 0.00, 0.00, 0.00, 0.00, 0.00, 0.01, 1.02
243, 0.00, 50736.54, 0.00, 0.00, 0.00, 0.00, 0.00, 0.00, 0.01, 0.01, 1.02
244, 0.00, 50709.51, 0.00, 0.00, 0.00, 0.00, 0.00, 0.00, 0.01, 0.01, 1.02
245, 0.00, 50719.37, 0.00, 0.00, 0.00, 0.00, 0.00, 0.00, 0.01, 0.01, 1.02
246, 0.00, 50750.89, 0.00, 0.00, 0.00, 0.00, 0.00, 0.00, 0.01, 0.01, 1.02
247, 0.00, 50750.19, 0.00, 0.00, 0.00, 0.00, 0.00, 0.00, 0.01, 0.01, 1.02
248, 0.00, 50730.48, 0.00, 0.00, 0.00, 0.00, 0.00, 0.00, 0.01, 0.01, 1.01
249, 0.00, 50732.89, 0.00, 0.00, 0.00, 0.00, 0.00, 0.00, 0.01, 0.01, 1.01
250, 0.00, 50757.77, 0.00, 0.00, 0.00, 0.00, 0.00, 0.00, 0.01, 0.01, 1.01
251, 0.00, 50765.59, 0.00, 0.00, 0.00, 0.00, 0.00, 0.00, 0.01, 0.01, 1.01
252, 0.00, 50746.48, 0.00, 0.00, 0.00, 0.00, 0.00, 0.00, 0.01, 0.01, 1.01
253, 0.00, 50730.93, 0.00, 0.00, 0.00, 0.00, 0.00, 0.00, 0.01, 0.00, 1.02
254, 0.00, 50762.55, 0.00, 0.00, 0.00, 0.00, 0.00, 0.00, 0.01, 0.00, 1.02
255, 0.00, 50772.66, 0.00, 0.00, 0.00, 0.00, 0.00, 0.00, 0.01, 0.00, 1.02
0, 0.00, 50747.60, 0.00, 0.00, 0.00, 0.00, 0.00, 0.00, 0.01, 0.00, 1.02
1, 0.00, 50742.77, 0.00, 0.00, 0.00, 0.00, 0.00, 0.00, 0.01, 0.00, 1.02
2, 0.00, 50765.01, 0.00, 0.00, 0.00, 0.00, 0.00, 0.00, 0.01, 0.01, 1.02
3, 0.00, 50774.13, 0.00, 0.00, 0.00, 0.00, 0.00, 0.00, 0.01, 0.01, 1.02
4, 0.00, 50753.12, 0.00, 0.00, 0.00, 0.00, 0.00, 0.00, 0.01, 0.01, 1.02
5, 0.00, 50742.53, 0.00, 0.00, 0.00, 0.00, 0.00, 0.00, 0.01, 0.01, 1.02
6, 0.00, 50759.74, 0.00, 0.00, 0.00, 0.00, 0.00, 0.00, 0.01, 0.01, 1.02
7, 0.00, 50771.34, 0.00, 0.00, 0.00, 0.00, 0.00, 0.00, 0.01, 0.01, 1.02
8, 0.00, 50755.76, 0.00, 0.00, 0.00, 0.00, 0.00, 0.00, 0.01, 0.01, 1.02
9, 0.00, 50739.98, 0.00, 0.00, 0.00, 0.00, 0.00, 0.00, 0.01, 0.01, 1.02
10, 0.00, 50753.12, 0.00, 0.00, 0.00, 0.00, 0.00, 0.00, 0.01, 0.01, 1.02
11, 0.00, 50781.98, 0.00, 0.00, 0.00, 0.00, 0.00, 0.00, 0.01, 0.01, 1.02
12, 0.00, 50765.50, 0.00, 0.00, 0.00, 0.00, 0.00, 0.00, 0.01, 0.01, 1.02
13, 0.00, 50741.45, 0.00, 0.00, 0.00, 0.00, 0.00, 0.00, 0.01, 0.01, 1.02
14, 0.00, 50753.52, 0.00, 0.00, 0.00, 0.00, 0.00, 0.00, 0.01, 0.01, 1.02
15, 0.00, 50771.56, 0.00, 0.00, 0.00, 0.00, 0.00, 0.00, 0.01, 0.01, 1.02
16, 0.00, 50772.12, 0.00, 0.00, 0.00, 0.00, 0.00, 0.00, 0.01, 0.01, 1.02
17, 0.00, 50753.37, 0.00, 0.00, 0.00, 0.00, 0.00, 0.00, 0.01, 0.01, 1.02
18, 0.00, 50765.62, 0.00, 0.00, 0.00, 0.00, 0.00, 0.00, 0.01, 0.01, 1.02
19, 0.00, 50782.22, 0.00, 0.00, 0.00, 0.00, 0.00, 0.00, 0.01, 0.01, 1.02
20, 0.00, 50790.79, 0.00, 0.00, 0.00, 0.00, 0.00, 0.00, 0.01, 0.01, 1.02
21, 0.00, 50775.92, 0.00, 0.00, 0.00, 0.00, 0.00, 0.00, 0.01, 0.01, 1.02
22, 0.00, 50764.74, 0.00, 0.00, 0.00, 0.00, 0.00, 0.00, 0.01, 0.01, 1.02
23, 0.00, 50785.69, 0.00, 0.00, 0.00, 0.00, 0.00, 0.00, 0.01, 0.01, 1.02
24, 0.00, 50787.50, 0.00, 0.00, 0.00, 0.00, 0.00, 0.00, 0.01, 0.01, 1.02
25, 0.00, 50777.02, 0.00, 0.00, 0.00, 0.00, 0.00, 0.00, 0.01, 0.01, 1.02
26, 0.00, 50761.55, 0.00, 0.00, 0.00, 0.00, 0.00, 0.00, 0.01, 0.01, 1.02
27, 0.00, 50780.88, 0.00, 0.00, 0.00, 0.00, 0.00, 0.00, 0.01, 0.01, 1.02
28, 0.00, 50799.21, 0.00, 0.00, 0.00, 0.00, 0.00, 0.00, 0.01, 0.01, 1.02
29, 0.00, 50797.24, 0.00, 0.00, 0.00, 0.00, 0.00, 0.00, 0.01, 0.01, 1.02
30, 0.00, 50782.13, 0.00, 0.00, 0.00, 0.00, 0.00, 0.00, 0.01, 0.01, 1.02
31, 0.00, 50799.19, 0.00, 0.00, 0.00, 0.00, 0.00, 0.00, 0.01, 0.01, 1.02
32, 0.00, 50823.82, 0.00, 0.00, 0.00, 0.00, 0.00, 0.00, 0.02, 0.01, 1.03
33, 0.00, 50805.47, 0.00, 0.00, 0.00, 0.00, 0.00, 0.00, 0.02, 0.01, 1.03
34, 0.00, 50800.44, 0.00, 0.00, 0.00, 0.00, 0.00, 0.00, 0.02, 0.01, 1.03
35, 0.00, 50805.78, 0.00, 0.00, 0.00, 0.00, 0.00, 0.00, 0.02, 0.01, 1.03
36, 0.00, 50814.92, 0.00, 0.00, 0.00, 0.00, 0.00, 0.00, 0.02, 0.01, 1.03
37, 0.00, 50812.80, 0.00, 0.00, 0.00, 0.00, 0.00, 0.00, 0.01, 0.01, 1.03
38, 0.00, 50797.60, 0.00, 0.00, 0.00, 0.00, 0.00, 0.00, 0.01, 0.01, 1.03
39, 0.00, 50798.56, 0.00, 0.00, 0.00, 0.00, 0.00, 0.00, 0.01, 0.01, 1.03
40, 0.00, 50821.07, 0.00, 0.00, 0.00, 0.00, 0.00, 0.00, 0.01, 0.01, 1.03
41, 0.00, 50826.30, 0.00, 0.00, 0.00, 0.00, 0.00, 0.00, 0.01, 0.01, 1.03
42, 0.00, 50810.30, 0.00, 0.00, 0.00, 0.00, 0.00, 0.00, 0.01, 0.01, 1.02
43, 0.00, 50801.51, 0.00, 0.00, 0.00, 0.00, 0.00, 0.00, 0.01, 0.01, 1.02
44, 0.00, 50815.30, 0.00, 0.00, 0.00, 0.00, 0.00, 0.00, 0.01, 0.01, 1.02
45, 0.00, 50823.84, 0.00, 0.00, 0.00, 0.00, 0.00, 0.00, 0.01, 0.01, 1.02
46, 0.00, 50800.91, 0.00, 0.00, 0.00, 0.00, 0.00, 0.00, 0.01, 0.01, 1.02
47, 0.00, 50789.44, 0.00, 0.00, 0.00, 0.00, 0.00, 0.00, 0.01, 0.01, 1.02
48, 0.00, 50806.72, 0.00, 0.00, 0.00, 0.00, 0.00, 0.00, 0.01, 0.01, 1.02
49, 0.00, 50816.73, 0.00, 0.00, 0.00, 0.00, 0.00, 0.00, 0.01, 0.01, 1.02
50, 0.00, 50806.18, 0.00, 0.00, 0.00, 0.00, 0.00, 0.00, 0.01, 0.01, 1.02
51, 0.00, 50797.71, 0.00, 0.00, 0.00, 0.00, 0.00, 0.00, 0.01, 0.01, 1.02
52, 0.00, 50811.95, 0.00, 0.00, 0.00, 0.00, 0.00, 0.00, 0.01, 0.01, 1.02
53, 0.00, 50825.70, 0.00, 0.00, 0.00, 0.00, 0.00, 0.00, 0.01, 0.01, 1.02
54, 0.00, 50803.66, 0.00, 0.00, 0.00, 0.00, 0.00, 0.00, 0.01, 0.01, 1.02
55, 0.00, 50793.33, 0.00, 0.00, 0.00, 0.00, 0.00, 0.00, 0.01, 0.01, 1.02
56, 0.00, 50815.17, 0.00, 0.00, 0.00, 0.00, 0.00, 0.00, 0.01, 0.01, 1.02
57, 0.00, 50837.32, 0.00, 0.00, 0.00, 0.00, 0.00, 0.00, 0.01, 0.01, 1.02
58, 0.00, 50821.88, 0.00, 0.00, 0.00, 0.00, 0.00, 0.00, 0.01, 0.01, 1.02
59, 0.00, 50813.09, 0.00, 0.00, 0.00, 0.00, 0.00, 0.00, 0.01, 0.01, 1.02
60, 0.00, 50827.93, 0.00, 0.00, 0.00, 0.00, 0.00, 0.00, 0.01, 0.01, 1.02
61, 0.00, 50850.75, 0.00, 0.00, 0.00, 0.00, 0.00, 0.00, 0.01, 0.01, 1.02
62, 0.00, 50844.07, 0.00, 0.00, 0.00, 0.00, 0.00, 0.00, 0.01, 0.01, 1.02
63, 0.00, 50822.30, 0.00, 0.00, 0.00, 0.00, 0.00, 0.00, 0.01, 0.01, 1.02
64, 0.00, 50828.49, 0.00, 0.00, 0.00, 0.00, 0.00, 0.00, 0.01, 0.01, 1.02
65, 0.00, 50852.74, 0.00, 0.00, 0.00, 0.00, 0.00, 0.00, 0.01, 0.01, 1.02
66, 0.00, 50852.86, 0.00, 0.00, 0.00, 0.00, 0.00, 0.00, 0.01, 0.01, 1.02
67, 0.00, 50823.86, 0.00, 0.00, 0.00, 0.00, 0.00, 0.00, 0.01, 0.02, 1.01
68, 0.00, 50815.48, 0.00, 0.00, 0.00, 0.00, 0.00, 0.00, 0.01, 0.02, 1.01
69, 0.00, 50845.75, 0.00, 0.00, 0.00, 0.00, 0.00, 0.00, 0.01, 0.02, 1.01
70, 0.00, 50851.82, 0.00, 0.00, 0.00, 0.00, 0.00, 0.00, 0.01, 0.02, 1.01
71, 0.00, 50838.17, 0.00, 0.00, 0.00, 0.00, 0.00, 0.00, 0.01, 0.02, 1.01
72, 0.00, 50833.14, 0.00, 0.00, 0.00, 0.00, 0.00, 0.00, 0.00, 0.01, 1.01
73, 0.00, 50852.70, 0.00, 0.00, 0.00, 0.00, 0.00, 0.00, 0.00, 0.01, 1.01
74, 0.00, 50864.37, 0.00, 0.00, 0.00, 0.00, 0.00, 0.00, 0.00, 0.01, 1.01
75, 0.00, 50843.15, 0.00, 0.00, 0.00, 0.00, 0.00, 0.00, 0.00, 0.01, 1.01
76, 0.00, 50831.73, 0.00, 0.00, 0.00, 0.00, 0.00, 0.00, 0.00, 0.01, 1.01
77, 0.00, 50849.55, 0.00, 0.00, 0.00, 0.00, 0.00, 0.00, 0.01, 0.02, 1.02
78, 0.00, 50868.48, 0.00, 0.00, 0.00, 0.00, 0.00, 0.00, 0.01, 0.02, 1.02
79, 0.00, 50850.75, 0.00, 0.00, 0.00, 0.00, 0.00, 0.00, 0.01, 0.02, 1.02
80, 0.00, 50835.64, 0.00, 0.00, 0.00, 0.00, 0.00, 0.00, 0.01, 0.02, 1.02
81, 0.00, 50855.61, 0.00, 0.00, 0.00, 0.00, 0.00, 0.00, 0.01, 0.02, 1.02
82, 0.00, 50875.65, 0.00, 0.00, 0.00, 0.00, 0.00, 0.00, 0.01, 0.02, 1.02
83, 0.00, 50859.45, 0.00, 0.00, 0.00, 0.00, 0.00, 0.00, 0.01, 0.02, 1.02
84, 0.00, 50839.98, 0.00, 0.00, 0.00, 0.00, 0.00, 0.00, 0.01, 0.02, 1.02
85, 0.00, 50849.37, 0.00, 0.00, 0.00, 0.00, 0.00, 0.00, 0.01, 0.02, 1.02
86, 0.00, 50875.65, 0.00, 0.00, 0.00, 0.00, 0.00, 0.00, 0.01, 0.02, 1.02
87, 0.00, 50876.14, 0.00, 0.00, 0.00, 0.00, 0.00, 0.00, 0.02, 0.02, 1.02
88, 0.00, 50861.82, 0.00, 0.00, 0.00, 0.00, 0.00, 0.00, 0.02, 0.02, 1.02
89, 0.00, 50862.49, 0.00, 0.00, 0.00, 0.00, 0.00, 0.00, 0.02, 0.02, 1.02
90, 0.00, 50886.49, 0.00, 0.00, 0.00, 0.00, 0.00, 0.00, 0.02, 0.02, 1.02
91, 0.00, 50883.01, 0.00, 0.00, 0.00, 0.00, 0.00, 0.00, 0.02, 0.02, 1.02
92, 0.00, 50876.82, 0.00, 0.00, 0.00, 0.00, 0.00, 0.00, 0.01, 0.01, 1.02
93, 0.00, 50874.82, 0.00, 0.00, 0.00, 0.00, 0.00, 0.00, 0.01, 0.01, 1.02
94, 0.00, 50891.34, 0.00, 0.00, 0.00, 0.00, 0.00, 0.00, 0.01, 0.01, 1.02
95, 0.00, 50897.58, 0.00, 0.00, 0.00, 0.00, 0.00, 0.00, 0.01, 0.01, 1.02
96, 0.00, 50886.85, 0.00, 0.00, 0.00, 0.00, 0.00, 0.00, 0.01, 0.01, 1.02
97, 0.00, 50876.91, 0.00, 0.00, 0.00, 0.00, 0.00, 0.00, 0.01, 0.02, 1.01
98, 0.00, 50894.23, 0.00, 0.00, 0.00, 0.00, 0.00, 0.00, 0.01, 0.02, 1.01
99, 0.00, 50913.09, 0.00, 0.00, 0.00, 0.00, 0.00, 0.00, 0.01, 0.02, 1.01
100, 0.00, 50891.19, 0.00, 0.00, 0.00, 0.00, 0.00, 0.00, 0.01, 0.02, 1.01
101, 0.00, 50882.65, 0.00, 0.00, 0.00, 0.00, 0.00, 0.00, 0.01, 0.02, 1.01
102, 0.00, 50896.95, 0.00, 0.00, 0.00, 0.00, 0.00, 0.00, 0.01, 0.01, 1.01
103, 0.00, 50914.03, 0.00, 0.00, 0.00, 0.00, 0.00, 0.00, 0.01, 0.01, 1.01
104, 0.00, 50898.70, 0.00, 0.00, 0.00, 0.00, 0.00, 0.00, 0.01, 0.01, 1.01
105, 0.00, 50888.86, 0.00, 0.00, 0.00, 0.00, 0.00, 0.00, 0.01, 0.01, 1.01
106, 0.00, 50901.09, 0.00, 0.00, 0.00, 0.00, 0.00, 0.00, 0.01, 0.01, 1.01
107, 0.00, 50912.89, 0.00, 0.00, 0.00, 0.00, 0.00, 0.00, 0.01, 0.02, 1.01
108, 0.00, 50900.48, 0.00, 0.00, 0.00, 0.00, 0.00, 0.00, 0.01, 0.02, 1.01
109, 0.00, 50883.72, 0.00, 0.00, 0.00, 0.00, 0.00, 0.00, 0.01, 0.02, 1.01
110, 0.00, 50893.60, 0.00, 0.00, 0.00, 0.00, 0.00, 0.00, 0.01, 0.02, 1.01
111, 0.00, 50919.15, 0.00, 0.00, 0.00, 0.00, 0.00, 0.00, 0.01, 0.02, 1.01
112, 0.00, 50916.89, 0.00, 0.00, 0.00, 0.00, 0.00, 0.00, 0.01, 0.02, 1.02
113, 0.00, 50896.84, 0.00, 0.00, 0.00, 0.00, 0.00, 0.00, 0.01, 0.02, 1.02
114, 0.00, 50904.42, 0.00, 0.00, 0.00, 0.00, 0.00, 0.00, 0.01, 0.02, 1.02
115, 0.00, 50921.12, 0.00, 0.00, 0.00, 0.00, 0.00, 0.00, 0.01, 0.02, 1.02
116, 0.00, 50918.86, 0.00, 0.00, 0.00, 0.00, 0.00, 0.00, 0.01, 0.02, 1.02
117, 0.00, 50906.43, 0.00, 0.00, 0.00, 0.00, 0.00, 0.00, 0.01, 0.01, 1.02
118, 0.00, 50907.08, 0.00, 0.00, 0.00, 0.00, 0.00, 0.00, 0.01, 0.01, 1.02
119, 0.00, 50927.35, 0.00, 0.00, 0.00, 0.00, 0.00, 0.00, 0.01, 0.01, 1.02
120, 0.00, 50933.45, 0.00, 0.00, 0.00, 0.00, 0.00, 0.00, 0.01, 0.01, 1.02
121, 0.00, 50914.30, 0.00, 0.00, 0.00, 0.00, 0.00, 0.00, 0.01, 0.01, 1.02
122, 0.00, 50909.58, 0.00, 0.00, 0.00, 0.00, 0.00, 0.00, 0.01, 0.01, 1.02
123, 0.00, 50927.42, 0.00, 0.00, 0.00, 0.00, 0.00, 0.00, 0.01, 0.01, 1.02
124, 0.00, 50951.43, 0.00, 0.00, 0.00, 0.00, 0.00, 0.00, 0.01, 0.01, 1.02
125, 0.00, 50927.13, 0.00, 0.00, 0.00, 0.00, 0.00, 0.00, 0.01, 0.01, 1.02
126, 0.00, 50909.02, 0.00, 0.00, 0.00, 0.00, 0.00, 0.00, 0.01, 0.01, 1.02
127, 0.00, 50932.65, 0.00, 0.00, 0.00, 0.00, 0.00, 0.00, 0.01, 0.01, 1.01
128, 0.00, 50959.05, 0.00, 0.00, 0.00, 0.00, 0.00, 0.00, 0.01, 0.01, 1.01
129, 0.00, 50934.39, 0.00, 0.00, 0.00, 0.00, 0.00, 0.00, 0.01, 0.01, 1.01
130, 0.00, 50917.68, 0.00, 0.00, 0.00, 0.00, 0.00, 0.00, 0.01, 0.01, 1.01
131, 0.00, 50933.52, 0.00, 0.00, 0.00, 0.00, 0.00, 0.00, 0.01, 0.01, 1.01
132, 0.00, 50949.50, 0.00, 0.00, 0.00, 0.00, 0.00, 0.00, 0.01, 0.01, 1.01
133, 0.00, 50941.32, 0.00, 0.00, 0.00, 0.00, 0.00, 0.00, 0.01, 0.01, 1.01
134, 0.00, 50922.57, 0.00, 0.00, 0.00, 0.00, 0.00, 0.00, 0.01, 0.01, 1.01
135, 0.00, 50933.16, 0.00, 0.00, 0.00, 0.00, 0.00, 0.00, 0.01, 0.01, 1.01
136, 0.00, 50952.07, 0.00, 0.00, 0.00, 0.00, 0.00, 0.00, 0.01, 0.01, 1.01
137, 0.00, 50952.86, 0.00, 0.00, 0.00, 0.00, 0.00, 0.00, 0.01, 0.01, 1.02
138, 0.00, 50935.38, 0.00, 0.00, 0.00, 0.00, 0.00, 0.00, 0.01, 0.01, 1.02
139, 0.00, 50938.46, 0.00, 0.00, 0.00, 0.00, 0.00, 0.00, 0.01, 0.01, 1.02
140, 0.00, 50966.54, 0.00, 0.00, 0.00, 0.00, 0.00, 0.00, 0.01, 0.01, 1.02
141, 0.00, 50968.64, 0.00, 0.00, 0.00, 0.00, 0.00, 0.00, 0.01, 0.01, 1.02
142, 0.00, 50949.32, 0.00, 0.00, 0.00, 0.00, 0.00, 0.00, 0.01, 0.01, 1.01
143, 0.00, 50941.66, 0.00, 0.00, 0.00, 0.00, 0.00, 0.00, 0.01, 0.01, 1.01
144, 0.00, 50961.11, 0.00, 0.00, 0.00, 0.00, 0.00, 0.00, 0.01, 0.01, 1.01
145, 0.00, 50973.49, 0.00, 0.00, 0.00, 0.00, 0.00, 0.00, 0.01, 0.01, 1.01
146, 0.00, 50951.61, 0.00, 0.00, 0.00, 0.00, 0.00, 0.00, 0.01, 0.01, 1.01
147, 0.00, 50945.39, 0.00, 0.00, 0.00, 0.00, 0.00, 0.00, 0.01, 0.01, 1.01
148, 0.00, 50969.11, 0.00, 0.00, 0.00, 0.00, 0.00, 0.00, 0.01, 0.01, 1.01
149, 0.00, 50973.20, 0.00, 0.00, 0.00, 0.00, 0.00, 0.00, 0.01, 0.01, 1.01
150, 0.00, 50959.32, 0.00, 0.00, 0.00, 0.00, 0.00, 0.00, 0.01, 0.01, 1.01
151, 0.00, 50954.84, 0.00, 0.00, 0.00, 0.00, 0.00, 0.00, 0.01, 0.01, 1.01
152, 0.00, 50971.88, 0.00, 0.00, 0.00, 0.00, 0.00, 0.00, 0.01, 0.01, 1.02
153, 0.00, 50990.12, 0.00, 0.00, 0.00, 0.00, 0.00, 0.00, 0.01, 0.01, 1.02
154, 0.00, 50976.10, 0.00, 0.00, 0.00, 0.00, 0.00, 0.00, 0.01, 0.01, 1.02
155, 0.00, 50957.21, 0.00, 0.00, 0.00, 0.00, 0.00, 0.00, 0.01, 0.01, 1.02
156, 0.00, 50968.57, 0.00, 0.00, 0.00, 0.00, 0.00, 0.00, 0.01, 0.01, 1.02
157, 0.00, 50989.91, 0.00, 0.00, 0.00, 0.00, 0.00, 0.00, 0.01, 0.01, 1.01
158, 0.00, 50979.68, 0.00, 0.00, 0.00, 0.00, 0.00, 0.00, 0.01, 0.01, 1.01
159, 0.00, 50968.75, 0.00, 0.00, 0.00, 0.00, 0.00, 0.00, 0.01, 0.01, 1.01
160, 0.00, 50971.79, 0.00, 0.00, 0.00, 0.00, 0.00, 0.00, 0.01, 0.01, 1.01
161, 0.00, 50991.68, 0.00, 0.00, 0.00, 0.00, 0.00, 0.00, 0.01, 0.01, 1.01
162, 0.00, 50988.48, 0.00, 0.00, 0.00, 0.00, 0.00, 0.00, 0.01, 0.01, 1.01
163, 0.00, 50966.96, 0.00, 0.00, 0.00, 0.00, 0.00, 0.00, 0.01, 0.01, 1.01
164, 0.00, 50969.71, 0.00, 0.00, 0.00, 0.00, 0.00, 0.00, 0.01, 0.01, 1.01
165, 0.00, 50984.08, 0.00, 0.00, 0.00, 0.00, 0.00, 0.00, 0.01, 0.01, 1.01
166, 0.00, 50991.21, 0.00, 0.00, 0.00, 0.00, 0.00, 0.00, 0.01, 0.01, 1.01
167, 0.00, 50979.10, 0.00, 0.00, 0.00, 0.00, 0.00, 0.00, 0.01, 0.01, 1.02
168, 0.00, 50973.00, 0.00, 0.00, 0.00, 0.00, 0.00, 0.00, 0.01, 0.01, 1.02
169, 0.00, 50997.61, 0.00, 0.00, 0.00, 0.00, 0.00, 0.00, 0.01, 0.01, 1.02
170, 0.00, 50999.32, 0.00, 0.00, 0.00, 0.00, 0.00, 0.00, 0.01, 0.01, 1.02
171, 0.00, 50988.48, 0.00, 0.00, 0.00, 0.00, 0.00, 0.00, 0.01, 0.01, 1.02
172, 0.00, 50984.30, 0.00, 0.00, 0.00, 0.00, 0.00, 0.00, 0.01, 0.01, 1.01
173, 0.00, 50995.86, 0.00, 0.00, 0.00, 0.00, 0.00, 0.00, 0.01, 0.01, 1.01
174, 0.00, 51012.56, 0.00, 0.00, 0.00, 0.00, 0.00, 0.00, 0.01, 0.01, 1.01
175, 0.00, 50996.26, 0.00, 0.00, 0.00, 0.00, 0.00, 0.00, 0.01, 0.01, 1.01
176, 0.00, 50988.17, 0.00, 0.00, 0.00, 0.00, 0.00, 0.00, 0.01, 0.01, 1.01
177, 0.00, 51003.08, 0.00, 0.00, 0.00, 0.00, 0.00, 0.00, 0.02, 0.01, 1.02
178, 0.00, 51018.84, 0.00, 0.00, 0.00, 0.00, 0.00, 0.00, 0.02, 0.01, 1.02
179, 0.00, 51003.21, 0.00, 0.00, 0.00, 0.00, 0.00, 0.00, 0.02, 0.01, 1.02
180, 0.00, 50985.87, 0.00, 0.00, 0.00, 0.00, 0.00, 0.00, 0.02, 0.01, 1.02
181, 0.00, 50997.31, 0.00, 0.00, 0.00, 0.00, 0.00, 0.00, 0.02, 0.01, 1.02
182, 0.00, 51023.75, 0.00, 0.00, 0.00, 0.00, 0.00, 0.00, 0.01, 0.02, 1.01
183, 0.00, 51014.34, 0.00, 0.00, 0.00, 0.00, 0.00, 0.00, 0.01, 0.02, 1.01
184, 0.00, 51001.32, 0.00, 0.00, 0.00, 0.00, 0.00, 0.00, 0.01, 0.02, 1.01
185, 0.00, 51009.61, 0.00, 0.00, 0.00, 0.00, 0.00, 0.00, 0.01, 0.02, 1.01
186, 0.00, 51036.12, 0.00, 0.00, 0.00, 0.00, 0.00, 0.00, 0.01, 0.02, 1.01
187, 0.00, 51029.90, 0.00, 0.00, 0.00, 0.00, 0.00, 0.00, 0.01, 0.02, 1.01
188, 0.00, 51006.19, 0.00, 0.00, 0.00, 0.00, 0.00, 0.00, 0.01, 0.02, 1.02
189, 0.00, 51009.61, 0.00, 0.00, 0.00, 0.00, 0.00, 0.00, 0.01, 0.02, 1.02
190, 0.00, 51037.55, 0.00, 0.00, 0.00, 0.00, 0.00, 0.00, 0.01, 0.02, 1.02
191, 0.00, 51034.91, 0.00, 0.00, 0.00, 0.00, 0.00, 0.00, 0.01, 0.02, 1.02
192, 0.00, 51020.52, 0.00, 0.00, 0.00, 0.00, 0.00, 0.00, 0.01, 0.02, 1.02
193, 0.00, 51012.25, 0.00, 0.00, 0.00, 0.00, 0.00, 0.00, 0.01, 0.02, 1.02
194, 0.00, 51033.37, 0.00, 0.00, 0.00, 0.00, 0.00, 0.00, 0.01, 0.02, 1.02
195, 0.00, 51044.68, 0.00, 0.00, 0.00, 0.00, 0.00, 0.00, 0.01, 0.02, 1.02
196, 0.00, 51026.28, 0.00, 0.00, 0.00, 0.00, 0.00, 0.00, 0.01, 0.02, 1.02
197, 0.00, 51019.91, 0.00, 0.00, 0.00, 0.00, 0.00, 0.00, 0.01, 0.02, 1.02
198, 0.00, 51035.65, 0.00, 0.00, 0.00, 0.00, 0.00, 0.00, 0.01, 0.02, 1.02
199, 0.00, 51042.04, 0.00, 0.00, 0.00, 0.00, 0.00, 0.00, 0.01, 0.02, 1.02
200, 0.00, 51029.68, 0.00, 0.00, 0.00, 0.00, 0.00, 0.00, 0.01, 0.02, 1.02
201, 0.00, 51015.91, 0.00, 0.00, 0.00, 0.00, 0.00, 0.00, 0.01, 0.02, 1.02
202, 0.00, 51026.82, 0.00, 0.00, 0.00, 0.00, 0.00, 0.00, 0.01, 0.02, 1.02
203, 0.00, 51043.71, 0.00, 0.00, 0.00, 0.00, 0.00, 0.00, 0.01, 0.02, 1.02
204, 0.00, 51031.07, 0.00, 0.00, 0.00, 0.00, 0.00, 0.00, 0.01, 0.02, 1.02
205, 0.00, 51022.84, 0.00, 0.00, 0.00, 0.00, 0.00, 0.00, 0.01, 0.02, 1.02
206, 0.00, 51038.64, 0.00, 0.00, 0.00, 0.00, 0.00, 0.00, 0.01, 0.02, 1.02
207, 0.00, 51060.50, 0.00, 0.00, 0.00, 0.00, 0.00, 0.00, 0.01, 0.02, 1.02
208, 0.00, 51052.95, 0.00, 0.00, 0.00, 0.00, 0.00, 0.00, 0.01, 0.02, 1.02
209, 0.00, 51035.60, 0.00, 0.00, 0.00, 0.00, 0.00, 0.00, 0.01, 0.02, 1.02
210, 0.00, 51040.61, 0.00, 0.00, 0.00, 0.00, 0.00, 0.00, 0.01, 0.02, 1.02
211, 0.00, 51063.50, 0.00, 0.00, 0.00, 0.00, 0.00, 0.00, 0.01, 0.02, 1.02
212, 0.00, 51058.73, 0.00, 0.00, 0.00, 0.00, 0.00, 0.00, 0.01, 0.02, 1.02
213, 0.00, 51040.32, 0.00, 0.00, 0.00, 0.00, 0.00, 0.00, 0.01, 0.01, 1.02
214, 0.00, 51049.89, 0.00, 0.00, 0.00, 0.00, 0.00, 0.00, 0.01, 0.01, 1.02
215, 0.00, 51071.79, 0.00, 0.00, 0.00, 0.00, 0.00, 0.00, 0.01, 0.01, 1.02
216, 0.00, 51071.68, 0.00, 0.00, 0.00, 0.00, 0.00, 0.00, 0.01, 0.01, 1.02
217, 0.00, 51052.95, 0.00, 0.00, 0.00, 0.00, 0.00, 0.00, 0.01, 0.01, 1.02
218, 0.00, 51057.11, 0.00, 0.00, 0.00, 0.00, 0.00, 0.00, 0.01, 0.00, 1.02
219, 0.00, 51073.06, 0.00, 0.00, 0.00, 0.00, 0.00, 0.00, 0.01, 0.00, 1.02
220, 0.00, 51078.94, 0.00, 0.00, 0.00, 0.00, 0.00, 0.00, 0.01, 0.00, 1.02
221, 0.00, 51067.79, 0.00, 0.00, 0.00, 0.00, 0.00, 0.00, 0.01, 0.00, 1.02
222, 0.00, 51057.46, 0.00, 0.00, 0.00, 0.00, 0.00, 0.00, 0.01, 0.00, 1.02
223, 0.00, 51073.15, 0.00, 0.00, 0.00, 0.00, 0.00, 0.00, 0.01, 0.00, 1.02
224, 0.00, 51094.36, 0.00, 0.00, 0.00, 0.00, 0.00, 0.00, 0.01, 0.00, 1.02
225, 0.00, 51078.23, 0.00, 0.00, 0.00, 0.00, 0.00, 0.00, 0.01, 0.00, 1.02
226, 0.00, 51059.92, 0.00, 0.00, 0.00, 0.00, 0.00, 0.00, 0.01, 0.00, 1.02
227, 0.00, 51070.38, 0.00, 0.00, 0.00, 0.00, 0.00, 0.00, 0.01, 0.00, 1.02
228, 0.00, 51098.77, 0.00, 0.00, 0.00, 0.00, 0.00, 0.00, 0.00, 0.00, 1.01
229, 0.00, 51085.20, 0.00, 0.00, 0.00, 0.00, 0.00, 0.00, 0.00, 0.00, 1.01
230, 0.00, 51067.12, 0.00, 0.00, 0.00, 0.00, 0.00, 0.00, 0.00, 0.00, 1.01
231, 0.00, 51077.58, 0.00, 0.00, 0.00, 0.00, 0.00, 0.00, 0.00, 0.00, 1.01
232, 0.00, 51095.32, 0.00, 0.00, 0.00, 0.00, 0.00, 0.00, 0.00, 0.00, 1.01
233, 0.00, 51086.50, 0.00, 0.00, 0.00, 0.00, 0.00, 0.00, 0.00, 0.01, 1.02
234, 0.00, 51074.36, 0.00, 0.00, 0.00, 0.00, 0.00, 0.00, 0.00, 0.01, 1.02
235, 0.00, 51069.09, 0.00, 0.00, 0.00, 0.00, 0.00, 0.00, 0.00, 0.01, 1.02
236, 0.00, 51095.19, 0.00, 0.00, 0.00, 0.00, 0.00, 0.00, 0.00, 0.01, 1.02
237, 0.00, 51097.83, 0.00, 0.00, 0.00, 0.00, 0.00, 0.00, 0.00, 0.01, 1.02
238, 0.00, 51080.39, 0.00, 0.00, 0.00, 0.00, 0.00, 0.00, 0.00, 0.01, 1.02
239, 0.00, 51077.33, 0.00, 0.00, 0.00, 0.00, 0.00, 0.00, 0.00, 0.01, 1.02
240, 0.00, 51101.32, 0.00, 0.00, 0.00, 0.00, 0.00, 0.00, 0.00, 0.01, 1.02
241, 0.00, 51103.20, 0.00, 0.00, 0.00, 0.00, 0.00, 0.00, 0.00, 0.01, 1.02
242, 0.00, 51094.34, 0.00, 0.00, 0.00, 0.00, 0.00, 0.00, 0.00, 0.01, 1.02
243, 0.00, 51093.52, 0.00, 0.00, 0.00, 0.00, 0.00, 0.00, 0.00, 0.01, 1.01
244, 0.00, 51119.42, 0.00, 0.00, 0.00, 0.00, 0.00, 0.00, 0.00, 0.01, 1.01
245, 0.00, 51124.07, 0.00, 0.00, 0.00, 0.00, 0.00, 0.00, 0.00, 0.01, 1.01
246, 0.00, 51110.14, 0.00, 0.00, 0.00, 0.00, 0.00, 0.00, 0.00, 0.01, 1.01
247, 0.00, 51100.31, 0.00, 0.00, 0.00, 0.00, 0.00, 0.00, 0.00, 0.01, 1.01
248, 0.00, 51113.48, 0.00, 0.00, 0.00, 0.00, 0.00, 0.00, 0.01, 0.01, 1.02
249, 0.00, 51121.05, 0.00, 0.00, 0.00, 0.00, 0.00, 0.00, 0.01, 0.01, 1.02
250, 0.00, 51106.79, 0.00, 0.00, 0.00, 0.00, 0.00, 0.00, 0.01, 0.01, 1.02
251, 0.00, 51096.29, 0.00, 0.00, 0.00, 0.00, 0.00, 0.00, 0.01, 0.01, 1.02
252, 0.00, 51103.53, 0.00, 0.00, 0.00, 0.00, 0.00, 0.00, 0.01, 0.01, 1.02
253, 0.00, 51115.49, 0.00, 0.00, 0.00, 0.00, 0.00, 0.00, 0.01, 0.01, 1.03
254, 0.00, 51108.65, 0.00, 0.00, 0.00, 0.00, 0.00, 0.00, 0.01, 0.01, 1.03
255, 0.00, 51096.78, 0.00, 0.00, 0.00, 0.00, 0.00, 0.00, 0.01, 0.01, 1.03
0, 0.00, 51110.55, 0.00, 0.00, 0.00, 0.00, 0.00, 0.00, 0.01, 0.01, 1.03
1, 0.00, 51135.31, 0.00, 0.00, 0.00, 0.00, 0.00, 0.00, 0.01, 0.01, 1.03
2, 0.00, 51128.90, 0.00, 0.00, 0.00, 0.00, 0.00, 0.00, 0.01, 0.01, 1.02
3, 0.00, 51116.11, 0.00, 0.00, 0.00, 0.00, 0.00, 0.00, 0.01, 0.01, 1.02
4, 0.00, 51117.05, 0.00, 0.00, 0.00, 0.00, 0.00, 0.00, 0.01, 0.01, 1.02
5, 0.00, 51142.73, 0.00, 0.00, 0.00, 0.00, 0.00, 0.00, 0.01, 0.01, 1.02
6, 0.00, 51145.44, 0.00, 0.00, 0.00, 0.00, 0.00, 0.00, 0.01, 0.01, 1.02
7, 0.00, 51123.29, 0.00, 0.00, 0.00, 0.00, 0.00, 0.00, 0.01, 0.01, 1.02
8, 0.00, 51124.54, 0.00, 0.00, 0.00, 0.00, 0.00, 0.00, 0.01, 0.01, 1.02
9, 0.00, 51144.19, 0.00, 0.00, 0.00, 0.00, 0.00, 0.00, 0.01, 0.01, 1.02
10, 0.00, 51141.93, 0.00, 0.00, 0.00, 0.00, 0.00, 0.00, 0.01, 0.01, 1.02
11, 0.00, 51134.31, 0.00, 0.00, 0.00, 0.00, 0.00, 0.00, 0.01, 0.01, 1.02
12, 0.00, 51120.96, 0.00, 0.00, 0.00, 0.00, 0.00, 0.00, 0.01, 0.01, 1.01
13, 0.00, 51145.28, 0.00, 0.00, 0.00, 0.00, 0.00, 0.00, 0.01, 0.01, 1.01
14, 0.00, 51158.63, 0.00, 0.00, 0.00, 0.00, 0.00, 0.00, 0.01, 0.01, 1.01
15, 0.00, 51148.52, 0.00, 0.00, 0.00, 0.00, 0.00, 0.00, 0.01, 0.01, 1.01
16, 0.00, 51131.83, 0.00, 0.00, 0.00, 0.00, 0.00, 0.00, 0.01, 0.01, 1.01
17, 0.00, 51145.24, 0.00, 0.00, 0.00, 0.00, 0.00, 0.00, 0.01, 0.01, 1.02
18, 0.00, 51156.64, 0.00, 0.00, 0.00, 0.00, 0.00, 0.00, 0.01, 0.01, 1.02
19, 0.00, 51147.67, 0.00, 0.00, 0.00, 0.00, 0.00, 0.00, 0.01, 0.01, 1.02
20, 0.00, 51137.79, 0.00, 0.00, 0.00, 0.00, 0.00, 0.00, 0.01, 0.01, 1.02
21, 0.00, 51157.02, 0.00, 0.00, 0.00, 0.00, 0.00, 0.00, 0.01, 0.01, 1.02
22, 0.00, 51182.50, 0.00, 0.00, 0.00, 0.00, 0.00, 0.00, 0.01, 0.01, 1.02
23, 0.00, 51169.82, 0.00, 0.00, 0.00, 0.00, 0.00, 0.00, 0.01, 0.01, 1.02
24, 0.00, 51151.65, 0.00, 0.00, 0.00, 0.00, 0.00, 0.00, 0.01, 0.01, 1.02
25, 0.00, 51157.82, 0.00, 0.00, 0.00, 0.00, 0.00, 0.00, 0.01, 0.01, 1.02
26, 0.00, 51181.09, 0.00, 0.00, 0.00, 0.00, 0.00, 0.00, 0.01, 0.01, 1.02
27, 0.00, 51174.79, 0.00, 0.00, 0.00, 0.00, 0.00, 0.00, 0.01, 0.00, 1.02
28, 0.00, 51157.06, 0.00, 0.00, 0.00, 0.00, 0.00, 0.00, 0.01, 0.00, 1.02
29, 0.00, 51157.29, 0.00, 0.00, 0.00, 0.00, 0.00, 0.00, 0.01, 0.00, 1.02
30, 0.00, 51181.09, 0.00, 0.00, 0.00, 0.00, 0.00, 0.00, 0.01, 0.00, 1.02
31, 0.00, 51182.50, 0.00, 0.00, 0.00, 0.00, 0.00, 0.00, 0.01, 0.00, 1.02
32, 0.00, 51159.97, 0.00, 0.00, 0.00, 0.00, 0.00, 0.00, 0.01, 0.01, 1.02
33, 0.00, 51156.46, 0.00, 0.00, 0.00, 0.00, 0.00, 0.00, 0.01, 0.01, 1.02
34, 0.00, 51176.55, 0.00, 0.00, 0.00, 0.00, 0.00, 0.00, 0.01, 0.01, 1.02
35, 0.00, 51181.49, 0.00, 0.00, 0.00, 0.00, 0.00, 0.00, 0.01, 0.01, 1.02
36, 0.00, 51158.18, 0.00, 0.00, 0.00, 0.00, 0.00, 0.00, 0.01, 0.01, 1.02
37, 0.00, 51161.98, 0.00, 0.00, 0.00, 0.00, 0.00, 0.00, 0.00, 0.01, 1.03
38, 0.00, 51179.61, 0.00, 0.00, 0.00, 0.00, 0.00, 0.00, 0.00, 0.01, 1.03
39, 0.00, 51193.79, 0.00, 0.00, 0.00, 0.00, 0.00, 0.00, 0.00, 0.01, 1.03
40, 0.00, 51186.36, 0.00, 0.00, 0.00, 0.00, 0.00, 0.00, 0.00, 0.01, 1.03
41, 0.00, 51175.64, 0.00, 0.00, 0.00, 0.00, 0.00, 0.00, 0.00, 0.01, 1.03
42, 0.00, 51191.39, 0.00, 0.00, 0.00, 0.00, 0.00, 0.00, 0.00, 0.01, 1.02
43, 0.00, 51202.48, 0.00, 0.00, 0.00, 0.00, 0.00, 0.00, 0.00, 0.01, 1.02
44, 0.00, 51194.50, 0.00, 0.00, 0.00, 0.00, 0.00, 0.00, 0.00, 0.01, 1.02
45, 0.00, 51175.73, 0.00, 0.00, 0.00, 0.00, 0.00, 0.00, 0.00, 0.01, 1.02
46, 0.00, 51192.15, 0.00, 0.00, 0.00, 0.00, 0.00, 0.00, 0.00, 0.01, 1.02
47, 0.00, 51215.29, 0.00, 0.00, 0.00, 0.00, 0.00, 0.00, 0.00, 0.01, 1.01
48, 0.00, 51205.25, 0.00, 0.00, 0.00, 0.00, 0.00, 0.00, 0.00, 0.01, 1.01
49, 0.00, 51182.88, 0.00, 0.00, 0.00, 0.00, 0.00, 0.00, 0.00, 0.01, 1.01
50, 0.00, 51192.49, 0.00, 0.00, 0.00, 0.00, 0.00, 0.00, 0.00, 0.01, 1.01
51, 0.00, 51215.15, 0.00, 0.00, 0.00, 0.00, 0.00, 0.00, 0.00, 0.01, 1.01
52, 0.00, 51210.66, 0.00, 0.00, 0.00, 0.00, 0.00, 0.00, 0.01, 0.02, 1.01
53, 0.00, 51190.41, 0.00, 0.00, 0.00, 0.00, 0.00, 0.00, 0.01, 0.02, 1.01
54, 0.00, 51187.01, 0.00, 0.00, 0.00, 0.00, 0.00, 0.00, 0.01, 0.02, 1.01
55, 0.00, 51215.36, 0.00, 0.00, 0.00, 0.00, 0.00, 0.00, 0.01, 0.02, 1.01
56, 0.00, 51219.71, 0.00, 0.00, 0.00, 0.00, 0.00, 0.00, 0.01, 0.02, 1.01
57, 0.00, 51203.42, 0.00, 0.00, 0.00, 0.00, 0.00, 0.00, 0.01, 0.01, 1.02
58, 0.00, 51198.19, 0.00, 0.00, 0.00, 0.00, 0.00, 0.00, 0.01, 0.01, 1.02
59, 0.00, 51220.74, 0.00, 0.00, 0.00, 0.00, 0.00, 0.00, 0.01, 0.01, 1.02
60, 0.00, 51223.80, 0.00, 0.00, 0.00, 0.00, 0.00, 0.00, 0.01, 0.01, 1.02
61, 0.00, 51204.20, 0.00, 0.00, 0.00, 0.00, 0.00, 0.00, 0.01, 0.01, 1.02
62, 0.00, 51195.02, 0.00, 0.00, 0.00, 0.00, 0.00, 0.00, 0.00, 0.01, 1.02
63, 0.00, 51212.16, 0.00, 0.00, 0.00, 0.00, 0.00, 0.00, 0.00, 0.01, 1.02
64, 0.00, 51223.27, 0.00, 0.00, 0.00, 0.00, 0.00, 0.00, 0.00, 0.01, 1.02
65, 0.00, 51212.67, 0.00, 0.00, 0.00, 0.00, 0.00, 0.00, 0.00, 0.01, 1.02
66, 0.00, 51194.19, 0.00, 0.00, 0.00, 0.00, 0.00, 0.00, 0.00, 0.01, 1.02
67, 0.00, 51215.64, 0.00, 0.00, 0.00, 0.00, 0.00, 0.00, 0.01, 0.01, 1.02
68, 0.00, 51230.18, 0.00, 0.00, 0.00, 0.00, 0.00, 0.00, 0.01, 0.01, 1.02
69, 0.00, 51223.20, 0.00, 0.00, 0.00, 0.00, 0.00, 0.00, 0.01, 0.01, 1.02
70, 0.00, 51203.91, 0.00, 0.00, 0.00, 0.00, 0.00, 0.00, 0.01, 0.01, 1.02
71, 0.00, 51215.09, 0.00, 0.00, 0.00, 0.00, 0.00, 0.00, 0.01, 0.01, 1.02
72, 0.00, 51239.43, 0.00, 0.00, 0.00, 0.00, 0.00, 0.00, 0.01, 0.01, 1.02
73, 0.00, 51228.41, 0.00, 0.00, 0.00, 0.00, 0.00, 0.00, 0.01, 0.01, 1.02
74, 0.00, 51211.27, 0.00, 0.00, 0.00, 0.00, 0.00, 0.00, 0.01, 0.01, 1.02
75, 0.00, 51216.41, 0.00, 0.00, 0.00, 0.00, 0.00, 0.00, 0.01, 0.01, 1.02
76, 0.00, 51246.25, 0.00, 0.00, 0.00, 0.00, 0.00, 0.00, 0.01, 0.01, 1.02
77, 0.00, 51238.63, 0.00, 0.00, 0.00, 0.00, 0.00, 0.00, 0.01, 0.01, 1.02
78, 0.00, 51225.03, 0.00, 0.00, 0.00, 0.00, 0.00, 0.00, 0.01, 0.01, 1.02
79, 0.00, 51237.86, 0.00, 0.00, 0.00, 0.00, 0.00, 0.00, 0.01, 0.01, 1.02
80, 0.00, 51246.80, 0.00, 0.00, 0.00, 0.00, 0.00, 0.00, 0.01, 0.01, 1.02
81, 0.00, 51238.51, 0.00, 0.00, 0.00, 0.00, 0.00, 0.00, 0.01, 0.01, 1.02
82, 0.00, 51220.50, 0.00, 0.00, 0.00, 0.00, 0.00, 0.00, 0.01, 0.01, 1.02
83, 0.00, 51218.24, 0.00, 0.00, 0.00, 0.00, 0.00, 0.00, 0.01, 0.01, 1.02
84, 0.00, 51245.35, 0.00, 0.00, 0.00, 0.00, 0.00, 0.00, 0.01, 0.01, 1.02
85, 0.00, 51236.63, 0.00, 0.00, 0.00, 0.00, 0.00, 0.00, 0.01, 0.01, 1.02
86, 0.00, 51218.42, 0.00, 0.00, 0.00, 0.00, 0.00, 0.00, 0.01, 0.01, 1.02
87, 0.00, 51221.68, 0.00, 0.00, 0.00, 0.00, 0.00, 0.00, 0.01, 0.02, 1.01
88, 0.00, 51248.26, 0.00, 0.00, 0.00, 0.00, 0.00, 0.00, 0.01, 0.02, 1.01
89, 0.00, 51259.66, 0.00, 0.00, 0.00, 0.00, 0.00, 0.00, 0.01, 0.02, 1.01
90, 0.00, 51241.95, 0.00, 0.00, 0.00, 0.00, 0.00, 0.00, 0.01, 0.02, 1.01
91, 0.00, 51227.45, 0.00, 0.00, 0.00, 0.00, 0.00, 0.00, 0.01, 0.02, 1.01
92, 0.00, 51236.72, 0.00, 0.00, 0.00, 0.00, 0.00, 0.00, 0.01, 0.01, 1.01
93, 0.00, 51254.22, 0.00, 0.00, 0.00, 0.00, 0.00, 0.00, 0.01, 0.01, 1.01
94, 0.00, 51248.19, 0.00, 0.00, 0.00, 0.00, 0.00, 0.00, 0.01, 0.01, 1.01
95, 0.00, 51229.77, 0.00, 0.00, 0.00, 0.00, 0.00, 0.00, 0.01, 0.01, 1.01
96, 0.00, 51247.59, 0.00, 0.00, 0.00, 0.00, 0.00, 0.00, 0.01, 0.01, 1.01
97, 0.00, 51271.41, 0.00, 0.00, 0.00, 0.00, 0.00, 0.00, 0.01, 0.01, 1.02
98, 0.00, 51260.50, 0.00, 0.00, 0.00, 0.00, 0.00, 0.00, 0.01, 0.01, 1.02
99, 0.00, 51246.13, 0.00, 0.00, 0.00, 0.00, 0.00, 0.00, 0.01, 0.01, 1.02
100, 0.00, 51253.69, 0.00, 0.00, 0.00, 0.00, 0.00, 0.00, 0.01, 0.01, 1.02
101, 0.00, 51269.85, 0.00, 0.00, 0.00, 0.00, 0.00, 0.00, 0.01, 0.01, 1.02
102, 0.00, 51269.29, 0.00, 0.00, 0.00, 0.00, 0.00, 0.00, 0.01, 0.01, 1.02
103, 0.00, 51241.91, 0.00, 0.00, 0.00, 0.00, 0.00, 0.00, 0.01, 0.01, 1.02
104, 0.00, 51250.61, 0.00, 0.00, 0.00, 0.00, 0.00, 0.00, 0.01, 0.01, 1.02
105, 0.00, 51268.82, 0.00, 0.00, 0.00, 0.00, 0.00, 0.00, 0.01, 0.01, 1.02
106, 0.00, 51271.05, 0.00, 0.00, 0.00, 0.00, 0.00, 0.00, 0.01, 0.01, 1.02
107, 0.00, 51256.59, 0.00, 0.00, 0.00, 0.00, 0.00, 0.00, 0.00, 0.01, 1.02
108, 0.00, 51239.43, 0.00, 0.00, 0.00, 0.00, 0.00, 0.00, 0.00, 0.01, 1.02
109, 0.00, 51268.06, 0.00, 0.00, 0.00, 0.00, 0.00, 0.00, 0.00, 0.01, 1.02
110, 0.00, 51281.96, 0.00, 0.00, 0.00, 0.00, 0.00, 0.00, 0.00, 0.01, 1.02
111, 0.00, 51263.37, 0.00, 0.00, 0.00, 0.00, 0.00, 0.00, 0.00, 0.01, 1.02
112, 0.00, 51247.81, 0.00, 0.00, 0.00, 0.00, 0.00, 0.00, 0.00, 0.01, 1.02
113, 0.00, 51260.84, 0.00, 0.00, 0.00, 0.00, 0.00, 0.00, 0.00, 0.01, 1.02
114, 0.00, 51280.29, 0.00, 0.00, 0.00, 0.00, 0.00, 0.00, 0.00, 0.01, 1.02
115, 0.00, 51272.71, 0.00, 0.00, 0.00, 0.00, 0.00, 0.00, 0.00, 0.01, 1.02
116, 0.00, 51268.98, 0.00, 0.00, 0.00, 0.00, 0.00, 0.00, 0.00, 0.01, 1.02
117, 0.00, 51286.88, 0.00, 0.00, 0.00, 0.00, 0.00, 0.00, 0.01, 0.01, 1.02
118, 0.00, 51298.91, 0.00, 0.00, 0.00, 0.00, 0.00, 0.00, 0.01, 0.01, 1.02
119, 0.00, 51284.20, 0.00, 0.00, 0.00, 0.00, 0.00, 0.00, 0.01, 0.01, 1.02
120, 0.00, 51262.59, 0.00, 0.00, 0.00, 0.00, 0.00, 0.00, 0.01, 0.01, 1.02
121, 0.00, 51271.55, 0.00, 0.00, 0.00, 0.00, 0.00, 0.00, 0.01, 0.01, 1.02
122, 0.00, 51291.84, 0.00, 0.00, 0.00, 0.00, 0.00, 0.00, 0.01, 0.01, 1.01
123, 0.00, 51280.89, 0.00, 0.00, 0.00, 0.00, 0.00, 0.00, 0.01, 0.01, 1.01
124, 0.00, 51264.57, 0.00, 0.00, 0.00, 0.00, 0.00, 0.00, 0.01, 0.01, 1.01
125, 0.00, 51267.88, 0.00, 0.00, 0.00, 0.00, 0.00, 0.00, 0.01, 0.01, 1.01
126, 0.00, 51280.36, 0.00, 0.00, 0.00, 0.00, 0.00, 0.00, 0.01, 0.01, 1.01
127, 0.00, 51276.89, 0.00, 0.00, 0.00, 0.00, 0.00, 0.00, 0.01, 0.01, 1.02
128, 0.00, 51248.82, 0.00, 0.00, 0.00, 0.00, 0.00, 0.00, 0.01, 0.01, 1.02
129, 0.00, 51239.09, 0.00, 0.00, 0.00, 0.00, 0.00, 0.00, 0.01, 0.01, 1.02
130, 0.00, 51252.95, 0.00, 0.00, 0.00, 0.00, 0.00, 0.00, 0.01, 0.01, 1.02
131, 0.00, 51248.21, 0.00, 0.00, 0.00, 0.00, 0.00, 0.00, 0.01, 0.01, 1.02
132, 0.00, 51222.84, 0.00, 0.00, 0.00, 0.00, 0.00, 0.00, 0.01, 0.01, 1.02
133, 0.00, 51213.63, 0.00, 0.00, 0.00, 0.00, 0.00, 0.00, 0.01, 0.01, 1.02
134, 0.00, 51234.71, 0.00, 0.00, 0.00, 0.00, 0.00, 0.00, 0.01, 0.01, 1.02
135, 0.00, 51235.47, 0.00, 0.00, 0.00, 0.00, 0.00, 0.00, 0.01, 0.01, 1.02
136, 0.00, 51219.33, 0.00, 0.00, 0.00, 0.00, 0.00, 0.00, 0.01, 0.01, 1.02
137, 0.00, 51213.14, 0.00, 0.00, 0.00, 0.00, 0.00, 0.00, 0.02, 0.01, 1.01
138, 0.00, 51235.98, 0.00, 0.00, 0.00, 0.00, 0.00, 0.00, 0.02, 0.01, 1.01
139, 0.00, 51241.68, 0.00, 0.00, 0.00, 0.00, 0.00, 0.00, 0.02, 0.01, 1.01
140, 0.00, 51218.30, 0.00, 0.00, 0.00, 0.00, 0.00, 0.00, 0.02, 0.01, 1.01
141, 0.00, 51210.93, 0.00, 0.00, 0.00, 0.00, 0.00, 0.00, 0.02, 0.01, 1.01
142, 0.00, 51226.29, 0.00, 0.00, 0.00, 0.00, 0.00, 0.00, 0.01, 0.02, 1.01
143, 0.00, 51248.91, 0.00, 0.00, 0.00, 0.00, 0.00, 0.00, 0.01, 0.02, 1.01
144, 0.00, 51238.54, 0.00, 0.00, 0.00, 0.00, 0.00, 0.00, 0.01, 0.02, 1.01
145, 0.00, 51209.34, 0.00, 0.00, 0.00, 0.00, 0.00, 0.00, 0.01, 0.02, 1.01
146, 0.00, 51223.47, 0.00, 0.00, 0.00, 0.00, 0.00, 0.00, 0.01, 0.02, 1.01
147, 0.00, 51270.43, 0.00, 0.00, 0.00, 0.00, 0.00, 0.00, 0.01, 0.01, 1.01
148, 0.00, 51272.62, 0.00, 0.00, 0.00, 0.00, 0.00, 0.00, 0.01, 0.01, 1.01
149, 0.00, 51258.36, 0.00, 0.00, 0.00, 0.00, 0.00, 0.00, 0.01, 0.01, 1.01
150, 0.00, 51261.67, 0.00, 0.00, 0.00, 0.00, 0.00, 0.00, 0.01, 0.01, 1.01
151, 0.00, 51285.05, 0.00, 0.00, 0.00, 0.00, 0.00, 0.00, 0.01, 0.01, 1.01
152, 0.00, 51283.84, 0.00, 0.00, 0.00, 0.00, 0.00, 0.00, 0.01, 0.01, 1.01
153, 0.00, 51263.03, 0.00, 0.00, 0.00, 0.00, 0.00, 0.00, 0.01, 0.01, 1.01
154, 0.00, 51259.90, 0.00, 0.00, 0.00, 0.00, 0.00, 0.00, 0.01, 0.01, 1.01
155, 0.00, 51289.34, 0.00, 0.00, 0.00, 0.00, 0.00, 0.00, 0.01, 0.01, 1.01
156, 0.00, 51292.63, 0.00, 0.00, 0.00, 0.00, 0.00, 0.00, 0.01, 0.01, 1.01
157, 0.00, 51271.91, 0.00, 0.00, 0.00, 0.00, 0.00, 0.00, 0.01, 0.01, 1.01
158, 0.00, 51266.07, 0.00, 0.00, 0.00, 0.00, 0.00, 0.00, 0.01, 0.01, 1.01
159, 0.00, 51286.99, 0.00, 0.00, 0.00, 0.00, 0.00, 0.00, 0.01, 0.01, 1.01
160, 0.00, 51302.88, 0.00, 0.00, 0.00, 0.00, 0.00, 0.00, 0.01, 0.01, 1.01
161, 0.00, 51285.85, 0.00, 0.00, 0.00, 0.00, 0.00, 0.00, 0.01, 0.01, 1.01
162, 0.00, 51278.88, 0.00, 0.00, 0.00, 0.00, 0.00, 0.00, 0.01, 0.01, 1.02
163, 0.00, 51293.59, 0.00, 0.00, 0.00, 0.00, 0.00, 0.00, 0.01, 0.01, 1.02
164, 0.00, 51310.24, 0.00, 0.00, 0.00, 0.00, 0.00, 0.00, 0.01, 0.01, 1.02
165, 0.00, 51291.35, 0.00, 0.00, 0.00, 0.00, 0.00, 0.00, 0.01, 0.01, 1.02
166, 0.00, 51278.03, 0.00, 0.00, 0.00, 0.00, 0.00, 0.00, 0.01, 0.01, 1.02
167, 0.00, 51290.34, 0.00, 0.00, 0.00, 0.00, 0.00, 0.00, 0.01, 0.01, 1.01
168, 0.00, 51306.89, 0.00, 0.00, 0.00, 0.00, 0.00, 0.00, 0.01, 0.01, 1.01
169, 0.00, 51297.90, 0.00, 0.00, 0.00, 0.00, 0.00, 0.00, 0.01, 0.01, 1.01
170, 0.00, 51287.15, 0.00, 0.00, 0.00, 0.00, 0.00, 0.00, 0.01, 0.01, 1.01
171, 0.00, 51298.23, 0.00, 0.00, 0.00, 0.00, 0.00, 0.00, 0.01, 0.01, 1.01
172, 0.00, 51321.59, 0.00, 0.00, 0.00, 0.00, 0.00, 0.00, 0.01, 0.01, 1.01
173, 0.00, 51318.82, 0.00, 0.00, 0.00, 0.00, 0.00, 0.00, 0.00, 0.01, 1.02
174, 0.00, 51300.34, 0.00, 0.00, 0.00, 0.00, 0.00, 0.00, 0.00, 0.01, 1.02
175, 0.00, 51309.79, 0.00, 0.00, 0.00, 0.00, 0.00, 0.00, 0.00, 0.01, 1.02
176, 0.00, 51329.46, 0.00, 0.00, 0.00, 0.00, 0.00, 0.00, 0.00, 0.01, 1.02
177, 0.00, 51322.73, 0.00, 0.00, 0.00, 0.00, 0.00, 0.00, 0.00, 0.01, 1.02
178, 0.00, 51303.93, 0.00, 0.00, 0.00, 0.00, 0.00, 0.00, 0.01, 0.01, 1.01
179, 0.00, 51302.75, 0.00, 0.00, 0.00, 0.00, 0.00, 0.00, 0.01, 0.01, 1.01
180, 0.00, 51322.93, 0.00, 0.00, 0.00, 0.00, 0.00, 0.00, 0.01, 0.01, 1.01
181, 0.00, 51328.75, 0.00, 0.00, 0.00, 0.00, 0.00, 0.00, 0.01, 0.01, 1.01
182, 0.00, 51312.47, 0.00, 0.00, 0.00, 0.00, 0.00, 0.00, 0.01, 0.01, 1.01
183, 0.00, 51309.19, 0.00, 0.00, 0.00, 0.00, 0.00, 0.00, 0.01, 0.01, 1.02
184, 0.00, 51328.57, 0.00, 0.00, 0.00, 0.00, 0.00, 0.00, 0.01, 0.01, 1.02
185, 0.00, 51342.92, 0.00, 0.00, 0.00, 0.00, 0.00, 0.00, 0.01, 0.01, 1.02
186, 0.00, 51326.82, 0.00, 0.00, 0.00, 0.00, 0.00, 0.00, 0.01, 0.01, 1.02
187, 0.00, 51318.66, 0.00, 0.00, 0.00, 0.00, 0.00, 0.00, 0.01, 0.01, 1.02
188, 0.00, 51327.89, 0.00, 0.00, 0.00, 0.00, 0.00, 0.00, 0.01, 0.01, 1.01
189, 0.00, 51340.59, 0.00, 0.00, 0.00, 0.00, 0.00, 0.00, 0.01, 0.01, 1.01
190, 0.00, 51328.54, 0.00, 0.00, 0.00, 0.00, 0.00, 0.00, 0.01, 0.01, 1.01
191, 0.00, 51313.08, 0.00, 0.00, 0.00, 0.00, 0.00, 0.00, 0.01, 0.01, 1.01
192, 0.00, 51324.21, 0.00, 0.00, 0.00, 0.00, 0.00, 0.00, 0.01, 0.01, 1.01
193, 0.00, 51345.44, 0.00, 0.00, 0.00, 0.00, 0.00, 0.00, 0.02, 0.01, 1.02
194, 0.00, 51335.88, 0.00, 0.00, 0.00, 0.00, 0.00, 0.00, 0.02, 0.01, 1.02
195, 0.00, 51317.43, 0.00, 0.00, 0.00, 0.00, 0.00, 0.00, 0.02, 0.01, 1.02
196, 0.00, 51328.39, 0.00, 0.00, 0.00, 0.00, 0.00, 0.00, 0.02, 0.01, 1.02
197, 0.00, 51354.27, 0.00, 0.00, 0.00, 0.00, 0.00, 0.00, 0.02, 0.01, 1.02
198, 0.00, 51340.35, 0.00, 0.00, 0.00, 0.00, 0.00, 0.00, 0.01, 0.00, 1.02
199, 0.00, 51325.88, 0.00, 0.00, 0.00, 0.00, 0.00, 0.00, 0.01, 0.00, 1.02
200, 0.00, 51332.34, 0.00, 0.00, 0.00, 0.00, 0.00, 0.00, 0.01, 0.00, 1.02
201, 0.00, 51352.71, 0.00, 0.00, 0.00, 0.00, 0.00, 0.00, 0.01, 0.00, 1.02
202, 0.00, 51360.15, 0.00, 0.00, 0.00, 0.00, 0.00, 0.00, 0.01, 0.00, 1.02
203, 0.00, 51345.35, 0.00, 0.00, 0.00, 0.00, 0.00, 0.00, 0.01, 0.00, 1.02
204, 0.00, 51341.02, 0.00, 0.00, 0.00, 0.00, 0.00, 0.00, 0.01, 0.00, 1.02
205, 0.00, 51367.32, 0.00, 0.00, 0.00, 0.00, 0.00, 0.00, 0.01, 0.00, 1.02
206, 0.00, 51369.89, 0.00, 0.00, 0.00, 0.00, 0.00, 0.00, 0.01, 0.00, 1.02
207, 0.00, 51353.09, 0.00, 0.00, 0.00, 0.00, 0.00, 0.00, 0.01, 0.00, 1.02
208, 0.00, 51337.44, 0.00, 0.00, 0.00, 0.00, 0.00, 0.00, 0.01, 0.01, 1.02
209, 0.00, 51363.35, 0.00, 0.00, 0.00, 0.00, 0.00, 0.00, 0.01, 0.01, 1.02
210, 0.00, 51379.26, 0.00, 0.00, 0.00, 0.00, 0.00, 0.00, 0.01, 0.01, 1.02
211, 0.00, 51355.28, 0.00, 0.00, 0.00, 0.00, 0.00, 0.00, 0.01, 0.01, 1.02
212, 0.00, 51340.95, 0.00, 0.00, 0.00, 0.00, 0.00, 0.00, 0.01, 0.01, 1.02
213, 0.00, 51361.07, 0.00, 0.00, 0.00, 0.00, 0.00, 0.00, 0.00, 0.01, 1.03
214, 0.00, 51381.03, 0.00, 0.00, 0.00, 0.00, 0.00, 0.00, 0.00, 0.01, 1.03
215, 0.00, 51366.05, 0.00, 0.00, 0.00, 0.00, 0.00, 0.00, 0.00, 0.01, 1.03
216, 0.00, 51356.62, 0.00, 0.00, 0.00, 0.00, 0.00, 0.00, 0.00, 0.01, 1.03
217, 0.00, 51365.78, 0.00, 0.00, 0.00, 0.00, 0.00, 0.00, 0.00, 0.01, 1.03
218, 0.00, 51383.26, 0.00, 0.00, 0.00, 0.00, 0.00, 0.00, 0.00, 0.01, 1.03
219, 0.00, 51372.24, 0.00, 0.00, 0.00, 0.00, 0.00, 0.00, 0.00, 0.01, 1.03
220, 0.00, 51359.14, 0.00, 0.00, 0.00, 0.00, 0.00, 0.00, 0.00, 0.01, 1.03
221, 0.00, 51366.05, 0.00, 0.00, 0.00, 0.00, 0.00, 0.00, 0.00, 0.01, 1.03
222, 0.00, 51387.31, 0.00, 0.00, 0.00, 0.00, 0.00, 0.00, 0.00, 0.01, 1.03
223, 0.00, 51373.32, 0.00, 0.00, 0.00, 0.00, 0.00, 0.00, 0.00, 0.01, 1.03
224, 0.00, 51352.26, 0.00, 0.00, 0.00, 0.00, 0.00, 0.00, 0.00, 0.01, 1.03
225, 0.00, 51355.63, 0.00, 0.00, 0.00, 0.00, 0.00, 0.00, 0.00, 0.01, 1.03
226, 0.00, 51387.11, 0.00, 0.00, 0.00, 0.00, 0.00, 0.00, 0.00, 0.01, 1.03
227, 0.00, 51387.24, 0.00, 0.00, 0.00, 0.00, 0.00, 0.00, 0.00, 0.01, 1.03
228, 0.00, 51371.26, 0.00, 0.00, 0.00, 0.00, 0.00, 0.00, 0.00, 0.01, 1.03
229, 0.00, 51369.25, 0.00, 0.00, 0.00, 0.00, 0.00, 0.00, 0.00, 0.01, 1.03
230, 0.00, 51392.85, 0.00, 0.00, 0.00, 0.00, 0.00, 0.00, 0.00, 0.01, 1.03
231, 0.00, 51401.50, 0.00, 0.00, 0.00, 0.00, 0.00, 0.00, 0.00, 0.01, 1.03
232, 0.00, 51382.61, 0.00, 0.00, 0.00, 0.00, 0.00, 0.00, 0.00, 0.01, 1.03
233, 0.00, 51373.20, 0.00, 0.00, 0.00, 0.00, 0.00, 0.00, 0.00, 0.01, 1.03
234, 0.00, 51393.14, 0.00, 0.00, 0.00, 0.00, 0.00, 0.00, 0.00, 0.01, 1.03
235, 0.00, 51409.19, 0.00, 0.00, 0.00, 0.00, 0.00, 0.00, 0.00, 0.01, 1.03
236, 0.00, 51394.26, 0.00, 0.00, 0.00, 0.00, 0.00, 0.00, 0.00, 0.01, 1.03
237, 0.00, 51385.18, 0.00, 0.00, 0.00, 0.00, 0.00, 0.00, 0.00, 0.01, 1.03
238, 0.00, 51398.15, 0.00, 0.00, 0.00, 0.00, 0.00, 0.00, 0.00, 0.01, 1.02
239, 0.00, 51412.39, 0.00, 0.00, 0.00, 0.00, 0.00, 0.00, 0.00, 0.01, 1.02
240, 0.00, 51402.62, 0.00, 0.00, 0.00, 0.00, 0.00, 0.00, 0.00, 0.01, 1.02
241, 0.00, 51393.18, 0.00, 0.00, 0.00, 0.00, 0.00, 0.00, 0.00, 0.01, 1.02
242, 0.00, 51398.68, 0.00, 0.00, 0.00, 0.00, 0.00, 0.00, 0.00, 0.01, 1.02
243, 0.00, 51416.30, 0.00, 0.00, 0.00, 0.00, 0.00, 0.00, 0.01, 0.02, 1.02
244, 0.00, 51402.77, 0.00, 0.00, 0.00, 0.00, 0.00, 0.00, 0.01, 0.02, 1.02
245, 0.00, 51389.03, 0.00, 0.00, 0.00, 0.00, 0.00, 0.00, 0.01, 0.02, 1.02
246, 0.00, 51395.58, 0.00, 0.00, 0.00, 0.00, 0.00, 0.00, 0.01, 0.02, 1.02
247, 0.00, 51411.47, 0.00, 0.00, 0.00, 0.00, 0.00, 0.00, 0.01, 0.02, 1.02
248, 0.00, 51410.93, 0.00, 0.00, 0.00, 0.00, 0.00, 0.00, 0.01, 0.02, 1.02
249, 0.00, 51389.99, 0.00, 0.00, 0.00, 0.00, 0.00, 0.00, 0.01, 0.02, 1.02
250, 0.00, 51387.91, 0.00, 0.00, 0.00, 0.00, 0.00, 0.00, 0.01, 0.02, 1.02
251, 0.00, 51415.96, 0.00, 0.00, 0.00, 0.00, 0.00, 0.00, 0.01, 0.02, 1.02
252, 0.00, 51414.75, 0.00, 0.00, 0.00, 0.00, 0.00, 0.00, 0.01, 0.02, 1.02
253, 0.00, 51393.01, 0.00, 0.00, 0.00, 0.00, 0.00, 0.00, 0.01, 0.01, 1.02
254, 0.00, 51384.58, 0.00, 0.00, 0.00, 0.00, 0.00, 0.00, 0.01, 0.01, 1.02
255, 0.00, 51405.08, 0.00, 0.00, 0.00, 0.00, 0.00, 0.00, 0.01, 0.01, 1.02
0, 0.00, 51417.93, 0.00, 0.00, 0.00, 0.00, 0.00, 0.00, 0.01, 0.01, 1.02
1, 0.00, 51408.54, 0.00, 0.00, 0.00, 0.00, 0.00, 0.00, 0.01, 0.01, 1.02
2, 0.00, 51396.18, 0.00, 0.00, 0.00, 0.00, 0.00, 0.00, 0.01, 0.01, 1.02
3, 0.00, 51416.52, 0.00, 0.00, 0.00, 0.00, 0.00, 0.00, 0.01, 0.01, 1.02
4, 0.00, 51435.18, 0.00, 0.00, 0.00, 0.00, 0.00, 0.00, 0.01, 0.01, 1.02
5, 0.00, 51421.89, 0.00, 0.00, 0.00, 0.00, 0.00, 0.00, 0.01, 0.01, 1.02
6, 0.00, 51399.49, 0.00, 0.00, 0.00, 0.00, 0.00, 0.00, 0.01, 0.01, 1.02
7, 0.00, 51415.36, 0.00, 0.00, 0.00, 0.00, 0.00, 0.00, 0.01, 0.01, 1.03
8, 0.00, 51427.70, 0.00, 0.00, 0.00, 0.00, 0.00, 0.00, 0.01, 0.01, 1.03
9, 0.00, 51414.53, 0.00, 0.00, 0.00, 0.00, 0.00, 0.00, 0.01, 0.01, 1.03
10, 0.00, 51402.53, 0.00, 0.00, 0.00, 0.00, 0.00, 0.00, 0.01, 0.01, 1.03
11, 0.00, 51407.74, 0.00, 0.00, 0.00, 0.00, 0.00, 0.00, 0.01, 0.01, 1.03
12, 0.00, 51425.42, 0.00, 0.00, 0.00, 0.00, 0.00, 0.00, 0.01, 0.01, 1.03
13, 0.00, 51418.58, 0.00, 0.00, 0.00, 0.00, 0.00, 0.00, 0.01, 0.01, 1.03
14, 0.00, 51399.13, 0.00, 0.00, 0.00, 0.00, 0.00, 0.00, 0.01, 0.01, 1.03
15, 0.00, 51409.19, 0.00, 0.00, 0.00, 0.00, 0.00, 0.00, 0.01, 0.01, 1.03
16, 0.00, 51428.97, 0.00, 0.00, 0.00, 0.00, 0.00, 0.00, 0.01, 0.01, 1.03
17, 0.00, 51424.97, 0.00, 0.00, 0.00, 0.00, 0.00, 0.00, 0.00, 0.01, 1.02
18, 0.00, 51408.88, 0.00, 0.00, 0.00, 0.00, 0.00, 0.00, 0.00, 0.01, 1.02
19, 0.00, 51417.19, 0.00, 0.00, 0.00, 0.00, 0.00, 0.00, 0.00, 0.01, 1.02
20, 0.00, 51439.10, 0.00, 0.00, 0.00, 0.00, 0.00, 0.00, 0.00, 0.01, 1.02
21, 0.00, 51442.29, 0.00, 0.00, 0.00, 0.00, 0.00, 0.00, 0.00, 0.01, 1.02
22, 0.00, 51423.96, 0.00, 0.00, 0.00, 0.00, 0.00, 0.00, 0.01, 0.01, 1.02
23, 0.00, 51415.09, 0.00, 0.00, 0.00, 0.00, 0.00, 0.00, 0.01, 0.01, 1.02
24, 0.00, 51441.78, 0.00, 0.00, 0.00, 0.00, 0.00, 0.00, 0.01, 0.01, 1.02
25, 0.00, 51452.46, 0.00, 0.00, 0.00, 0.00, 0.00, 0.00, 0.01, 0.01, 1.02
26, 0.00, 51427.43, 0.00, 0.00, 0.00, 0.00, 0.00, 0.00, 0.01, 0.01, 1.02
27, 0.00, 51420.84, 0.00, 0.00, 0.00, 0.00, 0.00, 0.00, 0.01, 0.02, 1.01
28, 0.00, 51442.63, 0.00, 0.00, 0.00, 0.00, 0.00, 0.00, 0.01, 0.02, 1.01
29, 0.00, 51449.78, 0.00, 0.00, 0.00, 0.00, 0.00, 0.00, 0.01, 0.02, 1.01
30, 0.00, 51433.95, 0.00, 0.00, 0.00, 0.00, 0.00, 0.00, 0.01, 0.02, 1.01
31, 0.00, 51423.05, 0.00, 0.00, 0.00, 0.00, 0.00, 0.00, 0.01, 0.02, 1.01
32, 0.00, 51434.07, 0.00, 0.00, 0.00, 0.00, 0.00, 0.00, 0.01, 0.01, 1.02
33, 0.00, 51449.76, 0.00, 0.00, 0.00, 0.00, 0.00, 0.00, 0.01, 0.01, 1.02
34, 0.00, 51441.24, 0.00, 0.00, 0.00, 0.00, 0.00, 0.00, 0.01, 0.01, 1.02
35, 0.00, 51421.46, 0.00, 0.00, 0.00, 0.00, 0.00, 0.00, 0.01, 0.01, 1.02
36, 0.00, 51436.59, 0.00, 0.00, 0.00, 0.00, 0.00, 0.00, 0.01, 0.01, 1.02
37, 0.00, 51457.38, 0.00, 0.00, 0.00, 0.00, 0.00, 0.00, 0.01, 0.01, 1.02
38, 0.00, 51447.05, 0.00, 0.00, 0.00, 0.00, 0.00, 0.00, 0.01, 0.01, 1.02
39, 0.00, 51435.81, 0.00, 0.00, 0.00, 0.00, 0.00, 0.00, 0.01, 0.01, 1.02
40, 0.00, 51446.54, 0.00, 0.00, 0.00, 0.00, 0.00, 0.00, 0.01, 0.01, 1.02
41, 0.00, 51465.14, 0.00, 0.00, 0.00, 0.00, 0.00, 0.00, 0.01, 0.01, 1.02
42, 0.00, 51464.58, 0.00, 0.00, 0.00, 0.00, 0.00, 0.00, 0.01, 0.02, 1.02
43, 0.00, 51445.33, 0.00, 0.00, 0.00, 0.00, 0.00, 0.00, 0.01, 0.02, 1.02
44, 0.00, 51447.41, 0.00, 0.00, 0.00, 0.00, 0.00, 0.00, 0.01, 0.02, 1.02
45, 0.00, 51468.98, 0.00, 0.00, 0.00, 0.00, 0.00, 0.00, 0.01, 0.02, 1.02
46, 0.00, 51473.16, 0.00, 0.00, 0.00, 0.00, 0.00, 0.00, 0.01, 0.02, 1.02
47, 0.00, 51455.39, 0.00, 0.00, 0.00, 0.00, 0.00, 0.00, 0.01, 0.01, 1.02
48, 0.00, 51446.07, 0.00, 0.00, 0.00, 0.00, 0.00, 0.00, 0.01, 0.01, 1.02
49, 0.00, 51461.58, 0.00, 0.00, 0.00, 0.00, 0.00, 0.00, 0.01, 0.01, 1.02
50, 0.00, 51467.95, 0.00, 0.00, 0.00, 0.00, 0.00, 0.00, 0.01, 0.01, 1.02
51, 0.00, 51449.38, 0.00, 0.00, 0.00, 0.00, 0.00, 0.00, 0.01, 0.01, 1.02
52, 0.00, 51442.52, 0.00, 0.00, 0.00, 0.00, 0.00, 0.00, 0.01, 0.01, 1.02
53, 0.00, 51462.83, 0.00, 0.00, 0.00, 0.00, 0.00, 0.00, 0.01, 0.01, 1.02
54, 0.00, 51477.45, 0.00, 0.00, 0.00, 0.00, 0.00, 0.00, 0.01, 0.01, 1.02
55, 0.00, 51462.45, 0.00, 0.00, 0.00, 0.00, 0.00, 0.00, 0.01, 0.01, 1.02
56, 0.00, 51444.08, 0.00, 0.00, 0.00, 0.00, 0.00, 0.00, 0.01, 0.01, 1.02
57, 0.00, 51459.59, 0.00, 0.00, 0.00, 0.00, 0.00, 0.00, 0.01, 0.01, 1.02
58, 0.00, 51484.96, 0.00, 0.00, 0.00, 0.00, 0.00, 0.00, 0.01, 0.01, 1.02
59, 0.00, 51472.54, 0.00, 0.00, 0.00, 0.00, 0.00, 0.00, 0.01, 0.01, 1.02
60, 0.00, 51453.11, 0.00, 0.00, 0.00, 0.00, 0.00, 0.00, 0.01, 0.01, 1.02
61, 0.00, 51463.26, 0.00, 0.00, 0.00, 0.00, 0.00, 0.00, 0.01, 0.01, 1.02
62, 0.00, 51483.89, 0.00, 0.00, 0.00, 0.00, 0.00, 0.00, 0.01, 0.01, 1.02
63, 0.00, 51475.26, 0.00, 0.00, 0.00, 0.00, 0.00, 0.00, 0.01, 0.01, 1.02
64, 0.00, 51450.76, 0.00, 0.00, 0.00, 0.00, 0.00, 0.00, 0.01, 0.01, 1.02
65, 0.00, 51459.52, 0.00, 0.00, 0.00, 0.00, 0.00, 0.00, 0.01, 0.01, 1.02
66, 0.00, 51487.27, 0.00, 0.00, 0.00, 0.00, 0.00, 0.00, 0.01, 0.01, 1.02
67, 0.00, 51484.80, 0.00, 0.00, 0.00, 0.00, 0.00, 0.00, 0.01, 0.01, 1.02
68, 0.00, 51461.85, 0.00, 0.00, 0.00, 0.00, 0.00, 0.00, 0.01, 0.01, 1.02
69, 0.00, 51454.77, 0.00, 0.00, 0.00, 0.00, 0.00, 0.00, 0.01, 0.01, 1.02
70, 0.00, 51479.78, 0.00, 0.00, 0.00, 0.00, 0.00, 0.00, 0.01, 0.01, 1.02
71, 0.00, 51491.00, 0.00, 0.00, 0.00, 0.00, 0.00, 0.00, 0.01, 0.01, 1.02
72, 0.00, 51467.41, 0.00, 0.00, 0.00, 0.00, 0.00, 0.00, 0.01, 0.01, 1.02
73, 0.00, 51455.14, 0.00, 0.00, 0.00, 0.00, 0.00, 0.00, 0.01, 0.01, 1.02
74, 0.00, 51485.57, 0.00, 0.00, 0.00, 0.00, 0.00, 0.00, 0.01, 0.01, 1.02
75, 0.00, 51492.56, 0.00, 0.00, 0.00, 0.00, 0.00, 0.00, 0.01, 0.01, 1.02
76, 0.00, 51476.76, 0.00, 0.00, 0.00, 0.00, 0.00, 0.00, 0.01, 0.01, 1.02
77, 0.00, 51466.63, 0.00, 0.00, 0.00, 0.00, 0.00, 0.00, 0.00, 0.01, 1.02
78, 0.00, 51489.59, 0.00, 0.00, 0.00, 0.00, 0.00, 0.00, 0.00, 0.01, 1.02
79, 0.00, 51510.80, 0.00, 0.00, 0.00, 0.00, 0.00, 0.00, 0.00, 0.01, 1.02
80, 0.00, 51503.80, 0.00, 0.00, 0.00, 0.00, 0.00, 0.00, 0.00, 0.01, 1.02
81, 0.00, 51489.28, 0.00, 0.00, 0.00, 0.00, 0.00, 0.00, 0.00, 0.01, 1.02
82, 0.00, 51497.66, 0.00, 0.00, 0.00, 0.00, 0.00, 0.00, 0.01, 0.01, 1.02
83, 0.00, 51517.26, 0.00, 0.00, 0.00, 0.00, 0.00, 0.00, 0.01, 0.01, 1.02
84, 0.00, 51505.04, 0.00, 0.00, 0.00, 0.00, 0.00, 0.00, 0.01, 0.01, 1.02
85, 0.00, 51482.10, 0.00, 0.00, 0.00, 0.00, 0.00, 0.00, 0.01, 0.01, 1.02
86, 0.00, 51488.71, 0.00, 0.00, 0.00, 0.00, 0.00, 0.00, 0.01, 0.01, 1.02
87, 0.00, 51512.34, 0.00, 0.00, 0.00, 0.00, 0.00, 0.00, 0.01, 0.01, 1.02
88, 0.00, 51505.64, 0.00, 0.00, 0.00, 0.00, 0.00, 0.00, 0.01, 0.01, 1.02
89, 0.00, 51482.12, 0.00, 0.00, 0.00, 0.00, 0.00, 0.00, 0.01, 0.01, 1.02
90, 0.00, 51510.22, 0.00, 0.00, 0.00, 0.00, 0.00, 0.00, 0.01, 0.01, 1.02
91, 0.00, 51587.58, 0.00, 0.00, 0.00, 0.00, 0.00, 0.00, 0.01, 0.01, 1.02
92, 0.00, 51633.04, 0.00, 0.00, 0.00, 0.00, 0.00, 0.00, 0.01, 0.01, 1.02
93, 0.00, 51654.37, 0.00, 0.00, 0.00, 0.00, 0.00, 0.00, 0.01, 0.01, 1.02
94, 0.00, 51686.75, 0.00, 0.00, 0.00, 0.00, 0.00, 0.00, 0.01, 0.01, 1.02
95, 0.00, 51749.20, 0.00, 0.00, 0.00, 0.00, 0.00, 0.00, 0.01, 0.01, 1.02
96, 0.00, 51790.46, 0.00, 0.00, 0.00, 0.00, 0.00, 0.00, 0.01, 0.01, 1.02
97, 0.00, 51803.23, 0.00, 0.00, 0.00, 0.00, 0.00, 0.00, 0.01, 0.01, 1.02
98, 0.00, 51815.28, 0.00, 0.00, 0.00, 0.00, 0.00, 0.00, 0.01, 0.01, 1.02
99, 0.00, 51852.47, 0.00, 0.00, 0.00, 0.00, 0.00, 0.00, 0.01, 0.01, 1.02
100, 0.00, 51885.86, 0.00, 0.00, 0.00, 0.00, 0.00, 0.00, 0.01, 0.01, 1.02
101, 0.00, 51888.25, 0.00, 0.00, 0.00, 0.00, 0.00, 0.00, 0.01, 0.01, 1.02
102, 0.00, 51885.80, 0.00, 0.00, 0.00, 0.00, 0.00, 0.00, 0.00, 0.01, 1.02
103, 0.00, 51917.29, 0.00, 0.00, 0.00, 0.00, 0.00, 0.00, 0.00, 0.01, 1.02
104, 0.00, 51938.84, 0.00, 0.00, 0.00, 0.00, 0.00, 0.00, 0.00, 0.01, 1.02
105, 0.00, 51924.04, 0.00, 0.00, 0.00, 0.00, 0.00, 0.00, 0.00, 0.01, 1.02
106, 0.00, 51905.75, 0.00, 0.00, 0.00, 0.00, 0.00, 0.00, 0.00, 0.01, 1.02
107, 0.00, 51914.85, 0.00, 0.00, 0.00, 0.00, 0.00, 0.00, 0.00, 0.01, 1.01
108, 0.00, 51925.31, 0.00, 0.00, 0.00, 0.00, 0.00, 0.00, 0.00, 0.01, 1.01
109, 0.00, 51908.53, 0.00, 0.00, 0.00, 0.00, 0.00, 0.00, 0.00, 0.01, 1.01
110, 0.00, 51870.89, 0.00, 0.00, 0.00, 0.00, 0.00, 0.00, 0.00, 0.01, 1.01
111, 0.00, 51859.04, 0.00, 0.00, 0.00, 0.00, 0.00, 0.00, 0.00, 0.01, 1.01
112, 0.00, 51865.37, 0.00, 0.00, 0.00, 0.00, 0.00, 0.00, 0.01, 0.01, 1.01
113, 0.00, 51838.41, 0.00, 0.00, 0.00, 0.00, 0.00, 0.00, 0.01, 0.01, 1.01
114, 0.00, 51804.97, 0.00, 0.00, 0.00, 0.00, 0.00, 0.00, 0.01, 0.01, 1.01
115, 0.00, 51793.50, 0.00, 0.00, 0.00, 0.00, 0.00, 0.00, 0.01, 0.01, 1.01
116, 0.00, 51794.62, 0.00, 0.00, 0.00, 0.00, 0.00, 0.00, 0.01, 0.01, 1.01
117, 0.00, 51770.75, 0.00, 0.00, 0.00, 0.00, 0.00, 0.00, 0.01, 0.02, 1.01
118, 0.00, 51723.63, 0.00, 0.00, 0.00, 0.00, 0.00, 0.00, 0.01, 0.02, 1.01
119, 0.00, 51699.83, 0.00, 0.00, 0.00, 0.00, 0.00, 0.00, 0.01, 0.02, 1.01
120, 0.00, 51698.33, 0.00, 0.00, 0.00, 0.00, 0.00, 0.00, 0.01, 0.02, 1.01
121, 0.00, 51677.03, 0.00, 0.00, 0.00, 0.00, 0.00, 0.00, 0.01, 0.02, 1.01
122, 0.00, 51630.02, 0.00, 0.00, 0.00, 0.00, 0.00, 0.00, 0.01, 0.01, 1.01
123, 0.00, 51593.50, 0.00, 0.00, 0.00, 0.00, 0.00, 0.00, 0.01, 0.01, 1.01
124, 0.00, 51594.13, 0.00, 0.00, 0.00, 0.00, 0.00, 0.00, 0.01, 0.01, 1.01
125, 0.00, 51594.69, 0.00, 0.00, 0.00, 0.00, 0.00, 0.00, 0.01, 0.01, 1.01
126, 0.00, 51565.36, 0.00, 0.00, 0.00, 0.00, 0.00, 0.00, 0.01, 0.01, 1.01
127, 0.00, 51544.66, 0.00, 0.00, 0.00, 0.00, 0.00, 0.00, 0.01, 0.02, 1.02
128, 0.00, 51560.27, 0.00, 0.00, 0.00, 0.00, 0.00, 0.00, 0.01, 0.02, 1.02
129, 0.00, 51566.70, 0.00, 0.00, 0.00, 0.00, 0.00, 0.00, 0.01, 0.02, 1.02
130, 0.00, 51549.43, 0.00, 0.00, 0.00, 0.00, 0.00, 0.00, 0.01, 0.02, 1.02
131, 0.00, 51545.42, 0.00, 0.00, 0.00, 0.00, 0.00, 0.00, 0.01, 0.02, 1.02
132, 0.00, 51557.94, 0.00, 0.00, 0.00, 0.00, 0.00, 0.00, 0.01, 0.01, 1.02
133, 0.00, 51590.53, 0.00, 0.00, 0.00, 0.00, 0.00, 0.00, 0.01, 0.01, 1.02
134, 0.00, 51589.84, 0.00, 0.00, 0.00, 0.00, 0.00, 0.00, 0.01, 0.01, 1.02
135, 0.00, 51578.05, 0.00, 0.00, 0.00, 0.00, 0.00, 0.00, 0.01, 0.01, 1.02
136, 0.00, 51593.17, 0.00, 0.00, 0.00, 0.00, 0.00, 0.00, 0.01, 0.01, 1.02
137, 0.00, 51620.55, 0.00, 0.00, 0.00, 0.00, 0.00, 0.00, 0.00, 0.01, 1.02
138, 0.00, 51614.29, 0.00, 0.00, 0.00, 0.00, 0.00, 0.00, 0.00, 0.01, 1.02
139, 0.00, 51597.28, 0.00, 0.00, 0.00, 0.00, 0.00, 0.00, 0.00, 0.01, 1.02
140, 0.00, 51600.92, 0.00, 0.00, 0.00, 0.00, 0.00, 0.00, 0.00, 0.01, 1.02
141, 0.00, 51621.71, 0.00, 0.00, 0.00, 0.00, 0.00, 0.00, 0.00, 0.01, 1.02
142, 0.00, 51616.99, 0.00, 0.00, 0.00, 0.00, 0.00, 0.00, 0.00, 0.01, 1.02
143, 0.00, 51589.86, 0.00, 0.00, 0.00, 0.00, 0.00, 0.00, 0.00, 0.01, 1.02
144, 0.00, 51586.19, 0.00, 0.00, 0.00, 0.00, 0.00, 0.00, 0.00, 0.01, 1.02
145, 0.00, 51601.28, 0.00, 0.00, 0.00, 0.00, 0.00, 0.00, 0.00, 0.01, 1.02
146, 0.00, 51590.02, 0.00, 0.00, 0.00, 0.00, 0.00, 0.00, 0.00, 0.01, 1.02
147, 0.00, 51563.37, 0.00, 0.00, 0.00, 0.00, 0.00, 0.00, 0.01, 0.01, 1.02
148, 0.00, 51540.35, 0.00, 0.00, 0.00, 0.00, 0.00, 0.00, 0.01, 0.01, 1.02
149, 0.00, 51538.41, 0.00, 0.00, 0.00, 0.00, 0.00, 0.00, 0.01, 0.01, 1.02
150, 0.00, 51535.39, 0.00, 0.00, 0.00, 0.00, 0.00, 0.00, 0.01, 0.01, 1.02
151, 0.00, 51499.51, 0.00, 0.00, 0.00, 0.00, 0.00, 0.00, 0.01, 0.01, 1.02
152, 0.00, 51471.44, 0.00, 0.00, 0.00, 0.00, 0.00, 0.00, 0.00, 0.01, 1.01
153, 0.00, 51475.80, 0.00, 0.00, 0.00, 0.00, 0.00, 0.00, 0.00, 0.01, 1.01
154, 0.00, 51477.09, 0.00, 0.00, 0.00, 0.00, 0.00, 0.00, 0.00, 0.01, 1.01
155, 0.00, 51441.18, 0.00, 0.00, 0.00, 0.00, 0.00, 0.00, 0.00, 0.01, 1.01
156, 0.00, 51402.73, 0.00, 0.00, 0.00, 0.00, 0.00, 0.00, 0.00, 0.01, 1.01
157, 0.00, 51404.50, 0.00, 0.00, 0.00, 0.00, 0.00, 0.00, 0.00, 0.01, 1.01
158, 0.00, 51421.55, 0.00, 0.00, 0.00, 0.00, 0.00, 0.00, 0.01, 0.01, 1.02
159, 0.00, 51412.61, 0.00, 0.00, 0.00, 0.00, 0.00, 0.00, 0.01, 0.01, 1.02
160, 0.00, 51393.01, 0.00, 0.00, 0.00, 0.00, 0.00, 0.00, 0.01, 0.01, 1.02
161, 0.00, 51406.44, 0.00, 0.00, 0.00, 0.00, 0.00, 0.00, 0.01, 0.01, 1.02
162, 0.00, 51439.21, 0.00, 0.00, 0.00, 0.00, 0.00, 0.00, 0.01, 0.01, 1.02
163, 0.00, 51454.81, 0.00, 0.00, 0.00, 0.00, 0.00, 0.00, 0.01, 0.01, 1.02
164, 0.00, 51453.25, 0.00, 0.00, 0.00, 0.00, 0.00, 0.00, 0.01, 0.01, 1.02
165, 0.00, 51465.00, 0.00, 0.00, 0.00, 0.00, 0.00, 0.00, 0.01, 0.01, 1.02
166, 0.00, 51496.92, 0.00, 0.00, 0.00, 0.00, 0.00, 0.00, 0.01, 0.01, 1.02
167, 0.00, 51500.18, 0.00, 0.00, 0.00, 0.00, 0.00, 0.00, 0.01, 0.01, 1.02
168, 0.00, 51483.09, 0.00, 0.00, 0.00, 0.00, 0.00, 0.00, 0.01, 0.01, 1.02
169, 0.00, 51468.98, 0.00, 0.00, 0.00, 0.00, 0.00, 0.00, 0.01, 0.01, 1.02
170, 0.00, 51485.30, 0.00, 0.00, 0.00, 0.00, 0.00, 0.00, 0.01, 0.01, 1.02
171, 0.00, 51499.11, 0.00, 0.00, 0.00, 0.00, 0.00, 0.00, 0.01, 0.01, 1.02
172, 0.00, 51483.31, 0.00, 0.00, 0.00, 0.00, 0.00, 0.00, 0.01, 0.01, 1.02
173, 0.00, 51474.23, 0.00, 0.00, 0.00, 0.00, 0.00, 0.00, 0.01, 0.01, 1.01
174, 0.00, 51475.93, 0.00, 0.00, 0.00, 0.00, 0.00, 0.00, 0.01, 0.01, 1.01
175, 0.00, 51478.97, 0.00, 0.00, 0.00, 0.00, 0.00, 0.00, 0.01, 0.01, 1.01
176, 0.00, 51450.68, 0.00, 0.00, 0.00, 0.00, 0.00, 0.00, 0.01, 0.01, 1.01
177, 0.00, 51430.20, 0.00, 0.00, 0.00, 0.00, 0.00, 0.00, 0.01, 0.01, 1.01
178, 0.00, 51442.47, 0.00, 0.00, 0.00, 0.00, 0.00, 0.00, 0.01, 0.01, 1.01
179, 0.00, 51449.91, 0.00, 0.00, 0.00, 0.00, 0.00, 0.00, 0.01, 0.01, 1.01
180, 0.00, 51437.64, 0.00, 0.00, 0.00, 0.00, 0.00, 0.00, 0.01, 0.01, 1.01
181, 0.00, 51426.96, 0.00, 0.00, 0.00, 0.00, 0.00, 0.00, 0.01, 0.01, 1.01
182, 0.00, 51441.15, 0.00, 0.00, 0.00, 0.00, 0.00, 0.00, 0.01, 0.01, 1.01
183, 0.00, 51466.21, 0.00, 0.00, 0.00, 0.00, 0.00, 0.00, 0.01, 0.01, 1.01
184, 0.00, 51466.77, 0.00, 0.00, 0.00, 0.00, 0.00, 0.00, 0.01, 0.01, 1.01
185, 0.00, 51455.82, 0.00, 0.00, 0.00, 0.00, 0.00, 0.00, 0.01, 0.01, 1.01
186, 0.00, 51487.93, 0.00, 0.00, 0.00, 0.00, 0.00, 0.00, 0.01, 0.01, 1.01
187, 0.00, 51511.34, 0.00, 0.00, 0.00, 0.00, 0.00, 0.00, 0.01, 0.01, 1.01
188, 0.00, 51508.83, 0.00, 0.00, 0.00, 0.00, 0.00, 0.00, 0.01, 0.01, 1.02
189, 0.00, 51506.11, 0.00, 0.00, 0.00, 0.00, 0.00, 0.00, 0.01, 0.01, 1.02
190, 0.00, 51522.00, 0.00, 0.00, 0.00, 0.00, 0.00, 0.00, 0.01, 0.01, 1.02
191, 0.00, 51555.44, 0.00, 0.00, 0.00, 0.00, 0.00, 0.00, 0.01, 0.01, 1.02
192, 0.00, 51556.78, 0.00, 0.00, 0.00, 0.00, 0.00, 0.00, 0.01, 0.01, 1.02
193, 0.00, 51541.58, 0.00, 0.00, 0.00, 0.00, 0.00, 0.00, 0.01, 0.01, 1.02
194, 0.00, 51545.67, 0.00, 0.00, 0.00, 0.00, 0.00, 0.00, 0.01, 0.01, 1.02
195, 0.00, 51563.28, 0.00, 0.00, 0.00, 0.00, 0.00, 0.00, 0.01, 0.01, 1.02
196, 0.00, 51568.04, 0.00, 0.00, 0.00, 0.00, 0.00, 0.00, 0.01, 0.01, 1.02
197, 0.00, 51549.58, 0.00, 0.00, 0.00, 0.00, 0.00, 0.00, 0.01, 0.01, 1.02
198, 0.00, 51534.49, 0.00, 0.00, 0.00, 0.00, 0.00, 0.00, 0.01, 0.01, 1.02
199, 0.00, 51548.87, 0.00, 0.00, 0.00, 0.00, 0.00, 0.00, 0.01, 0.01, 1.02
200, 0.00, 51560.20, 0.00, 0.00, 0.00, 0.00, 0.00, 0.00, 0.01, 0.01, 1.02
201, 0.00, 51542.65, 0.00, 0.00, 0.00, 0.00, 0.00, 0.00, 0.01, 0.01, 1.02
202, 0.00, 51532.30, 0.00, 0.00, 0.00, 0.00, 0.00, 0.00, 0.01, 0.01, 1.02
203, 0.00, 51562.21, 0.00, 0.00, 0.00, 0.00, 0.00, 0.00, 0.01, 0.01, 1.03
204, 0.00, 51584.43, 0.00, 0.00, 0.00, 0.00, 0.00, 0.00, 0.01, 0.01, 1.03
205, 0.00, 51588.81, 0.00, 0.00, 0.00, 0.00, 0.00, 0.00, 0.01, 0.01, 1.03
206, 0.00, 51579.53, 0.00, 0.00, 0.00, 0.00, 0.00, 0.00, 0.01, 0.01, 1.03
207, 0.00, 51596.90, 0.00, 0.00, 0.00, 0.00, 0.00, 0.00, 0.01, 0.01, 1.03
208, 0.00, 51629.84, 0.00, 0.00, 0.00, 0.00, 0.00, 0.00, 0.02, 0.01, 1.02
209, 0.00, 51630.85, 0.00, 0.00, 0.00, 0.00, 0.00, 0.00, 0.02, 0.01, 1.02
210, 0.00, 51613.39, 0.00, 0.00, 0.00, 0.00, 0.00, 0.00, 0.02, 0.01, 1.02
211, 0.00, 51621.04, 0.00, 0.00, 0.00, 0.00, 0.00, 0.00, 0.02, 0.01, 1.02
212, 0.00, 51641.16, 0.00, 0.00, 0.00, 0.00, 0.00, 0.00, 0.02, 0.01, 1.02
213, 0.00, 51634.47, 0.00, 0.00, 0.00, 0.00, 0.00, 0.00, 0.01, 0.01, 1.02
214, 0.00, 51606.29, 0.00, 0.00, 0.00, 0.00, 0.00, 0.00, 0.01, 0.01, 1.02
215, 0.00, 51587.54, 0.00, 0.00, 0.00, 0.00, 0.00, 0.00, 0.01, 0.01, 1.02
216, 0.00, 51606.80, 0.00, 0.00, 0.00, 0.00, 0.00, 0.00, 0.01, 0.01, 1.02
217, 0.00, 51600.77, 0.00, 0.00, 0.00, 0.00, 0.00, 0.00, 0.01, 0.01, 1.02
218, 0.00, 51572.54, 0.00, 0.00, 0.00, 0.00, 0.00, 0.00, 0.01, 0.01, 1.01
219, 0.00, 51551.88, 0.00, 0.00, 0.00, 0.00, 0.00, 0.00, 0.01, 0.01, 1.01
220, 0.00, 51554.61, 0.00, 0.00, 0.00, 0.00, 0.00, 0.00, 0.01, 0.01, 1.01
221, 0.00, 51535.70, 0.00, 0.00, 0.00, 0.00, 0.00, 0.00, 0.01, 0.01, 1.01
222, 0.00, 51490.89, 0.00, 0.00, 0.00, 0.00, 0.00, 0.00, 0.01, 0.01, 1.01
223, 0.00, 51452.21, 0.00, 0.00, 0.00, 0.00, 0.00, 0.00, 0.01, 0.01, 1.01
224, 0.00, 51436.05, 0.00, 0.00, 0.00, 0.00, 0.00, 0.00, 0.01, 0.01, 1.01
225, 0.00, 51419.43, 0.00, 0.00, 0.00, 0.00, 0.00, 0.00, 0.01, 0.01, 1.01
226, 0.00, 51381.70, 0.00, 0.00, 0.00, 0.00, 0.00, 0.00, 0.01, 0.01, 1.01
227, 0.00, 51360.57, 0.00, 0.00, 0.00, 0.00, 0.00, 0.00, 0.01, 0.01, 1.01
228, 0.00, 51375.30, 0.00, 0.00, 0.00, 0.00, 0.00, 0.00, 0.01, 0.01, 1.01
229, 0.00, 51392.02, 0.00, 0.00, 0.00, 0.00, 0.00, 0.00, 0.01, 0.01, 1.01
230, 0.00, 51377.18, 0.00, 0.00, 0.00, 0.00, 0.00, 0.00, 0.01, 0.01, 1.01
231, 0.00, 51364.93, 0.00, 0.00, 0.00, 0.00, 0.00, 0.00, 0.01, 0.01, 1.01
232, 0.00, 51377.90, 0.00, 0.00, 0.00, 0.00, 0.00, 0.00, 0.01, 0.01, 1.01
233, 0.00, 51395.00, 0.00, 0.00, 0.00, 0.00, 0.00, 0.00, 0.01, 0.01, 1.01
234, 0.00, 51387.17, 0.00, 0.00, 0.00, 0.00, 0.00, 0.00, 0.01, 0.01, 1.01
235, 0.00, 51375.55, 0.00, 0.00, 0.00, 0.00, 0.00, 0.00, 0.01, 0.01, 1.01
236, 0.00, 51378.77, 0.00, 0.00, 0.00, 0.00, 0.00, 0.00, 0.01, 0.01, 1.01
237, 0.00, 51401.99, 0.00, 0.00, 0.00, 0.00, 0.00, 0.00, 0.01, 0.01, 1.01
238, 0.00, 51404.56, 0.00, 0.00, 0.00, 0.00, 0.00, 0.00, 0.01, 0.01, 1.01
239, 0.00, 51387.39, 0.00, 0.00, 0.00, 0.00, 0.00, 0.00, 0.01, 0.01, 1.01
240, 0.00, 51380.76, 0.00, 0.00, 0.00, 0.00, 0.00, 0.00, 0.01, 0.01, 1.01
241, 0.00, 51411.71, 0.00, 0.00, 0.00, 0.00, 0.00, 0.00, 0.01, 0.01, 1.01
242, 0.00, 51414.24, 0.00, 0.00, 0.00, 0.00, 0.00, 0.00, 0.01, 0.01, 1.01
243, 0.00, 51388.47, 0.00, 0.00, 0.00, 0.00, 0.00, 0.00, 0.01, 0.01, 1.02
244, 0.00, 51390.75, 0.00, 0.00, 0.00, 0.00, 0.00, 0.00, 0.01, 0.01, 1.02
245, 0.00, 51414.93, 0.00, 0.00, 0.00, 0.00, 0.00, 0.00, 0.01, 0.01, 1.02
246, 0.00, 51428.97, 0.00, 0.00, 0.00, 0.00, 0.00, 0.00, 0.01, 0.01, 1.02
247, 0.00, 51410.93, 0.00, 0.00, 0.00, 0.00, 0.00, 0.00, 0.01, 0.01, 1.02
248, 0.00, 51403.78, 0.00, 0.00, 0.00, 0.00, 0.00, 0.00, 0.01, 0.01, 1.01
249, 0.00, 51425.73, 0.00, 0.00, 0.00, 0.00, 0.00, 0.00, 0.01, 0.01, 1.01
250, 0.00, 51436.73, 0.00, 0.00, 0.00, 0.00, 0.00, 0.00, 0.01, 0.01, 1.01
251, 0.00, 51425.02, 0.00, 0.00, 0.00, 0.00, 0.00, 0.00, 0.01, 0.01, 1.01
252, 0.00, 51413.68, 0.00, 0.00, 0.00, 0.00, 0.00, 0.00, 0.01, 0.01, 1.01
253, 0.00, 51430.76, 0.00, 0.00, 0.00, 0.00, 0.00, 0.00, 0.01, 0.02, 1.02
254, 0.00, 51450.45, 0.00, 0.00, 0.00, 0.00, 0.00, 0.00, 0.01, 0.02, 1.02
255, 0.00, 51440.32, 0.00, 0.00, 0.00, 0.00, 0.00, 0.00, 0.01, 0.02, 1.02
0, 0.00, 51426.33, 0.00, 0.00, 0.00, 0.00, 0.00, 0.00, 0.01, 0.02, 1.02
1, 0.00, 51424.95, 0.00, 0.00, 0.00, 0.00, 0.00, 0.00, 0.01, 0.02, 1.02
2, 0.00, 51442.79, 0.00, 0.00, 0.00, 0.00, 0.00, 0.00, 0.01, 0.02, 1.01
3, 0.00, 51433.66, 0.00, 0.00, 0.00, 0.00, 0.00, 0.00, 0.01, 0.02, 1.01
4, 0.00, 51422.49, 0.00, 0.00, 0.00, 0.00, 0.00, 0.00, 0.01, 0.02, 1.01
5, 0.00, 51438.87, 0.00, 0.00, 0.00, 0.00, 0.00, 0.00, 0.01, 0.02, 1.01
6, 0.00, 51464.53, 0.00, 0.00, 0.00, 0.00, 0.00, 0.00, 0.01, 0.02, 1.01
7, 0.00, 51460.51, 0.00, 0.00, 0.00, 0.00, 0.00, 0.00, 0.01, 0.01, 1.01
8, 0.00, 51447.79, 0.00, 0.00, 0.00, 0.00, 0.00, 0.00, 0.01, 0.01, 1.01
9, 0.00, 51455.34, 0.00, 0.00, 0.00, 0.00, 0.00, 0.00, 0.01, 0.01, 1.01
10, 0.00, 51474.50, 0.00, 0.00, 0.00, 0.00, 0.00, 0.00, 0.01, 0.01, 1.01
11, 0.00, 51485.45, 0.00, 0.00, 0.00, 0.00, 0.00, 0.00, 0.01, 0.01, 1.01
12, 0.00, 51460.42, 0.00, 0.00, 0.00, 0.00, 0.00, 0.00, 0.01, 0.01, 1.02
13, 0.00, 51444.06, 0.00, 0.00, 0.00, 0.00, 0.00, 0.00, 0.01, 0.01, 1.02
14, 0.00, 51462.54, 0.00, 0.00, 0.00, 0.00, 0.00, 0.00, 0.01, 0.01, 1.02
15, 0.00, 51475.86, 0.00, 0.00, 0.00, 0.00, 0.00, 0.00, 0.01, 0.01, 1.02
16, 0.00, 51470.52, 0.00, 0.00, 0.00, 0.00, 0.00, 0.00, 0.01, 0.01, 1.02
17, 0.00, 51458.23, 0.00, 0.00, 0.00, 0.00, 0.00, 0.00, 0.01, 0.01, 1.02
18, 0.00, 51469.05, 0.00, 0.00, 0.00, 0.00, 0.00, 0.00, 0.01, 0.01, 1.02
19, 0.00, 51486.39, 0.00, 0.00, 0.00, 0.00, 0.00, 0.00, 0.01, 0.01, 1.02
20, 0.00, 51478.19, 0.00, 0.00, 0.00, 0.00, 0.00, 0.00, 0.01, 0.01, 1.02
21, 0.00, 51462.12, 0.00, 0.00, 0.00, 0.00, 0.00, 0.00, 0.01, 0.01, 1.02
22, 0.00, 51472.78, 0.00, 0.00, 0.00, 0.00, 0.00, 0.00, 0.00, 0.01, 1.02
23, 0.00, 51499.49, 0.00, 0.00, 0.00, 0.00, 0.00, 0.00, 0.00, 0.01, 1.02
24, 0.00, 51503.60, 0.00, 0.00, 0.00, 0.00, 0.00, 0.00, 0.00, 0.01, 1.02
25, 0.00, 51473.41, 0.00, 0.00, 0.00, 0.00, 0.00, 0.00, 0.00, 0.01, 1.02
26, 0.00, 51467.41, 0.00, 0.00, 0.00, 0.00, 0.00, 0.00, 0.00, 0.01, 1.02
27, 0.00, 51485.05, 0.00, 0.00, 0.00, 0.00, 0.00, 0.00, 0.00, 0.01, 1.02
28, 0.00, 51480.96, 0.00, 0.00, 0.00, 0.00, 0.00, 0.00, 0.00, 0.01, 1.02
29, 0.00, 51469.20, 0.00, 0.00, 0.00, 0.00, 0.00, 0.00, 0.00, 0.01, 1.02
30, 0.00, 51481.96, 0.00, 0.00, 0.00, 0.00, 0.00, 0.00, 0.00, 0.01, 1.02
31, 0.00, 51511.18, 0.00, 0.00, 0.00, 0.00, 0.00, 0.00, 0.00, 0.01, 1.02
32, 0.00, 51504.90, 0.00, 0.00, 0.00, 0.00, 0.00, 0.00, 0.00, 0.01, 1.01
33, 0.00, 51480.63, 0.00, 0.00, 0.00, 0.00, 0.00, 0.00, 0.00, 0.01, 1.01
34, 0.00, 51477.79, 0.00, 0.00, 0.00, 0.00, 0.00, 0.00, 0.00, 0.01, 1.01
35, 0.00, 51508.79, 0.00, 0.00, 0.00, 0.00, 0.00, 0.00, 0.00, 0.01, 1.01
36, 0.00, 51511.11, 0.00, 0.00, 0.00, 0.00, 0.00, 0.00, 0.00, 0.01, 1.01
37, 0.00, 51486.66, 0.00, 0.00, 0.00, 0.00, 0.00, 0.00, 0.01, 0.01, 1.02
38, 0.00, 51487.64, 0.00, 0.00, 0.00, 0.00, 0.00, 0.00, 0.01, 0.01, 1.02
39, 0.00, 51513.57, 0.00, 0.00, 0.00, 0.00, 0.00, 0.00, 0.01, 0.01, 1.02
40, 0.00, 51531.21, 0.00, 0.00, 0.00, 0.00, 0.00, 0.00, 0.01, 0.01, 1.02
41, 0.00, 51513.19, 0.00, 0.00, 0.00, 0.00, 0.00, 0.00, 0.01, 0.01, 1.02
42, 0.00, 51499.67, 0.00, 0.00, 0.00, 0.00, 0.00, 0.00, 0.01, 0.02, 1.02
43, 0.00, 51521.04, 0.00, 0.00, 0.00, 0.00, 0.00, 0.00, 0.01, 0.02, 1.02
44, 0.00, 51537.45, 0.00, 0.00, 0.00, 0.00, 0.00, 0.00, 0.01, 0.02, 1.02
45, 0.00, 51522.65, 0.00, 0.00, 0.00, 0.00, 0.00, 0.00, 0.01, 0.02, 1.02
46, 0.00, 51510.93, 0.00, 0.00, 0.00, 0.00, 0.00, 0.00, 0.01, 0.02, 1.02
47, 0.00, 51522.16, 0.00, 0.00, 0.00, 0.00, 0.00, 0.00, 0.01, 0.01, 1.02
48, 0.00, 51545.04, 0.00, 0.00, 0.00, 0.00, 0.00, 0.00, 0.01, 0.01, 1.02
49, 0.00, 51528.79, 0.00, 0.00, 0.00, 0.00, 0.00, 0.00, 0.01, 0.01, 1.02
50, 0.00, 51508.83, 0.00, 0.00, 0.00, 0.00, 0.00, 0.00, 0.01, 0.01, 1.02
51, 0.00, 51515.63, 0.00, 0.00, 0.00, 0.00, 0.00, 0.00, 0.01, 0.01, 1.02
52, 0.00, 51541.96, 0.00, 0.00, 0.00, 0.00, 0.00, 0.00, 0.01, 0.01, 1.02
53, 0.00, 51539.88, 0.00, 0.00, 0.00, 0.00, 0.00, 0.00, 0.01, 0.01, 1.02
54, 0.00, 51514.51, 0.00, 0.00, 0.00, 0.00, 0.00, 0.00, 0.01, 0.01, 1.02
55, 0.00, 51512.05, 0.00, 0.00, 0.00, 0.00, 0.00, 0.00, 0.01, 0.01, 1.02
56, 0.00, 51536.75, 0.00, 0.00, 0.00, 0.00, 0.00, 0.00, 0.01, 0.01, 1.02
57, 0.00, 51534.20, 0.00, 0.00, 0.00, 0.00, 0.00, 0.00, 0.01, 0.01, 1.02
58, 0.00, 51520.99, 0.00, 0.00, 0.00, 0.00, 0.00, 0.00, 0.01, 0.01, 1.02
59, 0.00, 51515.67, 0.00, 0.00, 0.00, 0.00, 0.00, 0.00, 0.01, 0.01, 1.02
60, 0.00, 51543.03, 0.00, 0.00, 0.00, 0.00, 0.00, 0.00, 0.01, 0.01, 1.02
61, 0.00, 51557.76, 0.00, 0.00, 0.00, 0.00, 0.00, 0.00, 0.01, 0.01, 1.02
62, 0.00, 51542.09, 0.00, 0.00, 0.00, 0.00, 0.00, 0.00, 0.01, 0.01, 1.02
63, 0.00, 51534.09, 0.00, 0.00, 0.00, 0.00, 0.00, 0.00, 0.01, 0.01, 1.02
64, 0.00, 51553.27, 0.00, 0.00, 0.00, 0.00, 0.00, 0.00, 0.01, 0.01, 1.02
65, 0.00, 51559.28, 0.00, 0.00, 0.00, 0.00, 0.00, 0.00, 0.01, 0.01, 1.02
66, 0.00, 51550.09, 0.00, 0.00, 0.00, 0.00, 0.00, 0.00, 0.01, 0.01, 1.02
67, 0.00, 51539.19, 0.00, 0.00, 0.00, 0.00, 0.00, 0.00, 0.01, 0.01, 1.01
68, 0.00, 51560.11, 0.00, 0.00, 0.00, 0.00, 0.00, 0.00, 0.01, 0.01, 1.01
69, 0.00, 51570.86, 0.00, 0.00, 0.00, 0.00, 0.00, 0.00, 0.01, 0.01, 1.01
70, 0.00, 51554.45, 0.00, 0.00, 0.00, 0.00, 0.00, 0.00, 0.01, 0.01, 1.01
71, 0.00, 51539.50, 0.00, 0.00, 0.00, 0.00, 0.00, 0.00, 0.01, 0.01, 1.01
72, 0.00, 51555.32, 0.00, 0.00, 0.00, 0.00, 0.00, 0.00, 0.00, 0.01, 1.02
73, 0.00, 51577.79, 0.00, 0.00, 0.00, 0.00, 0.00, 0.00, 0.00, 0.01, 1.02
74, 0.00, 51567.89, 0.00, 0.00, 0.00, 0.00, 0.00, 0.00, 0.00, 0.01, 1.02
75, 0.00, 51554.66, 0.00, 0.00, 0.00, 0.00, 0.00, 0.00, 0.00, 0.01, 1.02
76, 0.00, 51565.65, 0.00, 0.00, 0.00, 0.00, 0.00, 0.00, 0.00, 0.01, 1.02
77, 0.00, 51583.45, 0.00, 0.00, 0.00, 0.00, 0.00, 0.00, 0.01, 0.01, 1.02
78, 0.00, 51576.05, 0.00, 0.00, 0.00, 0.00, 0.00, 0.00, 0.01, 0.01, 1.02
79, 0.00, 51564.27, 0.00, 0.00, 0.00, 0.00, 0.00, 0.00, 0.01, 0.01, 1.02
80, 0.00, 51565.32, 0.00, 0.00, 0.00, 0.00, 0.00, 0.00, 0.01, 0.01, 1.02
81, 0.00, 51588.36, 0.00, 0.00, 0.00, 0.00, 0.00, 0.00, 0.01, 0.01, 1.02
82, 0.00, 51591.80, 0.00, 0.00, 0.00, 0.00, 0.00, 0.00, 0.01, 0.01, 1.01
83, 0.00, 51566.61, 0.00, 0.00, 0.00, 0.00, 0.00, 0.00, 0.01, 0.01, 1.01
84, 0.00, 51561.85, 0.00, 0.00, 0.00, 0.00, 0.00, 0.00, 0.01, 0.01, 1.01
85, 0.00, 51582.19, 0.00, 0.00, 0.00, 0.00, 0.00, 0.00, 0.01, 0.01, 1.01
86, 0.00, 51585.19, 0.00, 0.00, 0.00, 0.00, 0.00, 0.00, 0.01, 0.01, 1.01
87, 0.00, 51564.94, 0.00, 0.00, 0.00, 0.00, 0.00, 0.00, 0.01, 0.01, 1.02
88, 0.00, 51563.37, 0.00, 0.00, 0.00, 0.00, 0.00, 0.00, 0.01, 0.01, 1.02
89, 0.00, 51583.87, 0.00, 0.00, 0.00, 0.00, 0.00, 0.00, 0.01, 0.01, 1.02
90, 0.00, 51589.48, 0.00, 0.00, 0.00, 0.00, 0.00, 0.00, 0.01, 0.01, 1.02
91, 0.00, 51571.91, 0.00, 0.00, 0.00, 0.00, 0.00, 0.00, 0.01, 0.01, 1.02
92, 0.00, 51565.18, 0.00, 0.00, 0.00, 0.00, 0.00, 0.00, 0.00, 0.01, 1.02
93, 0.00, 51580.47, 0.00, 0.00, 0.00, 0.00, 0.00, 0.00, 0.00, 0.01, 1.02
94, 0.00, 51595.07, 0.00, 0.00, 0.00, 0.00, 0.00, 0.00, 0.00, 0.01, 1.02
95, 0.00, 51586.68, 0.00, 0.00, 0.00, 0.00, 0.00, 0.00, 0.00, 0.01, 1.02
96, 0.00, 51575.66, 0.00, 0.00, 0.00, 0.00, 0.00, 0.00, 0.00, 0.01, 1.02
97, 0.00, 51584.61, 0.00, 0.00, 0.00, 0.00, 0.00, 0.00, 0.01, 0.01, 1.02
98, 0.00, 51600.09, 0.00, 0.00, 0.00, 0.00, 0.00, 0.00, 0.01, 0.01, 1.02
99, 0.00, 51597.88, 0.00, 0.00, 0.00, 0.00, 0.00, 0.00, 0.01, 0.01, 1.02
100, 0.00, 51583.55, 0.00, 0.00, 0.00, 0.00, 0.00, 0.00, 0.01, 0.01, 1.02
101, 0.00, 51585.39, 0.00, 0.00, 0.00, 0.00, 0.00, 0.00, 0.01, 0.01, 1.02
102, 0.00, 51610.38, 0.00, 0.00, 0.00, 0.00, 0.00, 0.00, 0.00, 0.01, 1.02
103, 0.00, 51604.41, 0.00, 0.00, 0.00, 0.00, 0.00, 0.00, 0.00, 0.01, 1.02
104, 0.00, 51583.78, 0.00, 0.00, 0.00, 0.00, 0.00, 0.00, 0.00, 0.01, 1.02
105, 0.00, 51579.42, 0.00, 0.00, 0.00, 0.00, 0.00, 0.00, 0.00, 0.01, 1.02
106, 0.00, 51607.67, 0.00, 0.00, 0.00, 0.00, 0.00, 0.00, 0.00, 0.01, 1.02
107, 0.00, 51614.33, 0.00, 0.00, 0.00, 0.00, 0.00, 0.00, 0.01, 0.01, 1.02
108, 0.00, 51590.35, 0.00, 0.00, 0.00, 0.00, 0.00, 0.00, 0.01, 0.01, 1.02
109, 0.00, 51582.77, 0.00, 0.00, 0.00, 0.00, 0.00, 0.00, 0.01, 0.01, 1.02
110, 0.00, 51606.13, 0.00, 0.00, 0.00, 0.00, 0.00, 0.00, 0.01, 0.01, 1.02
111, 0.00, 51614.63, 0.00, 0.00, 0.00, 0.00, 0.00, 0.00, 0.01, 0.01, 1.02
112, 0.00, 51601.32, 0.00, 0.00, 0.00, 0.00, 0.00, 0.00, 0.01, 0.01, 1.02
113, 0.00, 51594.46, 0.00, 0.00, 0.00, 0.00, 0.00, 0.00, 0.01, 0.01, 1.02
114, 0.00, 51611.59, 0.00, 0.00, 0.00, 0.00, 0.00, 0.00, 0.01, 0.01, 1.02
115, 0.00, 51627.30, 0.00, 0.00, 0.00, 0.00, 0.00, 0.00, 0.01, 0.01, 1.02
116, 0.00, 51611.07, 0.00, 0.00, 0.00, 0.00, 0.00, 0.00, 0.01, 0.01, 1.02
117, 0.00, 51592.65, 0.00, 0.00, 0.00, 0.00, 0.00, 0.00, 0.01, 0.01, 1.02
118, 0.00, 51615.61, 0.00, 0.00, 0.00, 0.00, 0.00, 0.00, 0.01, 0.01, 1.02
119, 0.00, 51628.44, 0.00, 0.00, 0.00, 0.00, 0.00, 0.00, 0.01, 0.01, 1.02
120, 0.00, 51617.42, 0.00, 0.00, 0.00, 0.00, 0.00, 0.00, 0.01, 0.01, 1.02
121, 0.00, 51598.24, 0.00, 0.00, 0.00, 0.00, 0.00, 0.00, 0.01, 0.01, 1.02
122, 0.00, 51602.91, 0.00, 0.00, 0.00, 0.00, 0.00, 0.00, 0.01, 0.01, 1.02
123, 0.00, 51617.08, 0.00, 0.00, 0.00, 0.00, 0.00, 0.00, 0.01, 0.01, 1.02
124, 0.00, 51615.03, 0.00, 0.00, 0.00, 0.00, 0.00, 0.00, 0.01, 0.01, 1.02
125, 0.00, 51590.77, 0.00, 0.00, 0.00, 0.00, 0.00, 0.00, 0.01, 0.01, 1.02
126, 0.00, 51596.18, 0.00, 0.00, 0.00, 0.00, 0.00, 0.00, 0.01, 0.01, 1.02
127, 0.00, 51618.65, 0.00, 0.00, 0.00, 0.00, 0.00, 0.00, 0.01, 0.01, 1.02
128, 0.00, 51611.43, 0.00, 0.00, 0.00, 0.00, 0.00, 0.00, 0.01, 0.01, 1.02
129, 0.00, 51594.35, 0.00, 0.00, 0.00, 0.00, 0.00, 0.00, 0.01, 0.01, 1.02
130, 0.00, 51590.80, 0.00, 0.00, 0.00, 0.00, 0.00, 0.00, 0.01, 0.01, 1.02
131, 0.00, 51615.99, 0.00, 0.00, 0.00, 0.00, 0.00, 0.00, 0.01, 0.01, 1.02
132, 0.00, 51618.04, 0.00, 0.00, 0.00, 0.00, 0.00, 0.00, 0.01, 0.01, 1.02
133, 0.00, 51597.82, 0.00, 0.00, 0.00, 0.00, 0.00, 0.00, 0.01, 0.01, 1.02
134, 0.00, 51588.59, 0.00, 0.00, 0.00, 0.00, 0.00, 0.00, 0.01, 0.01, 1.02
135, 0.00, 51610.49, 0.00, 0.00, 0.00, 0.00, 0.00, 0.00, 0.01, 0.01, 1.02
136, 0.00, 51619.14, 0.00, 0.00, 0.00, 0.00, 0.00, 0.00, 0.01, 0.01, 1.02
137, 0.00, 51602.38, 0.00, 0.00, 0.00, 0.00, 0.00, 0.00, 0.01, 0.01, 1.02
138, 0.00, 51581.50, 0.00, 0.00, 0.00, 0.00, 0.00, 0.00, 0.01, 0.01, 1.02
139, 0.00, 51594.66, 0.00, 0.00, 0.00, 0.00, 0.00, 0.00, 0.01, 0.01, 1.02
140, 0.00, 51611.50, 0.00, 0.00, 0.00, 0.00, 0.00, 0.00, 0.01, 0.01, 1.02
141, 0.00, 51593.93, 0.00, 0.00, 0.00, 0.00, 0.00, 0.00, 0.01, 0.01, 1.02
142, 0.00, 51578.95, 0.00, 0.00, 0.00, 0.00, 0.00, 0.00, 0.01, 0.02, 1.02
143, 0.00, 51591.58, 0.00, 0.00, 0.00, 0.00, 0.00, 0.00, 0.01, 0.02, 1.02
144, 0.00, 51609.10, 0.00, 0.00, 0.00, 0.00, 0.00, 0.00, 0.01, 0.02, 1.02
145, 0.00, 51602.33, 0.00, 0.00, 0.00, 0.00, 0.00, 0.00, 0.01, 0.02, 1.02
146, 0.00, 51583.60, 0.00, 0.00, 0.00, 0.00, 0.00, 0.00, 0.01, 0.02, 1.02
147, 0.00, 51591.38, 0.00, 0.00, 0.00, 0.00, 0.00, 0.00, 0.01, 0.02, 1.02
148, 0.00, 51601.77, 0.00, 0.00, 0.00, 0.00, 0.00, 0.00, 0.01, 0.01, 1.02
149, 0.00, 51595.89, 0.00, 0.00, 0.00, 0.00, 0.00, 0.00, 0.01, 0.01, 1.02
150, 0.00, 51586.86, 0.00, 0.00, 0.00, 0.00, 0.00, 0.00, 0.01, 0.01, 1.02
151, 0.00, 51585.57, 0.00, 0.00, 0.00, 0.00, 0.00, 0.00, 0.01, 0.01, 1.02
152, 0.00, 51604.84, 0.00, 0.00, 0.00, 0.00, 0.00, 0.00, 0.01, 0.01, 1.02
153, 0.00, 51606.44, 0.00, 0.00, 0.00, 0.00, 0.00, 0.00, 0.01, 0.02, 1.02
154, 0.00, 51581.03, 0.00, 0.00, 0.00, 0.00, 0.00, 0.00, 0.01, 0.02, 1.02
155, 0.00, 51581.92, 0.00, 0.00, 0.00, 0.00, 0.00, 0.00, 0.01, 0.02, 1.02
156, 0.00, 51605.32, 0.00, 0.00, 0.00, 0.00, 0.00, 0.00, 0.01, 0.02, 1.02
157, 0.00, 51612.72, 0.00, 0.00, 0.00, 0.00, 0.00, 0.00, 0.01, 0.02, 1.02
158, 0.00, 51596.95, 0.00, 0.00, 0.00, 0.00, 0.00, 0.00, 0.01, 0.02, 1.02
159, 0.00, 51584.56, 0.00, 0.00, 0.00, 0.00, 0.00, 0.00, 0.01, 0.02, 1.02
160, 0.00, 51603.29, 0.00, 0.00, 0.00, 0.00, 0.00, 0.00, 0.01, 0.02, 1.02
161, 0.00, 51612.37, 0.00, 0.00, 0.00, 0.00, 0.00, 0.00, 0.01, 0.02, 1.02
162, 0.00, 51590.66, 0.00, 0.00, 0.00, 0.00, 0.00, 0.00, 0.01, 0.02, 1.02
163, 0.00, 51584.43, 0.00, 0.00, 0.00, 0.00, 0.00, 0.00, 0.00, 0.01, 1.03
164, 0.00, 51602.82, 0.00, 0.00, 0.00, 0.00, 0.00, 0.00, 0.00, 0.01, 1.03
165, 0.00, 51616.46, 0.00, 0.00, 0.00, 0.00, 0.00, 0.00, 0.00, 0.01, 1.03
166, 0.00, 51612.55, 0.00, 0.00, 0.00, 0.00, 0.00, 0.00, 0.00, 0.01, 1.03
167, 0.00, 51590.33, 0.00, 0.00, 0.00, 0.00, 0.00, 0.00, 0.00, 0.01, 1.03
168, 0.00, 51609.04, 0.00, 0.00, 0.00, 0.00, 0.00, 0.00, 0.00, 0.01, 1.02
169, 0.00, 51653.49, 0.00, 0.00, 0.00, 0.00, 0.00, 0.00, 0.00, 0.01, 1.02
170, 0.00, 51624.68, 0.00, 0.00, 0.00, 0.00, 0.00, 0.00, 0.00, 0.01, 1.02
171, 0.00, 51569.47, 0.00, 0.00, 0.00, 0.00, 0.00, 0.00, 0.00, 0.01, 1.02
172, 0.00, 51568.09, 0.00, 0.00, 0.00, 0.00, 0.00, 0.00, 0.00, 0.01, 1.02
173, 0.00, 51598.57, 0.00, 0.00, 0.00, 0.00, 0.00, 0.00, 0.00, 0.01, 1.02
174, 0.00, 51597.05, 0.00, 0.00, 0.00, 0.00, 0.00, 0.00, 0.00, 0.01, 1.02
175, 0.00, 51571.04, 0.00, 0.00, 0.00, 0.00, 0.00, 0.00, 0.00, 0.01, 1.02
176, 0.00, 51572.89, 0.00, 0.00, 0.00, 0.00, 0.00, 0.00, 0.00, 0.01, 1.02
177, 0.00, 51585.25, 0.00, 0.00, 0.00, 0.00, 0.00, 0.00, 0.00, 0.01, 1.02
178, 0.00, 51584.61, 0.00, 0.00, 0.00, 0.00, 0.00, 0.00, 0.00, 0.00, 1.02
179, 0.00, 51556.58, 0.00, 0.00, 0.00, 0.00, 0.00, 0.00, 0.00, 0.00, 1.02
180, 0.00, 51547.05, 0.00, 0.00, 0.00, 0.00, 0.00, 0.00, 0.00, 0.00, 1.02
181, 0.00, 51559.46, 0.00, 0.00, 0.00, 0.00, 0.00, 0.00, 0.00, 0.00, 1.02
182, 0.00, 51573.54, 0.00, 0.00, 0.00, 0.00, 0.00, 0.00, 0.00, 0.00, 1.02
183, 0.00, 51550.39, 0.00, 0.00, 0.00, 0.00, 0.00, 0.00, 0.00, 0.01, 1.02
184, 0.00, 51537.27, 0.00, 0.00, 0.00, 0.00, 0.00, 0.00, 0.00, 0.01, 1.02
185, 0.00, 51560.20, 0.00, 0.00, 0.00, 0.00, 0.00, 0.00, 0.00, 0.01, 1.02
186, 0.00, 51582.50, 0.00, 0.00, 0.00, 0.00, 0.00, 0.00, 0.00, 0.01, 1.02
187, 0.00, 51570.03, 0.00, 0.00, 0.00, 0.00, 0.00, 0.00, 0.00, 0.01, 1.02
188, 0.00, 51554.59, 0.00, 0.00, 0.00, 0.00, 0.00, 0.00, 0.01, 0.01, 1.02
189, 0.00, 51572.71, 0.00, 0.00, 0.00, 0.00, 0.00, 0.00, 0.01, 0.01, 1.02
190, 0.00, 51581.68, 0.00, 0.00, 0.00, 0.00, 0.00, 0.00, 0.01, 0.01, 1.02
191, 0.00, 51568.00, 0.00, 0.00, 0.00, 0.00, 0.00, 0.00, 0.01, 0.01, 1.02
192, 0.00, 51556.98, 0.00, 0.00, 0.00, 0.00, 0.00, 0.00, 0.01, 0.01, 1.02
193, 0.00, 51570.59, 0.00, 0.00, 0.00, 0.00, 0.00, 0.00, 0.01, 0.01, 1.02
194, 0.00, 51587.45, 0.00, 0.00, 0.00, 0.00, 0.00, 0.00, 0.01, 0.01, 1.02
195, 0.00, 51585.32, 0.00, 0.00, 0.00, 0.00, 0.00, 0.00, 0.01, 0.01, 1.02
196, 0.00, 51572.36, 0.00, 0.00, 0.00, 0.00, 0.00, 0.00, 0.01, 0.01, 1.02
197, 0.00, 51576.85, 0.00, 0.00, 0.00, 0.00, 0.00, 0.00, 0.01, 0.01, 1.02
198, 0.00, 51599.18, 0.00, 0.00, 0.00, 0.00, 0.00, 0.00, 0.01, 0.01, 1.01
199, 0.00, 51602.49, 0.00, 0.00, 0.00, 0.00, 0.00, 0.00, 0.01, 0.01, 1.01
200, 0.00, 51578.05, 0.00, 0.00, 0.00, 0.00, 0.00, 0.00, 0.01, 0.01, 1.01
201, 0.00, 51574.17, 0.00, 0.00, 0.00, 0.00, 0.00, 0.00, 0.01, 0.01, 1.01
202, 0.00, 51596.45, 0.00, 0.00, 0.00, 0.00, 0.00, 0.00, 0.01, 0.01, 1.01
203, 0.00, 51594.78, 0.00, 0.00, 0.00, 0.00, 0.00, 0.00, 0.01, 0.01, 1.01
204, 0.00, 51585.77, 0.00, 0.00, 0.00, 0.00, 0.00, 0.00, 0.01, 0.01, 1.01
205, 0.00, 51581.36, 0.00, 0.00, 0.00, 0.00, 0.00, 0.00, 0.01, 0.01, 1.01
206, 0.00, 51591.89, 0.00, 0.00, 0.00, 0.00, 0.00, 0.00, 0.01, 0.01, 1.01
207, 0.00, 51605.91, 0.00, 0.00, 0.00, 0.00, 0.00, 0.00, 0.01, 0.01, 1.01
208, 0.00, 51583.42, 0.00, 0.00, 0.00, 0.00, 0.00, 0.00, 0.01, 0.01, 1.02
209, 0.00, 51568.33, 0.00, 0.00, 0.00, 0.00, 0.00, 0.00, 0.01, 0.01, 1.02
210, 0.00, 51581.92, 0.00, 0.00, 0.00, 0.00, 0.00, 0.00, 0.01, 0.01, 1.02
211, 0.00, 51588.32, 0.00, 0.00, 0.00, 0.00, 0.00, 0.00, 0.01, 0.01, 1.02
212, 0.00, 51577.01, 0.00, 0.00, 0.00, 0.00, 0.00, 0.00, 0.01, 0.01, 1.02
213, 0.00, 51566.01, 0.00, 0.00, 0.00, 0.00, 0.00, 0.00, 0.01, 0.01, 1.02
214, 0.00, 51576.76, 0.00, 0.00, 0.00, 0.00, 0.00, 0.00, 0.01, 0.01, 1.02
215, 0.00, 51591.42, 0.00, 0.00, 0.00, 0.00, 0.00, 0.00, 0.01, 0.01, 1.02
216, 0.00, 51583.31, 0.00, 0.00, 0.00, 0.00, 0.00, 0.00, 0.01, 0.01, 1.02
217, 0.00, 51566.90, 0.00, 0.00, 0.00, 0.00, 0.00, 0.00, 0.01, 0.01, 1.02
218, 0.00, 51576.40, 0.00, 0.00, 0.00, 0.00, 0.00, 0.00, 0.01, 0.02, 1.02
219, 0.00, 51600.59, 0.00, 0.00, 0.00, 0.00, 0.00, 0.00, 0.01, 0.02, 1.02
220, 0.00, 51589.57, 0.00, 0.00, 0.00, 0.00, 0.00, 0.00, 0.01, 0.02, 1.02
221, 0.00, 51570.34, 0.00, 0.00, 0.00, 0.00, 0.00, 0.00, 0.01, 0.02, 1.02
222, 0.00, 51577.32, 0.00, 0.00, 0.00, 0.00, 0.00, 0.00, 0.01, 0.02, 1.02
223, 0.00, 51602.00, 0.00, 0.00, 0.00, 0.00, 0.00, 0.00, 0.01, 0.01, 1.02
224, 0.00, 51598.11, 0.00, 0.00, 0.00, 0.00, 0.00, 0.00, 0.01, 0.01, 1.02
225, 0.00, 51583.31, 0.00, 0.00, 0.00, 0.00, 0.00, 0.00, 0.01, 0.01, 1.02
226, 0.00, 51585.12, 0.00, 0.00, 0.00, 0.00, 0.00, 0.00, 0.01, 0.01, 1.02
227, 0.00, 51603.49, 0.00, 0.00, 0.00, 0.00, 0.00, 0.00, 0.01, 0.01, 1.02
228, 0.00, 51600.92, 0.00, 0.00, 0.00, 0.00, 0.00, 0.00, 0.00, 0.01, 1.02
229, 0.00, 51581.45, 0.00, 0.00, 0.00, 0.00, 0.00, 0.00, 0.00, 0.01, 1.02
230, 0.00, 51573.25, 0.00, 0.00, 0.00, 0.00, 0.00, 0.00, 0.00, 0.01, 1.02
231, 0.00, 51585.05, 0.00, 0.00, 0.00, 0.00, 0.00, 0.00, 0.00, 0.01, 1.02
232, 0.00, 51601.32, 0.00, 0.00, 0.00, 0.00, 0.00, 0.00, 0.00, 0.01, 1.02
233, 0.00, 51580.31, 0.00, 0.00, 0.00, 0.00, 0.00, 0.00, 0.00, 0.01, 1.02
234, 0.00, 51570.26, 0.00, 0.00, 0.00, 0.00, 0.00, 0.00, 0.00, 0.01, 1.02
235, 0.00, 51591.04, 0.00, 0.00, 0.00, 0.00, 0.00, 0.00, 0.00, 0.01, 1.02
236, 0.00, 51597.61, 0.00, 0.00, 0.00, 0.00, 0.00, 0.00, 0.00, 0.01, 1.02
237, 0.00, 51574.86, 0.00, 0.00, 0.00, 0.00, 0.00, 0.00, 0.00, 0.01, 1.02
238, 0.00, 51567.30, 0.00, 0.00, 0.00, 0.00, 0.00, 0.00, 0.00, 0.01, 1.02
239, 0.00, 51588.25, 0.00, 0.00, 0.00, 0.00, 0.00, 0.00, 0.00, 0.01, 1.02
240, 0.00, 51600.72, 0.00, 0.00, 0.00, 0.00, 0.00, 0.00, 0.00, 0.01, 1.02
241, 0.00, 51579.31, 0.00, 0.00, 0.00, 0.00, 0.00, 0.00, 0.00, 0.01, 1.02
242, 0.00, 51565.27, 0.00, 0.00, 0.00, 0.00, 0.00, 0.00, 0.00, 0.01, 1.02
243, 0.00, 51578.64, 0.00, 0.00, 0.00, 0.00, 0.00, 0.00, 0.00, 0.01, 1.02
244, 0.00, 51591.45, 0.00, 0.00, 0.00, 0.00, 0.00, 0.00, 0.00, 0.01, 1.02
245, 0.00, 51585.21, 0.00, 0.00, 0.00, 0.00, 0.00, 0.00, 0.00, 0.01, 1.02
246, 0.00, 51569.96, 0.00, 0.00, 0.00, 0.00, 0.00, 0.00, 0.00, 0.01, 1.02
247, 0.00, 51586.21, 0.00, 0.00, 0.00, 0.00, 0.00, 0.00, 0.00, 0.01, 1.02
248, 0.00, 51612.64, 0.00, 0.00, 0.00, 0.00, 0.00, 0.00, 0.00, 0.01, 1.02
249, 0.00, 51601.53, 0.00, 0.00, 0.00, 0.00, 0.00, 0.00, 0.00, 0.01, 1.02
250, 0.00, 51586.33, 0.00, 0.00, 0.00, 0.00, 0.00, 0.00, 0.00, 0.01, 1.02
251, 0.00, 51586.44, 0.00, 0.00, 0.00, 0.00, 0.00, 0.00, 0.00, 0.01, 1.02
252, 0.00, 51613.48, 0.00, 0.00, 0.00, 0.00, 0.00, 0.00, 0.00, 0.01, 1.02
253, 0.00, 51614.49, 0.00, 0.00, 0.00, 0.00, 0.00, 0.00, 0.01, 0.01, 1.01
254, 0.00, 51589.59, 0.00, 0.00, 0.00, 0.00, 0.00, 0.00, 0.01, 0.01, 1.01
255, 0.00, 51584.76, 0.00, 0.00, 0.00, 0.00, 0.00, 0.00, 0.01, 0.01, 1.01
0, 0.00, 51612.70, 0.00, 0.00, 0.00, 0.00, 0.00, 0.00, 0.01, 0.01, 1.01
1, 0.00, 51635.75, 0.00, 0.00, 0.00, 0.00, 0.00, 0.00, 0.01, 0.01, 1.01
2, 0.00, 51624.01, 0.00, 0.00, 0.00, 0.00, 0.00, 0.00, 0.01, 0.01, 1.02
3, 0.00, 51637.96, 0.00, 0.00, 0.00, 0.00, 0.00, 0.00, 0.01, 0.01, 1.02
4, 0.00, 51664.87, 0.00, 0.00, 0.00, 0.00, 0.00, 0.00, 0.01, 0.01, 1.02
5, 0.00, 51688.50, 0.00, 0.00, 0.00, 0.00, 0.00, 0.00, 0.01, 0.01, 1.02
6, 0.00, 51709.60, 0.00, 0.00, 0.00, 0.00, 0.00, 0.00, 0.01, 0.01, 1.02
7, 0.00, 51804.26, 0.00, 0.00, 0.00, 0.00, 0.00, 0.00, 0.01, 0.01, 1.01
8, 0.00, 51944.29, 0.00, 0.00, 0.00, 0.00, 0.00, 0.00, 0.01, 0.01, 1.01
9, 0.00, 52167.36, 0.00, 0.00, 0.00, 0.00, 0.00, 0.00, 0.01, 0.01, 1.01
10, 0.00, 52384.17, 0.00, 0.00, 0.00, 0.00, 0.00, 0.00, 0.01, 0.01, 1.01
11, 0.00, 52548.19, 0.00, 0.00, 0.00, 0.00, 0.00, 0.00, 0.01, 0.01, 1.01
12, 0.00, 52665.94, 0.00, 0.00, 0.00, 0.00, 0.00, 0.00, 0.01, 0.01, 1.01
13, 0.00, 52768.76, 0.00, 0.00, 0.00, 0.00, 0.00, 0.00, 0.01, 0.01, 1.01
14, 0.00, 52846.94, 0.00, 0.00, 0.00, 0.00, 0.00, 0.00, 0.01, 0.01, 1.01
15, 0.00, 52905.15, 0.00, 0.00, 0.00, 0.00, 0.00, 0.00, 0.01, 0.01, 1.01
16, 0.00, 52972.85, 0.00, 0.00, 0.00, 0.00, 0.00, 0.00, 0.01, 0.01, 1.01
17, 0.00, 53041.96, 0.00, 0.00, 0.00, 0.00, 0.00, 0.00, 0.01, 0.01, 1.01
18, 0.00, 53087.02, 0.00, 0.00, 0.00, 0.00, 0.00, 0.00, 0.01, 0.01, 1.01
19, 0.00, 53111.95, 0.00, 0.00, 0.00, 0.00, 0.00, 0.00, 0.01, 0.01, 1.01
20, 0.00, 53180.57, 0.00, 0.00, 0.00, 0.00, 0.00, 0.00, 0.01, 0.01, 1.01
21, 0.00, 53264.34, 0.00, 0.00, 0.00, 0.00, 0.00, 0.00, 0.01, 0.01, 1.01
22, 0.00, 53304.75, 0.00, 0.00, 0.00, 0.00, 0.00, 0.00, 0.01, 0.01, 1.02
23, 0.00, 53288.05, 0.00, 0.00, 0.00, 0.00, 0.00, 0.00, 0.01, 0.01, 1.02
24, 0.00, 53271.98, 0.00, 0.00, 0.00, 0.00, 0.00, 0.00, 0.01, 0.01, 1.02
25, 0.00, 53252.22, 0.00, 0.00, 0.00, 0.00, 0.00, 0.00, 0.01, 0.01, 1.02
26, 0.00, 53188.59, 0.00, 0.00, 0.00, 0.00, 0.00, 0.00, 0.01, 0.01, 1.02
27, 0.00, 53055.64, 0.00, 0.00, 0.00, 0.00, 0.00, 0.00, 0.01, 0.01, 1.02
28, 0.00, 52897.79, 0.00, 0.00, 0.00, 0.00, 0.00, 0.00, 0.01, 0.01, 1.02
29, 0.00, 52699.29, 0.00, 0.00, 0.00, 0.00, 0.00, 0.00, 0.01, 0.01, 1.02
30, 0.00, 52214.61, 0.00, 0.00, 0.00, 0.00, 0.00, 0.00, 0.01, 0.01, 1.02
31, 0.00, 51870.11, 0.00, 0.00, 0.00, 0.00, 0.00, 0.00, 0.01, 0.01, 1.02
32, 0.00, 51732.73, 0.00, 0.00, 0.00, 0.00, 0.00, 0.00, 0.01, 0.01, 1.01
33, 0.00, 51699.18, 0.00, 0.00, 0.00, 0.00, 0.00, 0.00, 0.01, 0.01, 1.01
34, 0.00, 51687.47, 0.00, 0.00, 0.00, 0.00, 0.00, 0.00, 0.01, 0.01, 1.01
35, 0.00, 51655.06, 0.00, 0.00, 0.00, 0.00, 0.00, 0.00, 0.01, 0.01, 1.01
36, 0.00, 51620.32, 0.00, 0.00, 0.00, 0.00, 0.00, 0.00, 0.01, 0.01, 1.01
37, 0.00, 51624.14, 0.00, 0.00, 0.00, 0.00, 0.00, 0.00, 0.01, 0.01, 1.02
38, 0.00, 51632.55, 0.00, 0.00, 0.00, 0.00, 0.00, 0.00, 0.01, 0.01, 1.02
39, 0.00, 51619.77, 0.00, 0.00, 0.00, 0.00, 0.00, 0.00, 0.01, 0.01, 1.02
40, 0.00, 51592.92, 0.00, 0.00, 0.00, 0.00, 0.00, 0.00, 0.01, 0.01, 1.02
41, 0.00, 51585.99, 0.00, 0.00, 0.00, 0.00, 0.00, 0.00, 0.01, 0.01, 1.02
42, 0.00, 51600.68, 0.00, 0.00, 0.00, 0.00, 0.00, 0.00, 0.01, 0.01, 1.02
43, 0.00, 51596.03, 0.00, 0.00, 0.00, 0.00, 0.00, 0.00, 0.01, 0.01, 1.02
44, 0.00, 51572.89, 0.00, 0.00, 0.00, 0.00, 0.00, 0.00, 0.01, 0.01, 1.02
45, 0.00, 51565.90, 0.00, 0.00, 0.00, 0.00, 0.00, 0.00, 0.01, 0.01, 1.02
46, 0.00, 51582.62, 0.00, 0.00, 0.00, 0.00, 0.00, 0.00, 0.01, 0.01, 1.02
47, 0.00, 51583.96, 0.00, 0.00, 0.00, 0.00, 0.00, 0.00, 0.02, 0.01, 1.02
48, 0.00, 51560.18, 0.00, 0.00, 0.00, 0.00, 0.00, 0.00, 0.02, 0.01, 1.02
49, 0.00, 51559.17, 0.00, 0.00, 0.00, 0.00, 0.00, 0.00, 0.02, 0.01, 1.02
50, 0.00, 51584.36, 0.00, 0.00, 0.00, 0.00, 0.00, 0.00, 0.02, 0.01, 1.02
51, 0.00, 51582.53, 0.00, 0.00, 0.00, 0.00, 0.00, 0.00, 0.02, 0.01, 1.02
52, 0.00, 51569.14, 0.00, 0.00, 0.00, 0.00, 0.00, 0.00, 0.01, 0.01, 1.03
53, 0.00, 51566.43, 0.00, 0.00, 0.00, 0.00, 0.00, 0.00, 0.01, 0.01, 1.03
54, 0.00, 51583.04, 0.00, 0.00, 0.00, 0.00, 0.00, 0.00, 0.01, 0.01, 1.03
55, 0.00, 51598.96, 0.00, 0.00, 0.00, 0.00, 0.00, 0.00, 0.01, 0.01, 1.03
56, 0.00, 51583.49, 0.00, 0.00, 0.00, 0.00, 0.00, 0.00, 0.01, 0.01, 1.03
57, 0.00, 51568.22, 0.00, 0.00, 0.00, 0.00, 0.00, 0.00, 0.01, 0.00, 1.02
58, 0.00, 51581.36, 0.00, 0.00, 0.00, 0.00, 0.00, 0.00, 0.01, 0.00, 1.02
59, 0.00, 51590.95, 0.00, 0.00, 0.00, 0.00, 0.00, 0.00, 0.01, 0.00, 1.02
60, 0.00, 51587.89, 0.00, 0.00, 0.00, 0.00, 0.00, 0.00, 0.01, 0.00, 1.02
61, 0.00, 51564.76, 0.00, 0.00, 0.00, 0.00, 0.00, 0.00, 0.01, 0.00, 1.02
62, 0.00, 51566.88, 0.00, 0.00, 0.00, 0.00, 0.00, 0.00, 0.00, 0.01, 1.02
63, 0.00, 51592.43, 0.00, 0.00, 0.00, 0.00, 0.00, 0.00, 0.00, 0.01, 1.02
64, 0.00, 51574.19, 0.00, 0.00, 0.00, 0.00, 0.00, 0.00, 0.00, 0.01, 1.02
65, 0.00, 51555.95, 0.00, 0.00, 0.00, 0.00, 0.00, 0.00, 0.00, 0.01, 1.02
66, 0.00, 51571.53, 0.00, 0.00, 0.00, 0.00, 0.00, 0.00, 0.00, 0.01, 1.02
67, 0.00, 51609.57, 0.00, 0.00, 0.00, 0.00, 0.00, 0.00, 0.01, 0.01, 1.02
68, 0.00, 51590.98, 0.00, 0.00, 0.00, 0.00, 0.00, 0.00, 0.01, 0.01, 1.02
69, 0.00, 51546.09, 0.00, 0.00, 0.00, 0.00, 0.00, 0.00, 0.01, 0.01, 1.02
70, 0.00, 51550.32, 0.00, 0.00, 0.00, 0.00, 0.00, 0.00, 0.01, 0.01, 1.02
71, 0.00, 51567.77, 0.00, 0.00, 0.00, 0.00, 0.00, 0.00, 0.01, 0.01, 1.02
72, 0.00, 51572.07, 0.00, 0.00, 0.00, 0.00, 0.00, 0.00, 0.00, 0.01, 1.02
73, 0.00, 51559.77, 0.00, 0.00, 0.00, 0.00, 0.00, 0.00, 0.00, 0.01, 1.02
74, 0.00, 51550.47, 0.00, 0.00, 0.00, 0.00, 0.00, 0.00, 0.00, 0.01, 1.02
75, 0.00, 51568.91, 0.00, 0.00, 0.00, 0.00, 0.00, 0.00, 0.00, 0.01, 1.02
76, 0.00, 51568.85, 0.00, 0.00, 0.00, 0.00, 0.00, 0.00, 0.00, 0.01, 1.02
77, 0.00, 51557.31, 0.00, 0.00, 0.00, 0.00, 0.00, 0.00, 0.01, 0.01, 1.01
78, 0.00, 51559.13, 0.00, 0.00, 0.00, 0.00, 0.00, 0.00, 0.01, 0.01, 1.01
79, 0.00, 51567.11, 0.00, 0.00, 0.00, 0.00, 0.00, 0.00, 0.01, 0.01, 1.01
80, 0.00, 51580.98, 0.00, 0.00, 0.00, 0.00, 0.00, 0.00, 0.01, 0.01, 1.01
81, 0.00, 51565.16, 0.00, 0.00, 0.00, 0.00, 0.00, 0.00, 0.01, 0.01, 1.01
82, 0.00, 51556.06, 0.00, 0.00, 0.00, 0.00, 0.00, 0.00, 0.01, 0.01, 1.02
83, 0.00, 51573.59, 0.00, 0.00, 0.00, 0.00, 0.00, 0.00, 0.01, 0.01, 1.02
84, 0.00, 51591.02, 0.00, 0.00, 0.00, 0.00, 0.00, 0.00, 0.01, 0.01, 1.02
85, 0.00, 51580.58, 0.00, 0.00, 0.00, 0.00, 0.00, 0.00, 0.01, 0.01, 1.02
86, 0.00, 51554.21, 0.00, 0.00, 0.00, 0.00, 0.00, 0.00, 0.01, 0.01, 1.02
87, 0.00, 51563.48, 0.00, 0.00, 0.00, 0.00, 0.00, 0.00, 0.01, 0.01, 1.02
88, 0.00, 51588.88, 0.00, 0.00, 0.00, 0.00, 0.00, 0.00, 0.01, 0.01, 1.02
89, 0.00, 51577.52, 0.00, 0.00, 0.00, 0.00, 0.00, 0.00, 0.01, 0.01, 1.02
90, 0.00, 51561.88, 0.00, 0.00, 0.00, 0.00, 0.00, 0.00, 0.01, 0.01, 1.02
91, 0.00, 51572.04, 0.00, 0.00, 0.00, 0.00, 0.00, 0.00, 0.01, 0.01, 1.02
92, 0.00, 51593.12, 0.00, 0.00, 0.00, 0.00, 0.00, 0.00, 0.00, 0.01, 1.02
93, 0.00, 51590.62, 0.00, 0.00, 0.00, 0.00, 0.00, 0.00, 0.00, 0.01, 1.02
94, 0.00, 51570.97, 0.00, 0.00, 0.00, 0.00, 0.00, 0.00, 0.00, 0.01, 1.02
95, 0.00, 51562.37, 0.00, 0.00, 0.00, 0.00, 0.00, 0.00, 0.00, 0.01, 1.02
96, 0.00, 51580.09, 0.00, 0.00, 0.00, 0.00, 0.00, 0.00, 0.00, 0.01, 1.02
97, 0.00, 51579.20, 0.00, 0.00, 0.00, 0.00, 0.00, 0.00, 0.01, 0.01, 1.02
98, 0.00, 51563.89, 0.00, 0.00, 0.00, 0.00, 0.00, 0.00, 0.01, 0.01, 1.02
99, 0.00, 51560.62, 0.00, 0.00, 0.00, 0.00, 0.00, 0.00, 0.01, 0.01, 1.02
100, 0.00, 51587.33, 0.00, 0.00, 0.00, 0.00, 0.00, 0.00, 0.01, 0.01, 1.02
101, 0.00, 51589.68, 0.00, 0.00, 0.00, 0.00, 0.00, 0.00, 0.01, 0.01, 1.02
102, 0.00, 51568.96, 0.00, 0.00, 0.00, 0.00, 0.00, 0.00, 0.01, 0.01, 1.02
103, 0.00, 51560.93, 0.00, 0.00, 0.00, 0.00, 0.00, 0.00, 0.01, 0.01, 1.02
104, 0.00, 51585.90, 0.00, 0.00, 0.00, 0.00, 0.00, 0.00, 0.01, 0.01, 1.02
105, 0.00, 51597.75, 0.00, 0.00, 0.00, 0.00, 0.00, 0.00, 0.01, 0.01, 1.02
106, 0.00, 51584.16, 0.00, 0.00, 0.00, 0.00, 0.00, 0.00, 0.01, 0.01, 1.02
107, 0.00, 51567.39, 0.00, 0.00, 0.00, 0.00, 0.00, 0.00, 0.01, 0.02, 1.02
108, 0.00, 51564.89, 0.00, 0.00, 0.00, 0.00, 0.00, 0.00, 0.01, 0.02, 1.02
109, 0.00, 51517.50, 0.00, 0.00, 0.00, 0.00, 0.00, 0.00, 0.01, 0.02, 1.02
110, 0.00, 51322.62, 0.00, 0.00, 0.00, 0.00, 0.00, 0.00, 0.01, 0.02, 1.02
111, 0.00, 51159.14, 0.00, 0.00, 0.00, 0.00, 0.00, 0.00, 0.01, 0.02, 1.02
112, 0.00, 51109.59, 0.00, 0.00, 0.00, 0.00, 0.00, 0.00, 0.01, 0.02, 1.02
113, 0.00, 51058.56, 0.00, 0.00, 0.00, 0.00, 0.00, 0.00, 0.01, 0.02, 1.02
114, 0.00, 51013.74, 0.00, 0.00, 0.00, 0.00, 0.00, 0.00, 0.01, 0.02, 1.02
115, 0.00, 50975.12, 0.00, 0.00, 0.00, 0.00, 0.00, 0.00, 0.01, 0.02, 1.02
116, 0.00, 50964.64, 0.00, 0.00, 0.00, 0.00, 0.00, 0.00, 0.01, 0.02, 1.02
117, 0.00, 50976.41, 0.00, 0.00, 0.00, 0.00, 0.00, 0.00, 0.01, 0.02, 1.02
118, 0.00, 50992.84, 0.00, 0.00, 0.00, 0.00, 0.00, 0.00, 0.01, 0.02, 1.02
119, 0.00, 50962.47, 0.00, 0.00, 0.00, 0.00, 0.00, 0.00, 0.01, 0.02, 1.02
120, 0.00, 50955.36, 0.00, 0.00, 0.00, 0.00, 0.00, 0.00, 0.01, 0.02, 1.02
121, 0.00, 50970.67, 0.00, 0.00, 0.00, 0.00, 0.00, 0.00, 0.01, 0.02, 1.02
122, 0.00, 50967.95, 0.00, 0.00, 0.00, 0.00, 0.00, 0.00, 0.00, 0.01, 1.02
123, 0.00, 50957.04, 0.00, 0.00, 0.00, 0.00, 0.00, 0.00, 0.00, 0.01, 1.02
124, 0.00, 50950.66, 0.00, 0.00, 0.00, 0.00, 0.00, 0.00, 0.00, 0.01, 1.02
125, 0.00, 50968.75, 0.00, 0.00, 0.00, 0.00, 0.00, 0.00, 0.00, 0.01, 1.02
126, 0.00, 50975.12, 0.00, 0.00, 0.00, 0.00, 0.00, 0.00, 0.00, 0.01, 1.02
127, 0.00, 50961.21, 0.00, 0.00, 0.00, 0.00, 0.00, 0.00, 0.01, 0.01, 1.01
128, 0.00, 50952.52, 0.00, 0.00, 0.00, 0.00, 0.00, 0.00, 0.01, 0.01, 1.01
129, 0.00, 50962.78, 0.00, 0.00, 0.00, 0.00, 0.00, 0.00, 0.01, 0.01, 1.01
130, 0.00, 50970.67, 0.00, 0.00, 0.00, 0.00, 0.00, 0.00, 0.01, 0.01, 1.01
131, 0.00, 50964.61, 0.00, 0.00, 0.00, 0.00, 0.00, 0.00, 0.01, 0.01, 1.01
132, 0.00, 50944.72, 0.00, 0.00, 0.00, 0.00, 0.00, 0.00, 0.01, 0.01, 1.02
133, 0.00, 50965.35, 0.00, 0.00, 0.00, 0.00, 0.00, 0.00, 0.01, 0.01, 1.02
134, 0.00, 51001.36, 0.00, 0.00, 0.00, 0.00, 0.00, 0.00, 0.01, 0.01, 1.02
135, 0.00, 51020.63, 0.00, 0.00, 0.00, 0.00, 0.00, 0.00, 0.01, 0.01, 1.02
136, 0.00, 51008.20, 0.00, 0.00, 0.00, 0.00, 0.00, 0.00, 0.01, 0.01, 1.02
137, 0.00, 51018.70, 0.00, 0.00, 0.00, 0.00, 0.00, 0.00, 0.01, 0.01, 1.02
138, 0.00, 51079.68, 0.00, 0.00, 0.00, 0.00, 0.00, 0.00, 0.01, 0.01, 1.02
139, 0.00, 51188.71, 0.00, 0.00, 0.00, 0.00, 0.00, 0.00, 0.01, 0.01, 1.02
140, 0.00, 51306.06, 0.00, 0.00, 0.00, 0.00, 0.00, 0.00, 0.01, 0.01, 1.02
141, 0.00, 51365.92, 0.00, 0.00, 0.00, 0.00, 0.00, 0.00, 0.01, 0.01, 1.02
142, 0.00, 51430.89, 0.00, 0.00, 0.00, 0.00, 0.00, 0.00, 0.01, 0.01, 1.02
143, 0.00, 51455.01, 0.00, 0.00, 0.00, 0.00, 0.00, 0.00, 0.01, 0.01, 1.02
144, 0.00, 51438.27, 0.00, 0.00, 0.00, 0.00, 0.00, 0.00, 0.01, 0.01, 1.02
145, 0.00, 51446.02, 0.00, 0.00, 0.00, 0.00, 0.00, 0.00, 0.01, 0.01, 1.02
146, 0.00, 51474.55, 0.00, 0.00, 0.00, 0.00, 0.00, 0.00, 0.01, 0.01, 1.02
147, 0.00, 51475.82, 0.00, 0.00, 0.00, 0.00, 0.00, 0.00, 0.01, 0.01, 1.02
148, 0.00, 51454.86, 0.00, 0.00, 0.00, 0.00, 0.00, 0.00, 0.01, 0.01, 1.03
149, 0.00, 51455.93, 0.00, 0.00, 0.00, 0.00, 0.00, 0.00, 0.01, 0.01, 1.03
150, 0.00, 51478.73, 0.00, 0.00, 0.00, 0.00, 0.00, 0.00, 0.01, 0.01, 1.03
151, 0.00, 51485.99, 0.00, 0.00, 0.00, 0.00, 0.00, 0.00, 0.01, 0.01, 1.03
152, 0.00, 51468.04, 0.00, 0.00, 0.00, 0.00, 0.00, 0.00, 0.01, 0.01, 1.03
153, 0.00, 51454.86, 0.00, 0.00, 0.00, 0.00, 0.00, 0.00, 0.01, 0.01, 1.02
154, 0.00, 51469.25, 0.00, 0.00, 0.00, 0.00, 0.00, 0.00, 0.01, 0.01, 1.02
155, 0.00, 51487.31, 0.00, 0.00, 0.00, 0.00, 0.00, 0.00, 0.01, 0.01, 1.02
156, 0.00, 51472.24, 0.00, 0.00, 0.00, 0.00, 0.00, 0.00, 0.01, 0.01, 1.02
157, 0.00, 51459.55, 0.00, 0.00, 0.00, 0.00, 0.00, 0.00, 0.01, 0.01, 1.02
158, 0.00, 51468.04, 0.00, 0.00, 0.00, 0.00, 0.00, 0.00, 0.01, 0.01, 1.03
159, 0.00, 51474.84, 0.00, 0.00, 0.00, 0.00, 0.00, 0.00, 0.01, 0.01, 1.03
160, 0.00, 51457.04, 0.00, 0.00, 0.00, 0.00, 0.00, 0.00, 0.01, 0.01, 1.03
161, 0.00, 51430.98, 0.00, 0.00, 0.00, 0.00, 0.00, 0.00, 0.01, 0.01, 1.03
162, 0.00, 51421.89, 0.00, 0.00, 0.00, 0.00, 0.00, 0.00, 0.01, 0.01, 1.03
163, 0.00, 51415.36, 0.00, 0.00, 0.00, 0.00, 0.00, 0.00, 0.01, 0.01, 1.02
164, 0.00, 51361.89, 0.00, 0.00, 0.00, 0.00, 0.00, 0.00, 0.01, 0.01, 1.02
165, 0.00, 51278.21, 0.00, 0.00, 0.00, 0.00, 0.00, 0.00, 0.01, 0.01, 1.02
166, 0.00, 51205.12, 0.00, 0.00, 0.00, 0.00, 0.00, 0.00, 0.01, 0.01, 1.02
167, 0.00, 51154.96, 0.00, 0.00, 0.00, 0.00, 0.00, 0.00, 0.01, 0.01, 1.02
168, 0.00, 51132.77, 0.00, 0.00, 0.00, 0.00, 0.00, 0.00, 0.00, 0.01, 1.01
169, 0.00, 51135.27, 0.00, 0.00, 0.00, 0.00, 0.00, 0.00, 0.00, 0.01, 1.01
170, 0.00, 51200.91, 0.00, 0.00, 0.00, 0.00, 0.00, 0.00, 0.00, 0.01, 1.01
171, 0.00, 51290.52, 0.00, 0.00, 0.00, 0.00, 0.00, 0.00, 0.00, 0.01, 1.01
172, 0.00, 51363.86, 0.00, 0.00, 0.00, 0.00, 0.00, 0.00, 0.00, 0.01, 1.01
173, 0.00, 51264.48, 0.00, 0.00, 0.00, 0.00, 0.00, 0.00, 0.01, 0.01, 1.01
174, 0.00, 51141.04, 0.00, 0.00, 0.00, 0.00, 0.00, 0.00, 0.01, 0.01, 1.01
175, 0.00, 51084.71, 0.00, 0.00, 0.00, 0.00, 0.00, 0.00, 0.01, 0.01, 1.01
176, 0.00, 51016.11, 0.00, 0.00, 0.00, 0.00, 0.00, 0.00, 0.01, 0.01, 1.01
177, 0.00, 50920.29, 0.00, 0.00, 0.00, 0.00, 0.00, 0.00, 0.01, 0.01, 1.01
178, 0.00, 50848.96, 0.00, 0.00, 0.00, 0.00, 0.00, 0.00, 0.01, 0.01, 1.01
179, 0.00, 50795.14, 0.00, 0.00, 0.00, 0.00, 0.00, 0.00, 0.01, 0.01, 1.01
180, 0.00, 50785.60, 0.00, 0.00, 0.00, 0.00, 0.00, 0.00, 0.01, 0.01, 1.01
181, 0.00, 50782.56, 0.00, 0.00, 0.00, 0.00, 0.00, 0.00, 0.01, 0.01, 1.01
182, 0.00, 50761.77, 0.00, 0.00, 0.00, 0.00, 0.00, 0.00, 0.01, 0.01, 1.01
183, 0.00, 50767.02, 0.00, 0.00, 0.00, 0.00, 0.00, 0.00, 0.01, 0.01, 1.02
184, 0.00, 50795.90, 0.00, 0.00, 0.00, 0.00, 0.00, 0.00, 0.01, 0.01, 1.02
185, 0.00, 50785.13, 0.00, 0.00, 0.00, 0.00, 0.00, 0.00, 0.01, 0.01, 1.02
186, 0.00, 50760.05, 0.00, 0.00, 0.00, 0.00, 0.00, 0.00, 0.01, 0.01, 1.02
187, 0.00, 50756.16, 0.00, 0.00, 0.00, 0.00, 0.00, 0.00, 0.01, 0.01, 1.02
188, 0.00, 50778.60, 0.00, 0.00, 0.00, 0.00, 0.00, 0.00, 0.01, 0.01, 1.01
189, 0.00, 50764.57, 0.00, 0.00, 0.00, 0.00, 0.00, 0.00, 0.01, 0.01, 1.01
190, 0.00, 50724.09, 0.00, 0.00, 0.00, 0.00, 0.00, 0.00, 0.01, 0.01, 1.01
191, 0.00, 50703.68, 0.00, 0.00, 0.00, 0.00, 0.00, 0.00, 0.01, 0.01, 1.01
192, 0.00, 50714.63, 0.00, 0.00, 0.00, 0.00, 0.00, 0.00, 0.01, 0.01, 1.01
193, 0.00, 50701.69, 0.00, 0.00, 0.00, 0.00, 0.00, 0.00, 0.01, 0.01, 1.02
194, 0.00, 50673.10, 0.00, 0.00, 0.00, 0.00, 0.00, 0.00, 0.01, 0.01, 1.02
195, 0.00, 50659.09, 0.00, 0.00, 0.00, 0.00, 0.00, 0.00, 0.01, 0.01, 1.02
196, 0.00, 50653.01, 0.00, 0.00, 0.00, 0.00, 0.00, 0.00, 0.01, 0.01, 1.02
197, 0.00, 50629.65, 0.00, 0.00, 0.00, 0.00, 0.00, 0.00, 0.01, 0.01, 1.02
198, 0.00, 50600.53, 0.00, 0.00, 0.00, 0.00, 0.00, 0.00, 0.01, 0.01, 1.02
199, 0.00, 50589.71, 0.00, 0.00, 0.00, 0.00, 0.00, 0.00, 0.01, 0.01, 1.02
200, 0.00, 50597.66, 0.00, 0.00, 0.00, 0.00, 0.00, 0.00, 0.01, 0.01, 1.02
201, 0.00, 50596.50, 0.00, 0.00, 0.00, 0.00, 0.00, 0.00, 0.01, 0.01, 1.02
202, 0.00, 50561.45, 0.00, 0.00, 0.00, 0.00, 0.00, 0.00, 0.01, 0.01, 1.02
203, 0.00, 50541.09, 0.00, 0.00, 0.00, 0.00, 0.00, 0.00, 0.01, 0.00, 1.02
204, 0.00, 50549.61, 0.00, 0.00, 0.00, 0.00, 0.00, 0.00, 0.01, 0.00, 1.02
205, 0.00, 50562.30, 0.00, 0.00, 0.00, 0.00, 0.00, 0.00, 0.01, 0.00, 1.02
206, 0.00, 50545.20, 0.00, 0.00, 0.00, 0.00, 0.00, 0.00, 0.01, 0.00, 1.02
207, 0.00, 50529.49, 0.00, 0.00, 0.00, 0.00, 0.00, 0.00, 0.01, 0.00, 1.02
208, 0.00, 50535.46, 0.00, 0.00, 0.00, 0.00, 0.00, 0.00, 0.01, 0.01, 1.02
209, 0.00, 50547.86, 0.00, 0.00, 0.00, 0.00, 0.00, 0.00, 0.01, 0.01, 1.02
210, 0.00, 50533.07, 0.00, 0.00, 0.00, 0.00, 0.00, 0.00, 0.01, 0.01, 1.02
211, 0.00, 50501.30, 0.00, 0.00, 0.00, 0.00, 0.00, 0.00, 0.01, 0.01, 1.02
212, 0.00, 50445.61, 0.00, 0.00, 0.00, 0.00, 0.00, 0.00, 0.01, 0.01, 1.02
213, 0.00, 50385.39, 0.00, 0.00, 0.00, 0.00, 0.00, 0.00, 0.00, 0.01, 1.01
214, 0.00, 50326.76, 0.00, 0.00, 0.00, 0.00, 0.00, 0.00, 0.00, 0.01, 1.01
215, 0.00, 50285.07, 0.00, 0.00, 0.00, 0.00, 0.00, 0.00, 0.00, 0.01, 1.01
216, 0.00, 50267.69, 0.00, 0.00, 0.00, 0.00, 0.00, 0.00, 0.00, 0.01, 1.01
217, 0.00, 50372.02, 0.00, 0.00, 0.00, 0.00, 0.00, 0.00, 0.00, 0.01, 1.01
218, 0.00, 50484.70, 0.00, 0.00, 0.00, 0.00, 0.00, 0.00, 0.00, 0.01, 1.01
219, 0.00, 50536.58, 0.00, 0.00, 0.00, 0.00, 0.00, 0.00, 0.00, 0.01, 1.01
220, 0.00, 50671.02, 0.00, 0.00, 0.00, 0.00, 0.00, 0.00, 0.00, 0.01, 1.01
221, 0.00, 50864.16, 0.00, 0.00, 0.00, 0.00, 0.00, 0.00, 0.00, 0.01, 1.01
222, 0.00, 51023.33, 0.00, 0.00, 0.00, 0.00, 0.00, 0.00, 0.00, 0.01, 1.01
223, 0.00, 51151.21, 0.00, 0.00, 0.00, 0.00, 0.00, 0.00, 0.01, 0.01, 1.01
224, 0.00, 51283.93, 0.00, 0.00, 0.00, 0.00, 0.00, 0.00, 0.01, 0.01, 1.01
225, 0.00, 51408.27, 0.00, 0.00, 0.00, 0.00, 0.00, 0.00, 0.01, 0.01, 1.01
226, 0.00, 51525.89, 0.00, 0.00, 0.00, 0.00, 0.00, 0.00, 0.01, 0.01, 1.01
227, 0.00, 51588.14, 0.00, 0.00, 0.00, 0.00, 0.00, 0.00, 0.01, 0.01, 1.01
228, 0.00, 51632.42, 0.00, 0.00, 0.00, 0.00, 0.00, 0.00, 0.01, 0.01, 1.01
229, 0.00, 51644.06, 0.00, 0.00, 0.00, 0.00, 0.00, 0.00, 0.01, 0.01, 1.01
230, 0.00, 51616.21, 0.00, 0.00, 0.00, 0.00, 0.00, 0.00, 0.01, 0.01, 1.01
231, 0.00, 51470.07, 0.00, 0.00, 0.00, 0.00, 0.00, 0.00, 0.01, 0.01, 1.01
232, 0.00, 51304.16, 0.00, 0.00, 0.00, 0.00, 0.00, 0.00, 0.01, 0.01, 1.01
233, 0.00, 51260.55, 0.00, 0.00, 0.00, 0.00, 0.00, 0.00, 0.01, 0.01, 1.02
234, 0.00, 51252.14, 0.00, 0.00, 0.00, 0.00, 0.00, 0.00, 0.01, 0.01, 1.02
235, 0.00, 51212.54, 0.00, 0.00, 0.00, 0.00, 0.00, 0.00, 0.01, 0.01, 1.02
236, 0.00, 51044.10, 0.00, 0.00, 0.00, 0.00, 0.00, 0.00, 0.01, 0.01, 1.02
237, 0.00, 50834.01, 0.00, 0.00, 0.00, 0.00, 0.00, 0.00, 0.01, 0.01, 1.02
238, 0.00, 50674.67, 0.00, 0.00, 0.00, 0.00, 0.00, 0.00, 0.01, 0.00, 1.01
239, 0.00, 50589.35, 0.00, 0.00, 0.00, 0.00, 0.00, 0.00, 0.01, 0.00, 1.01
240, 0.00, 50401.02, 0.00, 0.00, 0.00, 0.00, 0.00, 0.00, 0.01, 0.00, 1.01
241, 0.00, 50275.20, 0.00, 0.00, 0.00, 0.00, 0.00, 0.00, 0.01, 0.00, 1.01
242, 0.00, 50177.72, 0.00, 0.00, 0.00, 0.00, 0.00, 0.00, 0.01, 0.00, 1.01
243, 0.00, 50031.88, 0.00, 0.00, 0.00, 0.00, 0.00, 0.00, 0.01, 0.01, 1.02
244, 0.00, 49853.98, 0.00, 0.00, 0.00, 0.00, 0.00, 0.00, 0.01, 0.01, 1.02
245, 0.00, 49734.51, 0.00, 0.00, 0.00, 0.00, 0.00, 0.00, 0.01, 0.01, 1.02
246, 0.00, 49703.59, 0.00, 0.00, 0.00, 0.00, 0.00, 0.00, 0.01, 0.01, 1.02
247, 0.00, 49686.99, 0.00, 0.00, 0.00, 0.00, 0.00, 0.00, 0.01, 0.01, 1.02
248, 0.00, 49659.45, 0.00, 0.00, 0.00, 0.00, 0.00, 0.00, 0.01, 0.00, 1.02
249, 0.00, 49602.30, 0.00, 0.00, 0.00, 0.00, 0.00, 0.00, 0.01, 0.00, 1.02
250, 0.00, 49561.62, 0.00, 0.00, 0.00, 0.00, 0.00, 0.00, 0.01, 0.00, 1.02
251, 0.00, 49536.61, 0.00, 0.00, 0.00, 0.00, 0.00, 0.00, 0.01, 0.00, 1.02
252, 0.00, 49499.43, 0.00, 0.00, 0.00, 0.00, 0.00, 0.00, 0.01, 0.00, 1.02
253, 0.00, 49449.57, 0.00, 0.00, 0.00, 0.00, 0.00, 0.00, 0.01, 0.01, 1.02
254, 0.00, 49406.72, 0.00, 0.00, 0.00, 0.00, 0.00, 0.00, 0.01, 0.01, 1.02
255, 0.00, 49367.56, 0.00, 0.00, 0.00, 0.00, 0.00, 0.00, 0.01, 0.01, 1.02
0, 0.00, 49294.22, 0.00, 0.00, 0.00, 0.00, 0.00, 0.00, 0.01, 0.01, 1.02
1, 0.00, 49198.38, 0.00, 0.00, 0.00, 0.00, 0.00, 0.00, 0.01, 0.01, 1.02
2, 0.00, 49125.87, 0.00, 0.00, 0.00, 0.00, 0.00, 0.00, 0.01, 0.01, 1.02
3, 0.00, 49064.49, 0.00, 0.00, 0.00, 0.00, 0.00, 0.00, 0.01, 0.01, 1.02
4, 0.00, 48976.96, 0.00, 0.00, 0.00, 0.00, 0.00, 0.00, 0.01, 0.01, 1.02
5, 0.00, 48878.82, 0.00, 0.00, 0.00, 0.00, 0.00, 0.00, 0.01, 0.01, 1.02
6, 0.00, 48802.93, 0.00, 0.00, 0.00, 0.00, 0.00, 0.00, 0.01, 0.01, 1.02
7, 0.00, 48751.66, 0.00, 0.00, 0.00, 0.00, 0.00, 0.00, 0.01, 0.01, 1.02
8, 0.00, 48695.46, 0.00, 0.00, 0.00, 0.00, 0.00, 0.00, 0.01, 0.01, 1.02
9, 0.00, 48615.02, 0.00, 0.00, 0.00, 0.00, 0.00, 0.00, 0.01, 0.01, 1.02
10, 0.00, 48566.14, 0.00, 0.00, 0.00, 0.00, 0.00, 0.00, 0.01, 0.01, 1.02
11, 0.00, 48535.70, 0.00, 0.00, 0.00, 0.00, 0.00, 0.00, 0.01, 0.01, 1.02
12, 0.00, 48494.77, 0.00, 0.00, 0.00, 0.00, 0.00, 0.00, 0.00, 0.01, 1.02
13, 0.00, 48455.41, 0.00, 0.00, 0.00, 0.00, 0.00, 0.00, 0.00, 0.01, 1.02
14, 0.00, 48412.71, 0.00, 0.00, 0.00, 0.00, 0.00, 0.00, 0.00, 0.01, 1.02
15, 0.00, 48371.03, 0.00, 0.00, 0.00, 0.00, 0.00, 0.00, 0.00, 0.01, 1.02
16, 0.00, 48329.52, 0.00, 0.00, 0.00, 0.00, 0.00, 0.00, 0.00, 0.01, 1.02
17, 0.00, 48264.59, 0.00, 0.00, 0.00, 0.00, 0.00, 0.00, 0.00, 0.01, 1.02
18, 0.00, 48194.74, 0.00, 0.00, 0.00, 0.00, 0.00, 0.00, 0.00, 0.01, 1.02
19, 0.00, 48132.42, 0.00, 0.00, 0.00, 0.00, 0.00, 0.00, 0.00, 0.01, 1.02
20, 0.00, 48079.07, 0.00, 0.00, 0.00, 0.00, 0.00, 0.00, 0.00, 0.01, 1.02
21, 0.00, 48003.52, 0.00, 0.00, 0.00, 0.00, 0.00, 0.00, 0.00, 0.01, 1.02
22, 0.00, 47935.75, 0.00, 0.00, 0.00, 0.00, 0.00, 0.00, 0.00, 0.01, 1.02
23, 0.00, 47902.83, 0.00, 0.00, 0.00, 0.00, 0.00, 0.00, 0.00, 0.01, 1.02
24, 0.00, 47859.02, 0.00, 0.00, 0.00, 0.00, 0.00, 0.00, 0.00, 0.01, 1.02
25, 0.00, 47793.48, 0.00, 0.00, 0.00, 0.00, 0.00, 0.00, 0.00, 0.01, 1.02
26, 0.00, 47710.64, 0.00, 0.00, 0.00, 0.00, 0.00, 0.00, 0.00, 0.01, 1.02
27, 0.00, 47659.91, 0.00, 0.00, 0.00, 0.00, 0.00, 0.00, 0.01, 0.01, 1.02
28, 0.00, 47614.22, 0.00, 0.00, 0.00, 0.00, 0.00, 0.00, 0.01, 0.01, 1.02
29, 0.00, 47535.88, 0.00, 0.00, 0.00, 0.00, 0.00, 0.00, 0.01, 0.01, 1.02
30, 0.00, 47449.87, 0.00, 0.00, 0.00, 0.00, 0.00, 0.00, 0.01, 0.01, 1.02
31, 0.00, 47399.35, 0.00, 0.00, 0.00, 0.00, 0.00, 0.00, 0.01, 0.01, 1.02
32, 0.00, 47367.99, 0.00, 0.00, 0.00, 0.00, 0.00, 0.00, 0.01, 0.00, 1.02
33, 0.00, 47300.96, 0.00, 0.00, 0.00, 0.00, 0.00, 0.00, 0.01, 0.00, 1.02
34, 0.00, 47216.38, 0.00, 0.00, 0.00, 0.00, 0.00, 0.00, 0.01, 0.00, 1.02
35, 0.00, 47152.25, 0.00, 0.00, 0.00, 0.00, 0.00, 0.00, 0.01, 0.00, 1.02
36, 0.00, 47083.93, 0.00, 0.00, 0.00, 0.00, 0.00, 0.00, 0.01, 0.00, 1.02
37, 0.00, 47039.33, 0.00, 0.00, 0.00, 0.00, 0.00, 0.00, 0.01, 0.01, 1.02
38, 0.00, 46958.09, 0.00, 0.00, 0.00, 0.00, 0.00, 0.00, 0.01, 0.01, 1.02
39, 0.00, 46888.37, 0.00, 0.00, 0.00, 0.00, 0.00, 0.00, 0.01, 0.01, 1.02
40, 0.00, 46871.02, 0.00, 0.00, 0.00, 0.00, 0.00, 0.00, 0.01, 0.01, 1.02
41, 0.00, 46852.03, 0.00, 0.00, 0.00, 0.00, 0.00, 0.00, 0.01, 0.01, 1.02
42, 0.00, 46808.64, 0.00, 0.00, 0.00, 0.00, 0.00, 0.00, 0.01, 0.01, 1.03
43, 0.00, 46756.25, 0.00, 0.00, 0.00, 0.00, 0.00, 0.00, 0.01, 0.01, 1.03
44, 0.00, 46735.91, 0.00, 0.00, 0.00, 0.00, 0.00, 0.00, 0.01, 0.01, 1.03
45, 0.00, 46675.67, 0.00, 0.00, 0.00, 0.00, 0.00, 0.00, 0.01, 0.01, 1.03
46, 0.00, 46576.56, 0.00, 0.00, 0.00, 0.00, 0.00, 0.00, 0.01, 0.01, 1.03
47, 0.00, 46502.71, 0.00, 0.00, 0.00, 0.00, 0.00, 0.00, 0.01, 0.01, 1.02
48, 0.00, 46446.34, 0.00, 0.00, 0.00, 0.00, 0.00, 0.00, 0.01, 0.01, 1.02
49, 0.00, 46403.72, 0.00, 0.00, 0.00, 0.00, 0.00, 0.00, 0.01, 0.01, 1.02
50, 0.00, 46323.86, 0.00, 0.00, 0.00, 0.00, 0.00, 0.00, 0.01, 0.01, 1.02
51, 0.00, 46229.15, 0.00, 0.00, 0.00, 0.00, 0.00, 0.00, 0.01, 0.01, 1.02
52, 0.00, 46174.37, 0.00, 0.00, 0.00, 0.00, 0.00, 0.00, 0.01, 0.01, 1.02
53, 0.00, 46135.14, 0.00, 0.00, 0.00, 0.00, 0.00, 0.00, 0.01, 0.01, 1.02
54, 0.00, 46066.45, 0.00, 0.00, 0.00, 0.00, 0.00, 0.00, 0.01, 0.01, 1.02
55, 0.00, 46001.41, 0.00, 0.00, 0.00, 0.00, 0.00, 0.00, 0.01, 0.01, 1.02
56, 0.00, 45956.79, 0.00, 0.00, 0.00, 0.00, 0.00, 0.00, 0.01, 0.01, 1.02
57, 0.00, 45915.13, 0.00, 0.00, 0.00, 0.00, 0.00, 0.00, 0.01, 0.01, 1.02
58, 0.00, 45866.40, 0.00, 0.00, 0.00, 0.00, 0.00, 0.00, 0.01, 0.01, 1.02
59, 0.00, 45792.66, 0.00, 0.00, 0.00, 0.00, 0.00, 0.00, 0.01, 0.01, 1.02
60, 0.00, 45723.89, 0.00, 0.00, 0.00, 0.00, 0.00, 0.00, 0.01, 0.01, 1.02
61, 0.00, 45687.25, 0.00, 0.00, 0.00, 0.00, 0.00, 0.00, 0.01, 0.01, 1.02
62, 0.00, 45661.26, 0.00, 0.00, 0.00, 0.00, 0.00, 0.00, 0.01, 0.02, 1.01
63, 0.00, 45594.76, 0.00, 0.00, 0.00, 0.00, 0.00, 0.00, 0.01, 0.02, 1.01
64, 0.00, 45545.95, 0.00, 0.00, 0.00, 0.00, 0.00, 0.00, 0.01, 0.02, 1.01
65, 0.00, 45520.62, 0.00, 0.00, 0.00, 0.00, 0.00, 0.00, 0.01, 0.02, 1.01
66, 0.00, 45488.66, 0.00, 0.00, 0.00, 0.00, 0.00, 0.00, 0.01, 0.02, 1.01
67, 0.00, 45433.56, 0.00, 0.00, 0.00, 0.00, 0.00, 0.00, 0.01, 0.02, 1.01
68, 0.00, 45374.55, 0.00, 0.00, 0.00, 0.00, 0.00, 0.00, 0.01, 0.02, 1.01
69, 0.00, 45355.78, 0.00, 0.00, 0.00, 0.00, 0.00, 0.00, 0.01, 0.02, 1.01
70, 0.00, 45343.80, 0.00, 0.00, 0.00, 0.00, 0.00, 0.00, 0.01, 0.02, 1.01
71, 0.00, 45296.68, 0.00, 0.00, 0.00, 0.00, 0.00, 0.00, 0.01, 0.02, 1.01
72, 0.00, 45241.16, 0.00, 0.00, 0.00, 0.00, 0.00, 0.00, 0.01, 0.01, 1.02
73, 0.00, 45220.66, 0.00, 0.00, 0.00, 0.00, 0.00, 0.00, 0.01, 0.01, 1.02
74, 0.00, 45204.55, 0.00, 0.00, 0.00, 0.00, 0.00, 0.00, 0.01, 0.01, 1.02
75, 0.00, 45155.42, 0.00, 0.00, 0.00, 0.00, 0.00, 0.00, 0.01, 0.01, 1.02
76, 0.00, 45098.84, 0.00, 0.00, 0.00, 0.00, 0.00, 0.00, 0.01, 0.01, 1.02
77, 0.00, 45078.19, 0.00, 0.00, 0.00, 0.00, 0.00, 0.00, 0.01, 0.02, 1.02
78, 0.00, 45055.86, 0.00, 0.00, 0.00, 0.00, 0.00, 0.00, 0.01, 0.02, 1.02
79, 0.00, 45014.20, 0.00, 0.00, 0.00, 0.00, 0.00, 0.00, 0.01, 0.02, 1.02
80, 0.00, 44960.96, 0.00, 0.00, 0.00, 0.00, 0.00, 0.00, 0.01, 0.02, 1.02
81, 0.00, 44916.07, 0.00, 0.00, 0.00, 0.00, 0.00, 0.00, 0.01, 0.02, 1.02
82, 0.00, 44889.52, 0.00, 0.00, 0.00, 0.00, 0.00, 0.00, 0.01, 0.01, 1.02
83, 0.00, 44856.39, 0.00, 0.00, 0.00, 0.00, 0.00, 0.00, 0.01, 0.01, 1.02
84, 0.00, 44780.63, 0.00, 0.00, 0.00, 0.00, 0.00, 0.00, 0.01, 0.01, 1.02
85, 0.00, 44725.95, 0.00, 0.00, 0.00, 0.00, 0.00, 0.00, 0.01, 0.01, 1.02
86, 0.00, 44696.40, 0.00, 0.00, 0.00, 0.00, 0.00, 0.00, 0.01, 0.01, 1.02
87, 0.00, 44679.64, 0.00, 0.00, 0.00, 0.00, 0.00, 0.00, 0.01, 0.01, 1.01
88, 0.00, 44629.23, 0.00, 0.00, 0.00, 0.00, 0.00, 0.00, 0.01, 0.01, 1.01
89, 0.00, 44557.06, 0.00, 0.00, 0.00, 0.00, 0.00, 0.00, 0.01, 0.01, 1.01
90, 0.00, 44534.87, 0.00, 0.00, 0.00, 0.00, 0.00, 0.00, 0.01, 0.01, 1.01
91, 0.00, 44528.74, 0.00, 0.00, 0.00, 0.00, 0.00, 0.00, 0.01, 0.01, 1.01
92, 0.00, 44485.85, 0.00, 0.00, 0.00, 0.00, 0.00, 0.00, 0.01, 0.02, 1.02
