%OpenBCI Raw EEG Data
%
%Sample Rate = 250.0 Hz
%First Column = SampleIndex
%Other Columns = EEG data in microvolts followed by Accel Data (in G) interleaved with Aux Data
0, 11054.77, 159522.86, -73977.32, -22186.05, -100798.14, 20426.57, 14161.84, -91522.95, 0.06, 0.28, 0.43
1, 7512.71, 143629.02, -77587.08, -28143.28, -104440.45, 17011.98, 5881.01, -95212.88, 0.06, 0.28, 0.43
2, 8365.32, 156295.95, -76799.25, -29403.07, -103687.62, 17911.55, 8206.35, -94510.13, 0.12, 0.58, 0.85
3, 11656.72, 173066.17, -73563.41, -24598.47, -100484.50, 21191.26, 16300.48, -91358.04, 0.12, 0.58, 0.85
4, 11068.99, 161891.47, -74208.80, -23074.96, -101157.24, 20660.52, 15155.82, -92081.12, 0.12, 0.58, 0.85
5, 7714.46, 143772.09, -77630.66, -27789.68, -104608.87, 17426.87, 7344.94, -95581.22, 0.12, 0.58, 0.85
6, 7631.71, 151711.08, -77780.24, -30449.69, -104794.98, 17409.84, 7286.94, -95816.45, 0.12, 0.58, 0.85
7, 10858.66, 170657.55, -74610.16, -26495.67, -101657.63, 20630.50, 15153.32, -92730.57, 0.13, 0.57, 0.85
8, 11174.40, 164561.86, -74349.70, -23814.78, -101424.08, 20988.60, 16135.41, -92546.52, 0.13, 0.57, 0.85
9, 7936.37, 144854.34, -77652.69, -27760.89, -104756.38, 17867.63, 8573.41, -95927.45, 0.13, 0.57, 0.85
10, 7427.82, 148731.23, -78230.09, -30430.56, -105366.39, 17431.32, 7645.08, -96588.26, 0.13, 0.57, 0.85
11, 11736.59, 171928.56, -73977.66, -24363.76, -101145.82, 21709.78, 18246.85, -92419.41, 0.13, 0.57, 0.85
12, 11808.40, 168452.75, -73960.96, -23278.92, -101156.98, 21818.45, 17866.71, -92479.83, 0.12, 0.57, 0.85
13, 6594.30, 142593.59, -79243.99, -31445.53, -106471.21, 16754.96, 5235.87, -97843.41, 0.12, 0.57, 0.85
14, 5587.78, 141753.13, -80320.95, -34114.66, -107581.52, 15838.62, 3864.46, -99005.23, 0.12, 0.57, 0.85
15, 10597.83, 167327.61, -75364.63, -26555.41, -102658.02, 20814.12, 16562.04, -94132.63, 0.12, 0.57, 0.85
16, 11883.82, 170415.27, -74128.38, -23789.43, -101451.37, 22115.40, 18974.15, -92975.56, 0.12, 0.57, 0.85
17, 6724.92, 144400.63, -79352.36, -31788.90, -106707.58, 17105.41, 6225.32, -98277.35, 0.12, 0.56, 0.85
18, 4612.33, 137408.00, -81535.45, -35986.22, -108926.55, 15105.31, 2158.35, -100543.44, 0.12, 0.56, 0.85
19, 9252.39, 161817.89, -76951.16, -29137.08, -104377.77, 19722.80, 14189.92, -96044.39, 0.12, 0.56, 0.85
20, 11757.00, 171541.20, -74495.77, -24647.20, -101954.73, 22221.50, 19625.61, -93669.50, 0.12, 0.56, 0.85
21, 6910.89, 146887.23, -79406.96, -32133.56, -106896.52, 17511.23, 7382.09, -98658.72, 0.12, 0.56, 0.85
22, 3400.26, 132929.44, -82990.66, -38474.64, -110513.77, 14139.11, -130.98, -102325.23, 0.12, 0.57, 0.86
23, 7321.94, 154318.66, -79128.37, -32848.21, -106686.77, 18056.95, 10483.64, -98550.49, 0.12, 0.57, 0.86
24, 10965.50, 170096.80, -75532.82, -26694.15, -103124.09, 21677.86, 18897.24, -95038.32, 0.12, 0.57, 0.86
25, 6905.08, 148991.36, -79655.83, -32900.70, -107278.13, 17740.42, 8390.62, -99241.14, 0.12, 0.57, 0.86
26, 2593.88, 130146.96, -84043.43, -40282.65, -111699.73, 13580.72, -1204.67, -103710.73, 0.12, 0.57, 0.86
27, 5670.73, 147463.70, -81030.63, -35987.47, -108723.35, 16673.39, 7510.25, -100784.28, 0.13, 0.57, 0.86
28, 10207.50, 168256.78, -76545.38, -28583.72, -104271.11, 21173.36, 18273.33, -96382.89, 0.13, 0.57, 0.86
29, 7156.76, 151922.70, -79656.85, -33173.59, -107414.39, 18220.78, 10054.15, -99574.70, 0.13, 0.57, 0.86
30, 2158.95, 128983.95, -84730.43, -41472.63, -112521.07, 13384.60, -1436.90, -104730.48, 0.13, 0.57, 0.86
31, 4041.04, 140685.70, -82915.34, -39096.71, -110740.15, 15308.55, 4484.03, -103001.91, 0.13, 0.57, 0.86
32, 9313.48, 165372.22, -77692.38, -30585.54, -105551.23, 20535.53, 17326.04, -97864.90, 0.13, 0.57, 0.85
33, 7753.46, 155649.30, -79309.38, -32664.08, -107198.91, 19044.33, 12600.93, -99562.09, 0.13, 0.57, 0.85
34, 2329.36, 129971.21, -84807.19, -41491.96, -112727.98, 13782.89, -288.54, -105141.04, 0.13, 0.57, 0.85
35, 2915.87, 135360.91, -84290.57, -41160.98, -112245.63, 14435.20, 2483.01, -104709.91, 0.13, 0.57, 0.85
36, 8445.16, 161944.59, -78811.35, -32372.86, -106802.02, 19918.33, 16239.35, -99316.89, 0.13, 0.57, 0.85
37, 8387.36, 159430.03, -78922.42, -32056.07, -106946.09, 19899.51, 15121.65, -99508.60, 0.13, 0.57, 0.85
38, 2825.55, 132518.61, -84553.34, -40987.51, -112610.72, 14498.82, 1533.49, -105219.85, 0.13, 0.57, 0.85
39, 1963.67, 130971.96, -85486.08, -42977.29, -113576.56, 13727.90, 710.81, -106237.55, 0.13, 0.57, 0.85
40, 7279.18, 157337.20, -80224.68, -34692.97, -108347.55, 19005.96, 14273.22, -101061.76, 0.13, 0.57, 0.85
41, 8678.04, 162004.08, -78876.63, -32075.89, -107031.75, 20418.90, 16815.28, -99796.00, 0.13, 0.57, 0.85
42, 3278.98, 135582.69, -84341.98, -40699.30, -112531.51, 15173.41, 3282.20, -105344.04, 0.13, 0.57, 0.86
43, 1022.01, 127069.46, -86669.96, -44870.90, -114896.68, 13034.60, -1059.56, -107759.37, 0.13, 0.57, 0.86
44, 5864.45, 151657.94, -81882.91, -37427.26, -110146.51, 17853.81, 11712.18, -103061.56, 0.13, 0.57, 0.86
45, 8687.18, 163196.08, -79108.45, -32506.92, -107405.49, 20665.51, 17971.07, -100371.94, 0.13, 0.57, 0.86
46, 3946.60, 139334.88, -83913.34, -39942.77, -112243.15, 16061.72, 5777.05, -105257.42, 0.13, 0.57, 0.86
47, 551.33, 124880.66, -87383.09, -45859.90, -115745.76, 12801.87, -1603.02, -108811.44, 0.13, 0.57, 0.86
48, 4577.79, 145977.31, -83415.08, -39835.77, -111812.30, 16822.37, 9314.84, -104931.36, 0.13, 0.57, 0.86
49, 8604.93, 163635.47, -79434.34, -33071.30, -107864.77, 20819.22, 18694.87, -101034.84, 0.13, 0.57, 0.86
50, 4846.10, 143984.59, -83252.73, -38823.44, -111715.40, 17174.92, 8682.74, -104932.98, 0.13, 0.57, 0.86
51, 465.03, 124327.39, -87705.47, -46210.98, -116203.41, 12944.36, -1367.68, -109470.57, 0.13, 0.57, 0.86
52, 3364.85, 140415.86, -84868.16, -42073.11, -113400.55, 15862.58, 6923.70, -106719.27, 0.13, 0.57, 0.85
53, 8299.90, 162893.88, -79982.16, -33949.30, -108546.41, 20751.56, 18761.14, -101915.62, 0.13, 0.57, 0.85
54, 5814.54, 149001.17, -82523.78, -37589.71, -111124.02, 18349.87, 11668.21, -104540.76, 0.13, 0.57, 0.85
55, 683.05, 125228.59, -87725.25, -46080.04, -116364.23, 13373.72, -531.57, -109830.26, 0.13, 0.57, 0.85
56, 2187.70, 135094.67, -86285.46, -44297.78, -114961.48, 14923.12, 4391.29, -108478.48, 0.13, 0.57, 0.85
57, 7559.05, 160453.05, -80964.85, -35650.85, -109675.13, 20243.46, 17587.60, -103244.42, 0.13, 0.57, 0.85
58, 6415.20, 152966.64, -82161.91, -37121.35, -110905.62, 19156.72, 13759.46, -104525.38, 0.13, 0.57, 0.85
59, 817.16, 126623.55, -87830.55, -46284.45, -116610.77, 13716.93, 165.89, -110279.84, 0.13, 0.57, 0.85
60, 933.03, 129762.35, -87785.22, -46704.30, -116602.50, 13900.84, 1750.45, -110321.88, 0.13, 0.57, 0.85
61, 6474.99, 156406.13, -82295.37, -37882.72, -111147.15, 19395.93, 15709.43, -104917.45, 0.13, 0.57, 0.85
62, 6885.66, 156029.28, -81936.02, -36781.71, -110820.82, 19834.80, 15731.54, -104640.72, 0.13, 0.57, 0.85
63, 1409.23, 129442.14, -87480.50, -45564.77, -116400.59, 14512.43, 2109.80, -110270.18, 0.13, 0.57, 0.85
64, 133.60, 125861.06, -88823.64, -48211.91, -117782.98, 13332.70, 155.88, -111703.66, 0.13, 0.57, 0.85
65, 5335.20, 151743.17, -83671.14, -40119.32, -112669.53, 18497.61, 13570.62, -106642.77, 0.13, 0.57, 0.85
66, 7192.30, 158530.77, -81860.31, -36735.56, -110894.02, 20358.04, 17287.20, -104917.07, 0.13, 0.57, 0.85
67, 2027.53, 133068.25, -87089.63, -44933.73, -116157.97, 15337.50, 4137.93, -110229.23, 0.12, 0.57, 0.85
68, -611.61, 122786.38, -89802.98, -49741.44, -118905.78, 12815.64, -1325.03, -113027.31, 0.12, 0.57, 0.85
69, 3971.30, 146209.53, -85276.84, -42744.00, -114416.85, 17377.10, 10857.23, -108587.81, 0.12, 0.57, 0.85
70, 7244.24, 159777.30, -82049.65, -37065.47, -111225.85, 20628.29, 18296.33, -105445.60, 0.12, 0.57, 0.85
71, 2870.41, 137467.45, -86484.22, -43850.07, -115695.69, 16377.99, 6850.59, -109964.19, 0.12, 0.57, 0.85
72, -950.91, 121161.09, -90377.24, -50492.30, -119626.51, 12693.98, -1750.03, -113943.73, 0.12, 0.57, 0.85
73, 2545.86, 140301.31, -86939.23, -45464.05, -116227.55, 16190.84, 7942.38, -110595.51, 0.12, 0.57, 0.85
74, 6855.53, 159369.08, -82675.95, -38243.34, -111998.84, 20462.13, 18199.35, -106418.04, 0.12, 0.57, 0.85
75, 3474.87, 141456.75, -86115.95, -43348.12, -115472.37, 17183.93, 9052.34, -109940.63, 0.12, 0.57, 0.85
76, -1216.00, 120417.60, -90879.93, -51237.93, -120273.10, 12642.57, -1869.75, -114790.82, 0.12, 0.57, 0.85
77, 1167.41, 134395.14, -88559.09, -48009.06, -117992.04, 15050.05, 5239.67, -112560.37, 0.12, 0.57, 0.85
78, 6291.81, 157852.23, -83481.35, -39579.62, -112951.67, 20124.48, 17751.91, -107570.59, 0.12, 0.57, 0.85
79, 4251.79, 145943.20, -85577.27, -42436.48, -115081.44, 18157.84, 11758.31, -109750.10, 0.12, 0.57, 0.85
80, -1008.11, 121533.31, -90909.59, -51116.23, -120449.99, 13052.59, -903.14, -115169.52, 0.12, 0.57, 0.85
81, 15.83, 129275.69, -89950.14, -50143.61, -119531.67, 14126.97, 2862.79, -114299.51, 0.12, 0.57, 0.85
82, 5417.39, 155004.63, -84595.94, -41477.53, -114215.66, 19476.28, 16363.22, -109032.41, 0.12, 0.57, 0.85
83, 4793.69, 149879.28, -85271.66, -42063.43, -114926.59, 18898.24, 13861.61, -109792.52, 0.12, 0.57, 0.85
84, -766.80, 123445.57, -90899.98, -51106.52, -120591.88, 13497.48, 165.94, -115505.36, 0.12, 0.57, 0.85
85, -1119.46, 124409.76, -91319.14, -52334.48, -121050.23, 13225.26, 517.58, -116012.91, 0.12, 0.57, 0.85
86, 4338.99, 150866.02, -85912.34, -43697.86, -115680.69, 18637.35, 14459.30, -110694.40, 0.12, 0.57, 0.85
87, 5234.22, 152816.48, -85068.19, -41804.06, -114871.24, 19549.57, 15771.99, -109934.19, 0.12, 0.57, 0.85
88, -180.69, 126441.98, -90549.40, -50483.85, -120390.05, 14284.13, 2130.88, -115499.80, 0.12, 0.57, 0.85
89, -1995.63, 120486.05, -92433.53, -54054.96, -122314.24, 12571.83, -1227.02, -117473.86, 0.12, 0.57, 0.85
90, 2950.07, 145535.73, -87541.66, -46453.27, -117460.47, 17484.70, 11723.11, -112671.20, 0.12, 0.57, 0.85
91, 5208.43, 154354.95, -85330.71, -42445.80, -115285.40, 19737.95, 16504.59, -110547.50, 0.12, 0.57, 0.85
92, 242.87, 129633.32, -90359.13, -50292.74, -120349.14, 14911.38, 3707.91, -115662.77, 0.12, 0.57, 0.85
93, -2608.98, 117801.76, -93281.72, -55315.80, -123309.92, 12183.09, -2340.36, -118674.59, 0.12, 0.57, 0.85
94, 1813.15, 140448.34, -88915.15, -48561.60, -118982.40, 16587.38, 9512.41, -114399.20, 0.12, 0.57, 0.85
95, 5277.13, 155563.91, -85497.34, -42759.87, -115601.68, 20025.66, 17366.52, -111066.40, 0.12, 0.57, 0.85
96, 978.02, 133969.52, -89859.15, -49563.36, -120000.16, 15846.18, 5939.64, -115510.26, 0.12, 0.57, 0.85
97, -3012.86, 116352.96, -93923.34, -56345.77, -124102.13, 11994.75, -3107.72, -119660.93, 0.12, 0.57, 0.85
98, 461.52, 134781.44, -90509.27, -51156.82, -120726.38, 15469.64, 6611.53, -116337.27, 0.12, 0.57, 0.85
99, 4950.26, 155229.03, -86068.43, -43784.61, -116323.33, 19913.59, 17254.90, -111987.71, 0.12, 0.57, 0.85
100, 1703.81, 138574.83, -89372.46, -48875.35, -119665.11, 16763.88, 8252.98, -115377.98, 0.12, 0.57, 0.85
101, -3239.48, 116167.82, -94386.74, -57149.86, -124718.98, 11976.24, -3389.42, -120479.30, 0.12, 0.57, 0.85
102, -957.44, 129063.48, -92166.09, -53900.85, -122538.67, 14285.94, 3561.28, -118349.55, 0.12, 0.57, 0.84
103, 4308.70, 153518.69, -86944.39, -45320.48, -117356.24, 19500.35, 16446.97, -113216.08, 0.12, 0.57, 0.84
104, 2345.95, 142852.63, -88959.63, -48326.01, -119407.35, 17609.71, 10507.89, -115315.95, 0.12, 0.57, 0.84
105, -3108.37, 117537.13, -94484.27, -57341.03, -124968.35, 12314.94, -2673.63, -120927.34, 0.12, 0.57, 0.84
106, -2133.52, 124222.74, -93574.50, -56191.70, -124097.87, 13340.84, 1112.31, -120108.13, 0.12, 0.57, 0.84
107, 3491.79, 150931.47, -87997.67, -47137.91, -118558.95, 18908.30, 15192.08, -114621.84, 0.13, 0.57, 0.85
108, 2982.50, 147118.03, -88559.87, -47803.54, -119157.16, 18439.70, 12798.68, -115268.19, 0.13, 0.57, 0.85
109, -2608.60, 120503.59, -94220.91, -56905.68, -124857.04, 13002.59, -1024.36, -121015.67, 0.13, 0.57, 0.85
110, -2924.64, 120674.02, -94604.56, -57738.29, -125280.12, 12760.25, -462.01, -121490.35, 0.13, 0.57, 0.85
111, 2708.87, 147785.39, -89021.59, -48719.74, -119734.45, 18340.32, 13915.46, -115996.97, 0.13, 0.57, 0.85
112, 3675.81, 151149.59, -88104.80, -47041.73, -118852.98, 19319.39, 15173.46, -115166.82, 0.12, 0.57, 0.85
113, -1876.07, 124501.58, -93723.21, -56065.88, -124509.85, 13914.21, 1091.93, -120873.16, 0.12, 0.57, 0.85
114, -3626.59, 117620.38, -95544.79, -59184.42, -126370.48, 12263.80, -1982.35, -122783.60, 0.12, 0.57, 0.85
115, 1577.70, 143079.09, -90394.43, -50945.30, -121260.04, 17428.04, 11642.89, -117724.06, 0.12, 0.57, 0.85
116, 3961.02, 153339.84, -88054.34, -47014.86, -118959.53, 19801.99, 16598.36, -115474.30, 0.12, 0.57, 0.85
117, -1169.93, 128581.11, -93244.19, -55362.54, -124189.66, 14810.02, 3305.49, -120753.10, 0.12, 0.57, 0.85
118, -4328.01, 114909.63, -96471.11, -60740.33, -127455.90, 11778.39, -3381.62, -124070.77, 0.12, 0.57, 0.85
119, 129.60, 137086.59, -92069.25, -53705.63, -123092.59, 16215.09, 8712.93, -119760.82, 0.12, 0.57, 0.85
120, 3828.88, 153687.19, -88416.23, -47613.73, -119476.77, 19880.40, 17123.89, -116197.35, 0.12, 0.57, 0.85
121, -507.99, 132531.20, -92813.18, -54644.00, -123910.69, 15660.15, 5512.03, -120681.47, 0.12, 0.57, 0.85
122, -4751.58, 113381.08, -97129.88, -61732.99, -128264.68, 11557.84, -4128.14, -125086.48, 0.12, 0.56, 0.85
123, -1388.13, 130718.98, -93826.95, -56541.11, -125000.88, 14922.67, 5449.53, -121873.13, 0.12, 0.56, 0.85
124, 3378.38, 152557.33, -89104.84, -48733.11, -120316.46, 19638.44, 16820.89, -117239.63, 0.12, 0.56, 0.85
125, 236.79, 136825.59, -92302.62, -53789.67, -123553.09, 16587.23, 7979.84, -120525.67, 0.12, 0.56, 0.85
126, -4850.53, 113345.05, -97463.70, -62198.09, -128752.77, 11653.37, -4037.53, -125775.05, 0.12, 0.56, 0.85
127, -2793.83, 124690.16, -95469.86, -59161.63, -126799.68, 13740.80, 2433.39, -123872.07, 0.13, 0.57, 0.85
128, 2583.86, 149928.66, -90137.23, -50454.01, -121507.30, 19063.56, 15650.65, -118631.34, 0.13, 0.57, 0.85
129, 837.10, 140704.30, -91938.47, -53241.88, -123348.52, 17380.47, 10176.50, -120519.98, 0.13, 0.57, 0.85
130, -4801.06, 114335.36, -97651.23, -62512.62, -129099.49, 11900.36, -3519.24, -126319.29, 0.13, 0.57, 0.85
131, -4156.96, 118999.09, -97075.63, -61768.60, -128562.34, 12601.58, -490.33, -125834.64, 0.13, 0.57, 0.85
132, 1523.27, 145996.31, -91441.68, -52616.81, -122968.84, 18226.26, 13827.59, -120292.10, 0.13, 0.57, 0.85
133, 1259.88, 143846.45, -91753.53, -53011.54, -123319.82, 18000.89, 12013.57, -120693.07, 0.13, 0.57, 0.85
134, -4629.81, 116296.23, -97712.48, -62731.00, -129315.99, 12271.31, -2642.33, -126738.92, 0.13, 0.57, 0.85
135, -5460.87, 113951.40, -98613.88, -64392.51, -130256.22, 11526.68, -3285.28, -127728.88, 0.13, 0.57, 0.85
136, 162.85, 140909.77, -93042.20, -55369.16, -124722.87, 17100.18, 11236.29, -122247.59, 0.13, 0.57, 0.85
137, 1526.18, 146259.22, -91727.29, -53070.66, -123447.67, 18466.05, 13517.71, -121023.72, 0.13, 0.57, 0.85
138, -4013.64, 119706.80, -97332.57, -62075.46, -129094.44, 13072.19, -607.16, -126718.30, 0.13, 0.57, 0.85
139, -6212.91, 110631.72, -99602.43, -65887.95, -131406.73, 10981.28, -4812.24, -129079.84, 0.13, 0.57, 0.85
140, -1149.24, 135402.64, -94592.06, -57829.79, -126438.67, 16009.35, 8590.69, -124163.89, 0.13, 0.57, 0.85
141, 1676.07, 147758.58, -91812.94, -53152.49, -123699.51, 18813.98, 14668.24, -121474.80, 0.13, 0.57, 0.85
142, -3224.75, 123919.56, -96778.98, -61084.63, -128705.79, 14041.97, 1834.09, -126526.70, 0.13, 0.57, 0.85
143, -6619.00, 108753.93, -100246.92, -66767.90, -132212.89, 10775.69, -5532.10, -130080.09, 0.13, 0.57, 0.85
144, -2397.49, 129792.62, -96080.53, -60111.24, -128087.47, 14982.20, 6008.31, -126005.07, 0.13, 0.57, 0.85
145, 1691.71, 148275.61, -92034.51, -53393.15, -124082.58, 19031.08, 15436.54, -122051.00, 0.13, 0.57, 0.85
146, -2327.93, 128636.38, -96110.53, -59903.68, -128200.35, 15122.70, 4537.09, -126217.21, 0.13, 0.57, 0.85
147, -6860.67, 108019.36, -100714.99, -67404.84, -132844.48, 10737.64, -5870.80, -130910.67, 0.13, 0.57, 0.85
148, -3827.11, 123797.45, -97743.52, -62700.13, -129911.20, 13780.68, 2943.01, -128029.24, 0.13, 0.57, 0.85
149, 1162.72, 146953.02, -92799.57, -54559.80, -125006.82, 18717.71, 14939.19, -123175.23, 0.13, 0.57, 0.85
150, -1629.04, 133007.66, -95648.38, -59066.92, -127894.48, 16008.23, 6937.47, -126111.60, 0.13, 0.57, 0.85
151, -6911.87, 108502.70, -101004.27, -67753.37, -133291.69, 10878.12, -5616.37, -131558.05, 0.13, 0.57, 0.85
152, -5246.33, 117985.98, -99403.23, -65320.45, -131732.30, 12579.58, -80.89, -130049.98, 0.13, 0.57, 0.84
153, 258.74, 144057.56, -93945.01, -56434.78, -126313.30, 18027.89, 13538.43, -124682.77, 0.13, 0.57, 0.84
154, -1131.42, 136707.72, -95390.47, -58689.11, -127798.06, 16690.18, 8937.66, -126215.71, 0.13, 0.57, 0.84
155, -6862.59, 109745.92, -101195.40, -68074.16, -133642.14, 11115.99, -5015.49, -132108.95, 0.13, 0.57, 0.84
156, -6588.24, 112455.89, -100992.02, -67872.45, -133476.34, 11454.69, -2867.10, -131994.80, 0.13, 0.57, 0.84
157, -828.15, 139856.41, -95283.23, -58586.51, -127805.73, 17157.27, 11744.01, -126377.38, 0.13, 0.57, 0.84
158, -550.34, 140065.39, -95056.38, -58051.90, -127617.21, 17459.60, 11298.38, -126239.83, 0.13, 0.57, 0.84
159, -6322.95, 112632.90, -100899.39, -67460.58, -133498.11, 11841.42, -3105.60, -132170.42, 0.13, 0.57, 0.84
160, -7497.13, 108423.15, -102144.27, -69580.73, -134782.92, 10756.29, -4613.49, -133506.27, 0.13, 0.57, 0.84
161, -1948.87, 135194.05, -96646.48, -60661.27, -129325.76, 16258.39, 9790.38, -128099.67, 0.13, 0.57, 0.84
162, -155.77, 142749.13, -94899.60, -57684.29, -127617.88, 18050.53, 13173.36, -126441.89, 0.12, 0.57, 0.85
163, -5630.65, 116605.56, -100437.60, -66602.09, -133198.67, 12719.21, -851.40, -132071.47, 0.12, 0.57, 0.85
164, -8200.21, 105664.88, -103076.02, -70956.88, -135881.30, 10265.58, -5978.80, -134802.83, 0.12, 0.57, 0.85
165, -3260.87, 129846.46, -98191.48, -63064.51, -131038.04, 15174.55, 7195.32, -130009.79, 0.12, 0.57, 0.85
166, -65.18, 144170.06, -95043.73, -57829.01, -127929.84, 18342.58, 14224.31, -126950.28, 0.12, 0.57, 0.85
167, -4881.93, 121087.91, -99922.73, -65700.24, -132848.61, 13650.48, 1517.17, -131917.84, 0.12, 0.57, 0.85
168, -8685.15, 104068.47, -103797.92, -72027.42, -136764.55, 9980.75, -6859.12, -135883.09, 0.13, 0.57, 0.85
169, -4701.35, 124002.89, -99871.19, -65728.23, -132878.70, 13953.66, 4190.86, -132049.16, 0.13, 0.57, 0.85
170, -282.62, 144257.33, -95496.02, -58517.11, -128543.23, 18326.82, 14517.52, -127766.95, 0.13, 0.57, 0.85
171, -4030.44, 125989.27, -99303.45, -64627.00, -132388.97, 14682.61, 4218.29, -131660.95, 0.13, 0.57, 0.85
172, -8873.33, 103876.38, -104218.70, -72640.46, -137347.91, 9990.65, -7034.70, -136666.77, 0.13, 0.57, 0.85
173, -6171.14, 118107.33, -101578.15, -68484.34, -134750.84, 12709.78, 1003.73, -134120.31, 0.13, 0.57, 0.85
174, -848.09, 142763.92, -96300.74, -59801.02, -129514.95, 17973.78, 13916.26, -128935.32, 0.13, 0.57, 0.85
175, -3188.30, 130761.30, -98697.50, -63550.68, -131950.66, 15707.75, 6976.34, -131417.23, 0.13, 0.57, 0.85
176, -8698.23, 105132.95, -104279.09, -72609.75, -137573.23, 10355.65, -6255.60, -137085.72, 0.13, 0.57, 0.85
177, -7372.77, 112848.50, -103019.88, -70687.26, -136353.48, 11722.95, -1540.53, -135916.13, 0.13, 0.57, 0.85
178, -1515.60, 140167.20, -97208.49, -61118.41, -130583.54, 17515.61, 13042.82, -130197.03, 0.13, 0.57, 0.85
179, -2273.42, 135391.70, -98016.33, -62238.32, -131431.89, 16799.93, 9934.14, -131095.23, 0.13, 0.57, 0.85
180, -8047.88, 108120.41, -103859.39, -71650.39, -137314.88, 11182.91, -4317.93, -137027.20, 0.13, 0.57, 0.85
181, -8170.48, 108932.45, -104049.13, -72055.79, -137547.22, 11129.45, -3242.34, -137309.38, 0.13, 0.57, 0.85
182, -2349.57, 136656.84, -98276.17, -62641.03, -131817.69, 16891.73, 11553.30, -131630.42, 0.13, 0.57, 0.85
183, -1540.33, 139343.63, -97515.27, -61227.33, -131098.94, 17712.37, 12355.49, -130958.17, 0.12, 0.57, 0.85
184, -7239.04, 112155.88, -103279.54, -70490.38, -136904.81, 12164.02, -2071.67, -136810.00, 0.12, 0.57, 0.85
185, -8897.92, 105778.48, -105004.55, -73410.99, -138674.84, 10604.09, -4894.74, -138626.61, 0.12, 0.57, 0.85
186, -3512.06, 131969.86, -99669.46, -64790.42, -133382.91, 15944.35, 9162.02, -133385.02, 0.12, 0.57, 0.85
187, -1188.64, 141868.89, -97391.60, -60913.84, -131147.00, 18251.90, 13877.50, -131199.27, 0.12, 0.57, 0.85
188, -6456.23, 116542.26, -102723.12, -69467.30, -136519.33, 13119.87, 216.86, -136618.55, 0.13, 0.57, 0.85
189, -9480.63, 103490.72, -105817.70, -74580.52, -139655.23, 10214.66, -6147.00, -139804.50, 0.13, 0.57, 0.85
190, -4852.94, 126491.38, -101245.24, -67249.91, -135125.19, 14814.87, 6306.63, -135324.88, 0.13, 0.57, 0.85
191, -1196.65, 142908.69, -97634.36, -61234.70, -131555.70, 18434.22, 14546.63, -131804.50, 0.13, 0.57, 0.85
192, -5595.51, 121337.00, -102090.77, -68323.55, -136053.70, 14152.30, 2785.14, -136351.09, 0.13, 0.57, 0.85
193, -9697.24, 102719.52, -106261.35, -75099.49, -140267.05, 10187.75, -6474.12, -140613.72, 0.12, 0.57, 0.85
194, -6052.20, 121130.49, -102673.56, -69351.47, -136721.50, 13827.06, 3750.00, -137118.25, 0.12, 0.57, 0.85
195, -1265.60, 143027.16, -97931.23, -61499.39, -132021.78, 18557.71, 15058.64, -132467.39, 0.12, 0.57, 0.85
196, -4496.63, 126829.38, -101218.15, -66676.46, -135352.08, 15413.11, 5964.09, -135844.69, 0.12, 0.57, 0.85
197, -9518.04, 103629.57, -106310.59, -74931.92, -140487.97, 10537.30, -5890.65, -141026.58, 0.12, 0.57, 0.85
198, -7219.50, 116000.16, -104072.02, -71434.41, -138293.61, 12853.88, 1120.14, -138879.63, 0.13, 0.57, 0.85
199, -1728.48, 141586.30, -98623.80, -62483.00, -132888.77, 18278.94, 14508.81, -133522.97, 0.13, 0.57, 0.85
200, -3561.77, 131944.98, -100507.50, -65390.54, -134815.02, 16506.54, 8755.09, -135495.91, 0.13, 0.57, 0.85
201, -9217.86, 105539.63, -106231.45, -74650.66, -140581.83, 11007.07, -4981.00, -141309.44, 0.13, 0.57, 0.85
202, -8362.50, 111106.07, -105441.24, -73483.41, -139833.63, 11911.16, -1458.18, -140609.66, 0.13, 0.57, 0.85
203, -2502.75, 138684.75, -99627.40, -63947.33, -134060.94, 17706.25, 13203.87, -134887.83, 0.13, 0.57, 0.85
204, -2822.53, 136114.81, -99995.76, -64377.69, -134470.69, 17417.44, 11172.72, -135345.53, 0.13, 0.57, 0.85
205, -8637.74, 108621.59, -105878.35, -73859.02, -140394.23, 11754.40, -3297.31, -141317.02, 0.13, 0.57, 0.85
206, -9317.79, 107034.38, -106623.47, -75222.60, -141183.47, 11150.35, -3631.09, -142155.45, 0.13, 0.57, 0.85
207, -3659.56, 134357.20, -101010.79, -66135.95, -135615.81, 16751.31, 10883.96, -136636.83, 0.13, 0.57, 0.85
208, -2379.19, 139268.33, -99774.16, -63937.61, -134423.16, 18032.38, 12922.12, -135493.81, 0.13, 0.57, 0.85
209, -7962.50, 112465.03, -105419.20, -72979.94, -140113.05, 12590.83, -1298.32, -141232.42, 0.13, 0.57, 0.85
210, -10035.51, 104013.41, -107557.44, -76552.24, -142298.06, 10618.60, -5194.79, -143465.42, 0.13, 0.57, 0.85
211, -4816.85, 129484.27, -102388.51, -68196.35, -137174.02, 15792.20, 8529.54, -138391.52, 0.13, 0.57, 0.85
212, -2059.56, 141495.67, -99676.30, -63610.89, -134504.50, 18520.99, 14362.74, -135771.52, 0.13, 0.57, 0.85
213, -7101.40, 117125.62, -104778.47, -71777.17, -139651.33, 13604.46, 1170.99, -140965.58, 0.13, 0.57, 0.85
214, -10433.32, 102365.47, -108177.34, -77325.66, -143096.33, 10396.11, -6016.20, -144457.73, 0.13, 0.57, 0.85
215, -5997.89, 124269.57, -103792.04, -70236.27, -138758.95, 14806.82, 6020.55, -140169.03, 0.13, 0.57, 0.85
216, -1966.82, 142502.25, -99802.34, -63606.43, -134814.44, 18790.96, 15221.94, -136274.72, 0.13, 0.57, 0.85
217, -6107.30, 122297.09, -104001.14, -70319.21, -139055.72, 14755.21, 3979.79, -140563.64, 0.13, 0.57, 0.85
218, -10661.11, 101814.90, -108623.53, -77898.60, -143721.95, 10343.00, -6497.07, -145276.44, 0.12, 0.57, 0.85
219, -7487.48, 118292.47, -105505.28, -72965.66, -140647.16, 13518.42, 2637.66, -142252.28, 0.12, 0.57, 0.85
220, -2499.75, 141352.00, -100560.56, -64810.58, -135743.80, 18446.54, 14565.69, -137400.89, 0.12, 0.57, 0.85
221, -5435.16, 126746.75, -103548.97, -69551.01, -138775.25, 15591.77, 6178.22, -140479.97, 0.12, 0.57, 0.85
222, -10735.79, 102257.62, -108917.86, -78259.34, -144188.17, 10441.97, -6415.46, -145939.42, 0.12, 0.57, 0.85
223, -8881.85, 112552.79, -107124.89, -75469.81, -142437.63, 12324.82, -427.95, -144239.42, 0.12, 0.57, 0.85
224, -3191.49, 139029.39, -101477.43, -66165.50, -136831.11, 17947.53, 13586.60, -138687.09, 0.12, 0.57, 0.85
225, -4583.83, 131360.38, -102920.08, -68331.94, -138314.20, 16603.14, 8906.99, -140221.70, 0.12, 0.57, 0.85
226, -10310.23, 104485.44, -108713.27, -77680.98, -144149.72, 11031.46, -5094.61, -146105.06, 0.12, 0.57, 0.85
227, -9900.39, 107965.94, -108366.55, -77238.98, -143846.64, 11497.13, -2681.14, -145849.95, 0.12, 0.57, 0.85
228, -4083.91, 135627.20, -102593.20, -67823.82, -138119.27, 17249.91, 11979.04, -140172.44, 0.12, 0.57, 0.85
229, -3930.96, 135341.75, -102486.37, -67499.83, -138056.70, 17423.68, 11140.18, -140158.89, 0.12, 0.57, 0.85
230, -9743.33, 107760.35, -108364.88, -76960.36, -143979.41, 11760.24, -3418.01, -146127.78, 0.12, 0.57, 0.85
231, -10796.50, 104157.74, -109482.95, -78861.34, -145143.58, 10790.28, -4678.13, -147339.28, 0.12, 0.57, 0.85
232, -5189.67, 131178.36, -103923.85, -69833.58, -139628.86, 16340.15, 9785.10, -141874.72, 0.12, 0.57, 0.85
233, -3490.49, 138257.67, -102268.48, -66998.28, -138017.91, 18030.75, 12870.13, -140311.73, 0.13, 0.56, 0.85
234, -9067.07, 111761.36, -107908.07, -76099.66, -143700.97, 12592.88, -1432.68, -146040.39, 0.13, 0.56, 0.85
235, -11565.62, 101194.13, -110473.18, -80326.69, -146312.61, 10199.35, -6377.53, -148700.77, 0.13, 0.56, 0.85
236, -6513.32, 125825.25, -105469.18, -72204.40, -141355.31, 15209.51, 7047.15, -143794.72, 0.13, 0.56, 0.85
237, -3367.83, 139796.17, -102364.23, -67010.39, -138293.80, 18322.26, 13908.84, -140782.69, 0.13, 0.56, 0.85
238, -8246.94, 116338.19, -107300.69, -74945.28, -143272.27, 13566.93, 1058.24, -145807.48, 0.13, 0.57, 0.85
239, -11958.00, 99750.27, -111076.21, -81098.90, -147092.83, 9984.26, -7098.33, -149675.86, 0.13, 0.57, 0.85
240, -7759.65, 120399.74, -106927.01, -74354.48, -142992.17, 14162.00, 4449.87, -145623.72, 0.13, 0.57, 0.85
241, -3303.01, 140513.34, -102508.65, -66993.67, -138620.66, 18565.78, 14796.81, -141300.06, 0.13, 0.57, 0.85
242, -7054.79, 121982.49, -106313.97, -73035.13, -142471.59, 14911.03, 4452.42, -145196.95, 0.13, 0.57, 0.85
243, -11757.29, 100391.34, -111084.05, -80754.75, -147288.80, 10347.74, -6493.09, -150059.58, 0.13, 0.57, 0.86
244, -8883.86, 115328.27, -108265.77, -76268.66, -144519.20, 13225.08, 1900.50, -147339.50, 0.13, 0.57, 0.86
245, -3618.97, 139724.33, -103041.47, -67661.95, -139341.28, 18423.47, 14578.43, -142209.30, 0.13, 0.57, 0.86
246, -6075.83, 127308.00, -105550.43, -71622.92, -141893.31, 16033.24, 7287.88, -144807.25, 0.13, 0.57, 0.86
247, -11556.66, 101806.02, -111099.34, -80598.09, -147487.53, 10699.13, -5888.99, -150447.39, 0.13, 0.57, 0.86
248, -10063.58, 110213.84, -109665.97, -78345.59, -146101.13, 12222.13, -805.58, -149109.06, 0.12, 0.57, 0.86
249, -4348.91, 137153.52, -103993.34, -69072.84, -140472.64, 17866.26, 13323.36, -143531.08, 0.12, 0.57, 0.86
250, -5434.96, 131358.45, -105127.31, -70839.07, -141649.86, 16822.06, 9394.73, -144757.17, 0.12, 0.57, 0.86
251, -11287.23, 103944.86, -111044.34, -80406.69, -147610.56, 11122.81, -4991.17, -150766.22, 0.12, 0.57, 0.86
252, -11266.20, 105351.13, -111083.77, -80529.51, -147696.92, 11205.02, -3511.03, -150901.78, 0.12, 0.57, 0.86
253, -5360.93, 133271.94, -105219.29, -70911.66, -141880.02, 17045.10, 11485.42, -145132.80, 0.13, 0.57, 0.86
254, -4697.64, 135288.42, -104600.84, -69722.76, -141305.11, 17717.38, 11911.31, -144604.50, 0.13, 0.57, 0.86
255, -10388.55, 108102.33, -110353.87, -78929.20, -147105.25, 12168.89, -2467.03, -150447.94, 0.13, 0.57, 0.86
0, -11825.46, 102545.35, -111852.13, -81406.03, -148654.00, 10819.45, -4750.51, -152040.56, 0.13, 0.57, 0.86
1, -6299.82, 129114.27, -106370.23, -72482.32, -143221.17, 16291.27, 9592.14, -146654.47, 0.13, 0.57, 0.86
2, -4090.41, 138474.95, -104200.01, -68787.47, -141097.11, 18481.83, 13948.76, -144578.45, 0.12, 0.57, 0.85
3, -9454.65, 112900.87, -109623.01, -77519.31, -146564.31, 13249.55, 20.18, -150091.05, 0.12, 0.57, 0.85
4, -12291.36, 100637.48, -112523.73, -82262.89, -149509.98, 10523.38, -5884.48, -153085.28, 0.12, 0.57, 0.85
5, -7498.67, 124136.11, -107778.03, -74585.35, -144810.94, 15278.04, 6935.86, -148436.52, 0.12, 0.57, 0.85
6, -3889.65, 140144.45, -104207.20, -68606.60, -141285.95, 18844.11, 14992.14, -144958.80, 0.12, 0.57, 0.85
7, -8422.05, 118137.10, -108794.30, -75941.21, -145917.53, 14423.07, 2853.92, -149636.34, 0.12, 0.57, 0.85
8, -12443.93, 100000.70, -112881.02, -82580.80, -150050.16, 10529.37, -6239.06, -153815.42, 0.12, 0.57, 0.85
9, -8679.03, 118899.36, -109166.84, -76597.88, -146383.06, 14278.92, 4254.94, -150195.69, 0.12, 0.57, 0.85
10, -3951.81, 140423.52, -104477.39, -68815.90, -141739.56, 18946.77, 15360.86, -145598.00, 0.12, 0.57, 0.85
11, -7346.03, 123612.23, -107922.13, -74273.80, -145230.14, 15640.45, 5816.28, -149132.83, 0.12, 0.57, 0.85
12, -12311.14, 100789.29, -112951.27, -82415.82, -150306.64, 10817.57, -5912.93, -154254.91, 0.12, 0.57, 0.85
13, -9848.83, 113762.26, -110543.14, -78588.95, -147947.89, 13289.81, 1498.71, -151943.05, 0.12, 0.57, 0.85
14, -4339.55, 139238.69, -105072.13, -69562.59, -142523.97, 18727.65, 14888.12, -146566.39, 0.12, 0.57, 0.85
15, -6478.52, 128586.77, -107256.01, -73064.34, -144755.56, 16650.15, 8312.46, -148843.25, 0.12, 0.57, 0.85
16, -12189.05, 102238.24, -113030.35, -82469.13, -150577.69, 11089.88, -5560.13, -154709.69, 0.12, 0.57, 0.85
17, -11231.35, 108338.74, -112131.55, -81140.74, -149726.86, 12088.87, -1775.04, -153906.02, 0.12, 0.57, 0.85
18, -5440.01, 135655.61, -106383.05, -71736.05, -144024.67, 17808.46, 12726.66, -148250.91, 0.12, 0.57, 0.85
19, -5884.48, 132470.61, -106873.92, -72344.75, -144561.11, 17390.13, 10426.26, -148834.03, 0.12, 0.57, 0.85
20, -11613.85, 105238.34, -112664.99, -81605.91, -150401.00, 11805.32, -3817.95, -154717.97, 0.12, 0.57, 0.85
21, -12552.38, 103236.06, -113664.98, -83621.02, -151451.81, 10940.13, -4915.84, -155812.50, 0.12, 0.57, 0.85
22, -7254.17, 129546.41, -108412.57, -75338.32, -146248.63, 16182.22, 8756.25, -150656.39, 0.12, 0.57, 0.85
23, -5439.72, 135436.97, -106639.14, -71789.89, -144521.95, 17984.03, 12422.09, -148976.97, 0.12, 0.57, 0.85
24, -10544.48, 109860.14, -111802.75, -79726.14, -149731.36, 13004.89, -678.82, -154232.86, 0.12, 0.57, 0.85
25, -13023.87, 100712.33, -114347.81, -84317.17, -152323.59, 10625.48, -5891.52, -156872.56, 0.12, 0.57, 0.85
26, -8276.00, 125020.92, -109650.32, -77022.79, -147671.64, 15332.42, 6658.09, -152270.31, 0.12, 0.57, 0.85
27, -5086.01, 137779.03, -106500.36, -71304.32, -144567.14, 18486.77, 13842.01, -149214.11, 0.13, 0.57, 0.84
28, -9517.19, 114836.40, -110984.81, -78005.26, -149099.19, 14165.95, 2159.92, -153792.33, 0.13, 0.57, 0.84
29, -12979.48, 100019.34, -114509.41, -83934.30, -152674.05, 10818.89, -5667.66, -157412.53, 0.13, 0.57, 0.84
30, -9115.98, 120686.85, -110694.71, -78210.30, -148909.33, 14659.37, 4804.64, -153695.31, 0.13, 0.57, 0.84
31, -4894.05, 139174.67, -106510.55, -71062.63, -144773.89, 18825.09, 14721.22, -149605.41, 0.13, 0.57, 0.84
32, -8389.48, 120444.27, -110056.77, -76244.32, -148365.88, 15414.97, 5164.64, -153241.72, 0.13, 0.57, 0.85
33, -12950.40, 100128.15, -114681.50, -83896.20, -153037.77, 10984.61, -5614.96, -157959.92, 0.13, 0.57, 0.85
34, -10351.56, 115392.24, -112136.33, -80335.81, -150542.80, 13586.02, 1891.05, -155511.08, 0.13, 0.57, 0.85
35, -5357.96, 138270.69, -107179.72, -72084.75, -145636.11, 18515.18, 14033.23, -150652.05, 0.13, 0.57, 0.85
36, -7598.30, 125149.98, -109466.52, -75144.46, -147971.09, 16336.87, 7521.21, -153031.45, 0.13, 0.57, 0.85
37, -12782.43, 101151.38, -114709.91, -83632.87, -153264.92, 11292.24, -5039.20, -158369.45, 0.12, 0.57, 0.85
38, -11462.29, 110353.71, -113442.23, -82128.51, -152050.33, 12641.92, -628.40, -157200.23, 0.12, 0.57, 0.85
39, -5934.48, 136297.38, -107953.38, -73140.90, -146610.55, 18099.17, 13107.06, -151806.69, 0.12, 0.57, 0.85
40, -6686.93, 129976.26, -108751.05, -73753.60, -147453.80, 17378.50, 10230.48, -152694.16, 0.12, 0.57, 0.85
41, -12150.14, 103923.90, -114275.46, -82555.80, -153025.27, 12054.23, -3318.09, -158312.81, 0.12, 0.57, 0.85
42, -12635.75, 105483.94, -114820.39, -84269.88, -153620.41, 11630.04, -3514.83, -158956.28, 0.12, 0.58, 0.85
43, -8472.81, 128915.42, -110699.73, -78593.83, -149552.83, 15755.03, 6988.38, -154935.27, 0.12, 0.58, 0.85
44, -6933.71, 131632.53, -109202.33, -74880.06, -148102.34, 17293.46, 10603.09, -153529.80, 0.12, 0.58, 0.85
45, -9243.81, 112913.70, -111561.64, -76350.12, -150508.06, 15059.26, 5081.74, -155979.83, 0.12, 0.58, 0.85
46, -11163.60, 107706.64, -113536.11, -80483.45, -152533.38, 13215.98, 286.86, -158049.88, 0.12, 0.58, 0.85
47, -9636.31, 124585.78, -112057.70, -80783.80, -151108.34, 14752.35, 3743.16, -156670.61, 0.13, 0.57, 0.85
48, -7754.20, 131489.78, -110219.94, -77190.23, -149318.80, 16630.66, 8514.87, -154926.34, 0.13, 0.57, 0.85
49, -9161.20, 115266.18, -111677.11, -76643.13, -150819.52, 15283.74, 5563.21, -156472.47, 0.13, 0.57, 0.85
50, -11346.26, 106084.30, -113916.84, -80428.70, -153107.52, 13181.56, 235.23, -158804.64, 0.13, 0.57, 0.85
51, -10366.16, 120776.20, -112985.09, -81733.95, -152229.48, 14184.77, 2331.71, -157971.31, 0.13, 0.57, 0.85
52, -7950.29, 132358.33, -110614.04, -77929.16, -149905.97, 16588.35, 8332.37, -155694.25, 0.12, 0.56, 0.85
53, -8849.82, 118552.02, -111561.66, -76609.82, -150897.11, 15738.73, 6543.65, -156731.45, 0.12, 0.56, 0.85
54, -11431.33, 105287.40, -114195.82, -80410.94, -153579.13, 13247.90, 307.27, -159459.08, 0.12, 0.56, 0.85
55, -11014.36, 116857.22, -113830.14, -82469.46, -153267.94, 13699.25, 1099.24, -159193.61, 0.12, 0.56, 0.85
56, -8435.26, 131845.19, -111296.35, -79161.18, -150785.52, 16262.93, 7413.02, -156756.20, 0.12, 0.56, 0.85
57, -8530.77, 122086.07, -111437.63, -76622.67, -150971.36, 16198.55, 7621.27, -156988.20, 0.12, 0.57, 0.84
58, -10866.93, 106776.60, -113825.96, -79112.59, -153407.30, 13942.53, 2084.57, -159469.61, 0.12, 0.57, 0.84
59, -11149.99, 114285.90, -114160.55, -82078.13, -153795.53, 13705.80, 1059.18, -159903.28, 0.12, 0.57, 0.84
60, -9007.10, 130547.08, -112062.12, -80428.21, -151749.31, 15844.73, 6112.75, -157903.05, 0.12, 0.57, 0.84
61, -8592.50, 124735.11, -111695.58, -77510.08, -151426.38, 16281.52, 7611.35, -157626.59, 0.12, 0.57, 0.84
62, -10452.68, 108589.45, -113607.95, -78323.23, -153381.28, 14492.11, 3486.00, -159629.45, 0.13, 0.56, 0.85
63, -10587.02, 113541.18, -113792.34, -80074.65, -153615.64, 14401.61, 3039.48, -159911.58, 0.13, 0.56, 0.85
64, -6147.60, 137223.33, -109392.54, -73683.59, -149265.56, 18787.18, 13841.43, -155608.39, 0.13, 0.56, 0.85
65, -7259.78, 130989.24, -110550.92, -75375.24, -150470.13, 17710.65, 10044.14, -156856.83, 0.13, 0.56, 0.85
66, -12552.27, 104968.10, -115904.81, -83643.71, -155872.72, 12552.23, -2837.58, -162304.48, 0.13, 0.56, 0.85
67, -12714.23, 106240.27, -116123.70, -84268.64, -156142.84, 12444.51, -2084.66, -162622.77, 0.13, 0.57, 0.85
68, -7373.59, 132735.78, -110826.00, -75914.39, -150892.33, 17722.54, 11457.21, -157420.52, 0.13, 0.57, 0.85
69, -6733.55, 134367.78, -110227.06, -74662.96, -150339.75, 18368.62, 11968.08, -156915.31, 0.13, 0.57, 0.85
70, -12431.70, 107076.99, -115982.66, -83851.13, -156144.34, 12808.26, -2401.40, -162765.27, 0.13, 0.57, 0.85
71, -13888.70, 101691.23, -117496.23, -86415.95, -157710.30, 11432.58, -4728.15, -164377.27, 0.13, 0.57, 0.85
72, -8478.13, 128056.58, -112124.98, -77749.34, -152390.67, 16783.46, 9334.60, -159106.28, 0.13, 0.57, 0.85
73, -6397.29, 136859.08, -110082.18, -74260.23, -150396.70, 18841.49, 13423.56, -157157.88, 0.13, 0.57, 0.85
74, -11634.95, 111401.78, -115376.15, -82655.05, -155738.33, 13726.52, -117.77, -162543.98, 0.13, 0.57, 0.85
75, -14498.15, 99191.18, -118302.21, -87488.73, -158714.02, 10967.73, -6115.86, -165565.27, 0.13, 0.57, 0.85
76, -10271.01, 121388.25, -114123.00, -81123.24, -154587.14, 15160.96, 5185.56, -161483.41, 0.13, 0.57, 0.85
77, -6825.02, 136735.31, -110714.38, -75398.71, -151227.14, 18563.57, 13047.96, -158170.11, 0.13, 0.58, 0.85
78, -10505.59, 116706.48, -114444.23, -80719.86, -155002.72, 14976.47, 3314.74, -161990.16, 0.13, 0.58, 0.85
79, -14704.47, 98325.03, -118705.33, -87835.40, -159312.08, 10901.50, -6485.16, -166345.81, 0.13, 0.58, 0.85
80, -14485.65, 108511.39, -118539.16, -90006.90, -159200.66, 11170.19, -5543.93, -166281.03, 0.13, 0.58, 0.85
81, -13195.96, 120862.78, -117298.66, -89779.94, -158013.55, 12481.06, -2290.20, -165140.25, 0.13, 0.58, 0.85
82, -13349.49, 111448.48, -117505.27, -87463.42, -158265.83, 12374.95, -1530.80, -165437.80, 0.12, 0.57, 0.85
83, -14147.65, 99160.02, -118357.58, -86191.50, -159164.06, 11640.43, -2502.97, -166380.69, 0.12, 0.57, 0.85
84, -13816.86, 107324.11, -118079.92, -87556.27, -158939.50, 12009.28, -2011.84, -166201.80, 0.12, 0.57, 0.85
85, -12635.96, 121758.33, -116947.61, -88339.26, -157862.92, 13205.77, 289.25, -165169.81, 0.12, 0.57, 0.85
86, -12537.47, 115959.80, -116896.36, -86385.89, -157858.70, 13341.93, 1201.70, -165212.25, 0.12, 0.57, 0.85
87, -13393.48, 101801.22, -117802.43, -84758.48, -158807.22, 12549.63, 34.73, -166209.48, 0.12, 0.57, 0.86
88, -13602.29, 105643.64, -118062.13, -86463.98, -159119.31, 12386.51, -824.20, -166568.14, 0.12, 0.57, 0.86
89, -13356.46, 119079.23, -117865.88, -89741.60, -158981.05, 12664.07, -1148.97, -166475.14, 0.12, 0.57, 0.86
90, -13422.94, 116174.04, -117980.88, -89124.07, -159146.38, 12640.27, -709.38, -166685.83, 0.12, 0.57, 0.86
91, -13618.29, 102597.74, -118226.66, -85659.91, -159436.66, 12494.38, 185.94, -167022.94, 0.12, 0.57, 0.86
92, -13574.82, 103701.38, -118232.55, -85786.02, -159493.66, 12579.76, 197.68, -167125.47, 0.12, 0.57, 0.86
93, -13376.54, 117487.94, -118081.80, -89291.84, -159401.14, 12810.95, -439.30, -167077.73, 0.12, 0.57, 0.86
94, -13370.79, 118292.98, -118126.04, -89575.64, -159497.73, 12854.31, -200.20, -167219.66, 0.12, 0.57, 0.86
95, -13527.99, 104827.87, -118333.53, -86049.95, -159748.45, 12746.22, 811.21, -167518.55, 0.12, 0.57, 0.86
96, -13538.14, 102398.57, -118392.45, -85301.49, -159857.25, 12781.53, 951.85, -167672.13, 0.12, 0.57, 0.86
97, -13374.32, 115629.55, -118278.81, -88730.70, -159801.48, 12978.67, 179.06, -167656.67, 0.12, 0.57, 0.86
98, -13316.79, 120049.85, -118271.52, -89935.52, -159847.31, 13072.04, 176.49, -167744.06, 0.12, 0.57, 0.86
99, -13459.64, 107420.83, -118462.37, -86646.55, -160085.63, 12974.65, 1167.16, -168026.84, 0.12, 0.57, 0.86
100, -13535.32, 101570.93, -118584.96, -85096.09, -160257.75, 12942.58, 1422.08, -168244.86, 0.12, 0.57, 0.86
101, -13347.32, 113490.53, -118444.82, -88006.77, -160174.67, 13162.03, 797.93, -168205.86, 0.12, 0.57, 0.86
102, -13211.78, 121291.80, -118358.85, -89968.43, -160143.45, 13326.60, 631.84, -168217.44, 0.12, 0.57, 0.85
103, -13348.84, 110403.40, -118544.95, -87206.31, -160375.34, 13232.79, 1502.91, -168495.30, 0.12, 0.57, 0.85
104, -13456.96, 101614.18, -118701.08, -84895.39, -160579.16, 13168.95, 1975.36, -168743.03, 0.12, 0.57, 0.85
105, -13322.51, 111299.13, -118614.02, -87274.08, -160547.91, 13337.38, 1374.65, -168753.52, 0.12, 0.57, 0.85
106, -13162.79, 121803.57, -118503.58, -89943.80, -160494.23, 13527.07, 970.00, -168742.25, 0.12, 0.57, 0.85
107, -13268.42, 113510.94, -118657.59, -87873.00, -160697.80, 13461.83, 1703.76, -168989.69, 0.12, 0.57, 0.85
108, -13442.52, 102201.72, -118879.89, -85034.17, -160967.80, 13333.33, 2267.83, -169304.06, 0.12, 0.57, 0.86
109, -13351.97, 109023.60, -118833.63, -86665.35, -160977.61, 13459.53, 1797.42, -169356.41, 0.12, 0.57, 0.86
110, -13138.89, 121607.10, -118666.55, -89736.20, -160868.81, 13700.99, 1311.47, -169288.34, 0.12, 0.57, 0.86
111, -13228.30, 116384.45, -118805.82, -88516.19, -161057.09, 13649.29, 1831.97, -169520.61, 0.12, 0.57, 0.86
112, -13466.84, 103462.55, -119094.18, -85405.32, -161390.97, 13455.26, 2433.12, -169899.11, 0.12, 0.57, 0.86
113, -13443.01, 106885.44, -119115.41, -86229.49, -161465.84, 13517.17, 2076.43, -170017.69, 0.13, 0.57, 0.85
114, -13222.67, 120493.53, -118941.18, -89582.50, -161351.03, 13763.87, 1440.19, -169945.98, 0.13, 0.57, 0.85
115, -13247.10, 118737.29, -119013.40, -89207.02, -161475.41, 13772.94, 1800.39, -170113.64, 0.13, 0.57, 0.85
116, -13472.16, 105106.68, -119286.56, -85858.23, -161794.38, 13592.68, 2571.10, -170478.41, 0.13, 0.57, 0.85
117, -13478.41, 104998.84, -119340.27, -85779.94, -161899.80, 13624.01, 2421.34, -170628.16, 0.13, 0.57, 0.85
118, -13282.23, 118686.04, -119190.54, -89235.29, -161808.45, 13847.60, 1620.01, -170578.88, 0.13, 0.57, 0.85
119, -13258.88, 120659.45, -119216.34, -89810.80, -161886.34, 13902.25, 1733.44, -170698.75, 0.13, 0.57, 0.85
120, -13427.88, 107393.84, -119434.15, -86401.42, -162148.75, 13774.31, 2704.05, -171004.89, 0.13, 0.57, 0.85
121, -13477.10, 103806.39, -119530.66, -85437.88, -162293.31, 13764.56, 2777.83, -171194.94, 0.13, 0.57, 0.85
122, -13346.90, 116499.30, -119446.87, -88786.18, -162266.44, 13924.78, 1852.74, -171210.02, 0.13, 0.57, 0.85
123, -13306.57, 121879.72, -119454.58, -90323.06, -162328.42, 13995.72, 1680.14, -171312.95, 0.12, 0.57, 0.85
124, -13462.70, 109697.30, -119659.81, -87219.37, -162578.41, 13881.08, 2655.90, -171606.61, 0.12, 0.57, 0.85
125, -13557.92, 102829.42, -119803.78, -85430.47, -162770.47, 13826.65, 2957.47, -171841.02, 0.12, 0.57, 0.85
126, -13450.07, 113908.60, -119744.59, -88322.00, -162767.47, 13963.65, 2108.91, -171879.02, 0.12, 0.57, 0.85
127, -13365.54, 122454.50, -119708.88, -90641.93, -162785.78, 14075.23, 1701.44, -171939.83, 0.12, 0.57, 0.85
128, -13502.53, 112271.29, -119894.22, -88075.75, -163018.52, 13977.62, 2582.45, -172216.78, 0.12, 0.57, 0.85
129, -13628.13, 102621.75, -120066.95, -85567.64, -163238.97, 13894.72, 3114.36, -172480.83, 0.12, 0.57, 0.85
130, -13535.61, 111227.66, -120020.26, -87767.85, -163246.58, 14020.96, 2418.26, -172529.91, 0.12, 0.57, 0.85
131, -13404.09, 122312.45, -119936.08, -90683.91, -163217.81, 14180.01, 1835.68, -172542.52, 0.12, 0.57, 0.85
132, -13513.80, 114886.09, -120091.52, -88836.65, -163421.47, 14108.42, 2552.81, -172788.80, 0.12, 0.57, 0.85
133, -13688.30, 103134.01, -120311.39, -85834.30, -163687.45, 13977.17, 3213.24, -173098.56, 0.13, 0.57, 0.86
134, -13638.81, 108827.91, -120308.30, -87261.99, -163737.30, 14061.46, 2690.10, -173190.86, 0.13, 0.57, 0.86
135, -13469.85, 121691.52, -120186.60, -90560.57, -163671.81, 14255.52, 2002.00, -173166.83, 0.13, 0.57, 0.86
136, -13533.15, 117553.14, -120299.32, -89559.84, -163832.56, 14224.76, 2525.97, -173371.72, 0.13, 0.57, 0.86
137, -13736.44, 104391.83, -120553.55, -86256.07, -164128.72, 14063.85, 3290.15, -173711.94, 0.13, 0.57, 0.86
138, -13730.61, 106689.70, -120595.55, -86819.47, -164222.13, 14104.93, 2955.15, -173845.45, 0.13, 0.57, 0.85
139, -13547.73, 120364.01, -120459.16, -90300.77, -164143.16, 14312.78, 2165.08, -173804.97, 0.13, 0.57, 0.85
140, -13553.52, 119835.99, -120512.16, -90202.00, -164249.16, 14337.30, 2470.47, -173951.31, 0.13, 0.57, 0.85
141, -13738.68, 106321.03, -120744.66, -86740.45, -164528.33, 14193.85, 3381.22, -174272.72, 0.13, 0.57, 0.85
142, -13758.68, 105137.22, -120811.80, -86392.22, -164647.39, 14208.31, 3279.45, -174432.52, 0.13, 0.57, 0.85
143, -13592.03, 118583.89, -120690.72, -89877.75, -164585.56, 14399.84, 2393.34, -174410.81, 0.13, 0.57, 0.86
144, -13558.61, 121642.46, -120705.30, -90744.77, -164653.58, 14462.70, 2424.18, -174519.20, 0.13, 0.57, 0.86
145, -13722.23, 108615.98, -120918.04, -87371.49, -164912.27, 14338.51, 3406.88, -174819.73, 0.13, 0.57, 0.86
146, -13784.34, 103986.93, -121027.07, -86134.95, -165070.80, 14313.90, 3550.06, -175020.44, 0.13, 0.57, 0.86
147, -13650.25, 116336.38, -120939.14, -89369.34, -165039.84, 14475.24, 2659.88, -175031.39, 0.13, 0.57, 0.86
148, -13575.91, 122809.73, -120909.99, -91114.55, -165066.78, 14576.67, 2437.19, -175099.36, 0.13, 0.56, 0.85
149, -13723.50, 111157.26, -121101.79, -88100.49, -165305.92, 14466.96, 3370.73, -175381.27, 0.13, 0.56, 0.85
150, -13836.38, 103376.99, -121262.91, -86095.88, -165514.75, 14390.28, 3701.20, -175629.83, 0.13, 0.56, 0.85
151, -13735.17, 113807.32, -121209.26, -88846.46, -165517.28, 14518.13, 2881.94, -175669.94, 0.13, 0.56, 0.85
152, -13623.86, 123254.22, -121143.16, -91356.18, -165510.13, 14654.00, 2431.38, -175699.48, 0.13, 0.56, 0.85
153, -13744.78, 113822.39, -121310.87, -88921.65, -165725.47, 14569.67, 3241.85, -175955.42, 0.13, 0.57, 0.85
154, -13890.25, 103422.19, -121504.23, -86236.60, -165964.02, 14463.17, 3767.65, -176234.69, 0.13, 0.57, 0.85
155, -13819.10, 111257.93, -121480.19, -88284.58, -165993.33, 14562.07, 3107.00, -176303.25, 0.13, 0.57, 0.85
156, -13489.37, 123486.45, -121196.12, -90941.29, -165766.03, 14912.23, 3004.81, -176113.72, 0.13, 0.57, 0.85
157, -14482.99, 114741.80, -122238.20, -91373.91, -166858.14, 13965.77, 991.41, -177196.91, 0.13, 0.57, 0.85
158, -18469.29, 92727.95, -126282.48, -96841.19, -170954.03, 10097.04, -8175.02, -180963.31, 0.12, 0.57, 0.86
159, -17321.30, 99808.23, -125188.00, -95257.86, -169912.66, 11276.66, -4203.85, -179876.75, 0.12, 0.57, 0.86
160, -11976.56, 125942.89, -119882.73, -86851.43, -164656.67, 16555.89, 9082.90, -174842.72, 0.12, 0.57, 0.86
161, -12664.90, 121596.48, -120614.81, -87842.27, -165437.42, 15898.01, 6250.75, -175642.77, 0.12, 0.57, 0.86
162, -18398.41, 94352.34, -126409.66, -97115.31, -171282.59, 10306.59, -7944.97, -181179.08, 0.12, 0.57, 0.86
163, -18717.84, 94349.37, -126788.70, -97845.36, -171716.25, 10046.66, -7365.91, -181439.61, 0.13, 0.57, 0.85
164, -13086.79, 121552.42, -121196.98, -88820.04, -166177.92, 15610.75, 7054.03, -176143.16, 0.13, 0.57, 0.85
165, -12272.72, 124472.52, -120421.52, -87417.70, -165453.63, 16426.52, 7950.27, -175474.83, 0.13, 0.57, 0.85
166, -17984.50, 97240.30, -126190.77, -96670.87, -171275.20, 10853.89, -6531.11, -181018.34, 0.13, 0.57, 0.85
167, -19826.94, 90100.93, -128094.85, -99893.32, -173234.55, 9097.81, -9816.17, -182707.20, 0.13, 0.57, 0.85
168, -14687.84, 115591.06, -122999.84, -91764.77, -168191.75, 14181.71, 3737.26, -177872.03, 0.13, 0.57, 0.85
169, -12408.48, 125626.84, -120759.70, -88011.16, -166001.03, 16437.61, 8469.72, -175793.05, 0.13, 0.57, 0.85
170, -17643.26, 100428.80, -126052.62, -96468.77, -171344.02, 11326.72, -5089.78, -180881.28, 0.13, 0.57, 0.85
171, -20735.02, 86934.56, -129210.27, -101623.45, -174556.13, 8340.62, -11609.03, -183770.66, 0.13, 0.57, 0.85
172, -17358.83, 108303.20, -125884.73, -95629.50, -171286.64, 11697.14, -545.85, -180572.47, 0.13, 0.57, 0.85
173, -18711.65, 120316.93, -127289.07, -94310.32, -172753.13, 10401.36, 3220.53, -181818.30, 0.12, 0.57, 0.85
174, -24737.95, 97430.80, -133383.92, -102958.41, -178995.72, 4543.98, -9763.71, -186477.13, 0.12, 0.57, 0.85
175, -28905.88, 78457.62, -137625.86, -109856.00, -183479.89, 524.57, -18970.37, -187500.02, 0.12, 0.57, 0.85
176, -25427.21, 96209.75, -134209.30, -104425.07, -179796.95, 4005.63, -8870.31, -186863.06, 0.12, 0.57, 0.85
177, -20829.72, 118053.39, -129660.23, -96767.34, -175072.94, 8572.52, 2591.37, -183584.58, 0.12, 0.57, 0.85
178, -24528.00, 101682.20, -133417.14, -102333.95, -178970.72, 4996.49, -6673.09, -186086.06, 0.12, 0.57, 0.85
179, -30189.74, 77696.43, -139152.30, -111156.18, -184978.16, -491.76, -19010.76, -187500.02, 0.12, 0.57, 0.85
180, -28981.88, 88582.44, -138009.41, -108702.12, -183693.69, 764.38, -12913.43, -187500.02, 0.12, 0.57, 0.85
181, -26590.89, 111294.67, -135673.16, -102718.58, -181048.52, 3173.90, -2170.91, -187500.02, 0.12, 0.57, 0.85
182, -32774.27, 97874.64, -141927.38, -109631.15, -185871.58, -2826.06, -11507.62, -187500.02, 0.12, 0.57, 0.85
183, -43195.57, 67137.98, -152443.41, -123190.72, -187500.02, -12952.77, -29099.96, -187500.02, 0.12, 0.57, 0.85
184, -49837.59, 65395.35, -159183.67, -129053.91, -187500.02, -19332.52, -32074.86, -187500.02, 0.12, 0.57, 0.85
185, -54133.46, 83489.93, -163575.47, -129104.50, -187500.02, -23386.90, -26005.45, -187500.02, 0.12, 0.57, 0.85
186, -60092.73, 76119.63, -169638.16, -134753.03, -187500.02, -29043.83, -31860.55, -187500.02, 0.12, 0.57, 0.85
187, -66661.44, 48106.45, -176318.17, -144802.13, -187500.02, -35268.86, -45704.44, -187500.02, 0.12, 0.57, 0.85
188, -72167.66, 41800.89, -181928.58, -150571.14, -187500.02, -40435.64, -49486.29, -187500.02, 0.12, 0.57, 0.85
189, -77757.67, 58656.38, -187357.30, -151968.77, -187500.02, -45664.25, -44157.50, -187500.02, 0.12, 0.57, 0.85
190, -85210.73, 55903.16, -187500.02, -157976.25, -187500.02, -52686.01, -48521.81, -187500.02, 0.12, 0.57, 0.85
191, -92654.15, 27674.41, -187500.02, -168678.70, -187500.02, -59661.99, -62635.80, -187500.02, 0.12, 0.57, 0.85
192, -96713.16, 17223.76, -187500.02, -173979.64, -187500.02, -63300.50, -66835.78, -187500.02, 0.12, 0.57, 0.85
193, -98164.59, 36393.40, -187500.02, -171839.11, -187500.02, -64375.50, -57863.39, -187500.02, 0.12, 0.56, 0.85
194, -101283.62, 43381.32, -187500.02, -172739.34, -187500.02, -67080.00, -55719.66, -187500.02, 0.12, 0.56, 0.85
195, -106298.92, 19456.59, -187500.02, -180759.41, -187500.02, -71624.46, -67052.62, -187500.02, 0.12, 0.56, 0.85
196, -109830.34, 4416.55, -187500.02, -186390.00, -187500.02, -74700.58, -73026.74, -187500.02, 0.12, 0.56, 0.85
197, -113022.77, 18902.11, -187500.02, -186625.48, -187500.02, -77443.59, -67065.83, -187500.02, 0.12, 0.56, 0.85
198, -117867.61, 29225.42, -187500.02, -187500.02, -187500.02, -81792.56, -64368.24, -187500.02, 0.13, 0.56, 0.85
199, -123839.97, 7915.58, -187500.02, -187500.02, -187500.02, -87213.48, -75119.70, -187500.02, 0.13, 0.56, 0.85
200, -127551.21, -11587.34, -187500.02, -187500.02, -187500.02, -90395.03, -82894.10, -187500.02, 0.13, 0.56, 0.85
201, -127878.05, 1528.84, -187500.02, -187500.02, -187500.02, -90261.13, -75603.50, -187500.02, 0.13, 0.56, 0.85
202, -127845.24, 20363.64, -187500.02, -187500.02, -187500.02, -89781.34, -66621.61, -187500.02, 0.13, 0.56, 0.85
203, -129515.86, 7645.32, -187500.02, -187500.02, -187500.02, -90963.91, -71938.88, -187500.02, 0.12, 0.57, 0.85
204, -129915.20, -12175.67, -187500.02, -187500.02, -187500.02, -90899.78, -78644.52, -187500.02, 0.12, 0.57, 0.85
205, -127504.94, -1568.80, -187500.02, -187500.02, -187500.02, -88100.72, -71275.22, -187500.02, 0.12, 0.57, 0.85
206, -125525.65, 21651.13, -187500.02, -187500.02, -187500.02, -85743.88, -59764.76, -187500.02, 0.12, 0.57, 0.85
207, -127614.40, 13929.92, -187500.02, -187500.02, -187500.02, -87376.43, -63868.61, -187500.02, 0.12, 0.57, 0.85
208, -130867.60, -10377.74, -187500.02, -187500.02, -187500.02, -90138.37, -74457.32, -187500.02, 0.13, 0.57, 0.85
209, -131572.09, -8087.71, -187500.02, -187500.02, -187500.02, -90400.89, -72260.30, -187500.02, 0.13, 0.57, 0.85
210, -130990.59, 14935.64, -187500.02, -187500.02, -187500.02, -89410.15, -61446.06, -187500.02, 0.13, 0.57, 0.85
211, -133428.00, 12894.81, -187500.02, -187500.02, -187500.02, -91375.20, -63329.04, -187500.02, 0.13, 0.57, 0.85
212, -137930.73, -12980.86, -187500.02, -187500.02, -187500.02, -95351.38, -75393.84, -187500.02, 0.13, 0.57, 0.85
213, -147262.11, -24305.38, -187500.02, -187500.02, -187500.02, -104053.80, -83543.82, -187500.02, 0.13, 0.57, 0.85
214, -154999.55, -9507.14, -187500.02, -187500.02, -187500.02, -111149.68, -80100.91, -187500.02, 0.13, 0.57, 0.85
215, -156632.44, -4627.12, -187500.02, -187500.02, -187500.02, -112217.51, -77773.36, -187500.02, 0.13, 0.57, 0.85
216, -153666.98, -22371.21, -187500.02, -187500.02, -187500.02, -108774.54, -81926.38, -187500.02, 0.13, 0.57, 0.85
217, -151437.22, -28487.23, -187500.02, -187500.02, -187500.02, -106092.26, -81463.52, -187500.02, 0.13, 0.57, 0.85
218, -151934.34, -9096.65, -187500.02, -187500.02, -187500.02, -106109.94, -72560.76, -187500.02, 0.12, 0.57, 0.85
219, -152254.56, 2254.80, -187500.02, -187500.02, -187500.02, -105944.31, -67386.30, -187500.02, 0.12, 0.57, 0.85
220, -150461.28, -14272.64, -187500.02, -187500.02, -187500.02, -103698.68, -72166.56, -187500.02, 0.12, 0.57, 0.85
221, -148821.95, -26043.80, -187500.02, -187500.02, -187500.02, -101627.77, -74383.07, -187500.02, 0.12, 0.57, 0.85
222, -149280.23, -10035.67, -187500.02, -187500.02, -187500.02, -101636.38, -66650.09, -187500.02, 0.12, 0.57, 0.85
223, -149974.41, 5635.17, -187500.02, -187500.02, -187500.02, -101866.09, -59767.58, -187500.02, 0.12, 0.57, 0.85
224, -148544.22, -7469.08, -187500.02, -187500.02, -187500.02, -100000.00, -63324.14, -187500.02, 0.12, 0.57, 0.85
225, -146747.05, -22888.01, -187500.02, -187500.02, -187500.02, -97792.14, -66877.65, -187500.02, 0.12, 0.57, 0.85
226, -146913.97, -10996.70, -187500.02, -187500.02, -187500.02, -97535.12, -61062.73, -187500.02, 0.12, 0.57, 0.85
227, -147878.27, 8056.48, -187500.02, -187500.02, -187500.02, -98057.86, -53660.37, -187500.02, 0.12, 0.57, 0.85
228, -146887.97, -364.15, -187500.02, -187500.02, -187500.02, -96647.45, -56461.27, -187500.02, 0.13, 0.57, 0.85
229, -144963.50, -18516.23, -187500.02, -187500.02, -187500.02, -94332.31, -62023.36, -187500.02, 0.13, 0.57, 0.85
230, -144795.27, -11498.16, -187500.02, -187500.02, -187500.02, -93766.05, -58526.97, -187500.02, 0.13, 0.57, 0.85
231, -145903.67, 9477.72, -187500.02, -187500.02, -187500.02, -94454.65, -50694.92, -187500.02, 0.13, 0.57, 0.85
232, -145345.25, 6242.17, -187500.02, -187500.02, -187500.02, -93490.98, -51977.15, -187500.02, 0.13, 0.57, 0.85
233, -143407.58, -13380.11, -187500.02, -187500.02, -187500.02, -91179.63, -58295.89, -187500.02, 0.13, 0.57, 0.85
234, -142900.08, -11608.56, -187500.02, -187500.02, -187500.02, -90297.29, -56745.71, -187500.02, 0.13, 0.57, 0.85
235, -144046.97, 9935.28, -187500.02, -187500.02, -187500.02, -91046.03, -48782.77, -187500.02, 0.13, 0.57, 0.85
236, -143949.97, 12234.09, -187500.02, -187500.02, -187500.02, -90559.45, -48319.64, -187500.02, 0.13, 0.57, 0.85
237, -142100.70, -7364.61, -187500.02, -187500.02, -187500.02, -88355.82, -54968.37, -187500.02, 0.13, 0.57, 0.85
238, -141268.03, -10704.74, -187500.02, -187500.02, -187500.02, -87172.18, -55300.54, -187500.02, 0.13, 0.57, 0.85
239, -142323.19, 9969.15, -187500.02, -187500.02, -187500.02, -87849.37, -47677.34, -187500.02, 0.13, 0.57, 0.85
240, -142664.45, 17844.83, -187500.02, -187500.02, -187500.02, -87810.41, -45107.92, -187500.02, 0.13, 0.57, 0.85
241, -140964.56, -403.36, -187500.02, -187500.02, -187500.02, -85766.81, -51354.23, -187500.02, 0.13, 0.57, 0.85
242, -139783.80, -8812.82, -187500.02, -187500.02, -187500.02, -84255.05, -53210.02, -187500.02, 0.13, 0.57, 0.85
243, -140652.64, 9550.30, -187500.02, -187500.02, -187500.02, -84767.71, -45800.13, -187500.02, 0.13, 0.57, 0.86
244, -141380.64, 22323.87, -187500.02, -187500.02, -187500.02, -85131.16, -41093.43, -187500.02, 0.13, 0.57, 0.86
245, -139971.78, 6771.26, -187500.02, -187500.02, -187500.02, -83389.17, -46370.64, -187500.02, 0.13, 0.57, 0.86
246, -138522.23, -6184.41, -187500.02, -187500.02, -187500.02, -81626.58, -49900.58, -187500.02, 0.13, 0.57, 0.86
247, -139137.34, 8676.01, -187500.02, -187500.02, -187500.02, -81906.42, -43702.91, -187500.02, 0.13, 0.57, 0.86
248, -140153.84, 25521.78, -187500.02, -187500.02, -187500.02, -82569.04, -37615.28, -187500.02, 0.13, 0.56, 0.85
249, -139055.66, 13822.12, -187500.02, -187500.02, -187500.02, -81145.08, -41842.91, -187500.02, 0.13, 0.56, 0.85
250, -137395.55, -2606.24, -187500.02, -187500.02, -187500.02, -79181.92, -46901.16, -187500.02, 0.13, 0.56, 0.85
251, -137645.56, 7718.88, -187500.02, -187500.02, -187500.02, -79112.88, -42587.63, -187500.02, 0.13, 0.56, 0.85
252, -138846.63, 27400.85, -187500.02, -187500.02, -187500.02, -79974.83, -35646.98, -187500.02, 0.13, 0.56, 0.85
253, -138122.52, 20420.17, -187500.02, -187500.02, -187500.02, -78934.27, -38525.78, -187500.02, 0.13, 0.56, 0.86
254, -136308.95, 1522.56, -187500.02, -187500.02, -187500.02, -76833.45, -44763.55, -187500.02, 0.13, 0.56, 0.86
255, -136192.86, 6826.76, -187500.02, -187500.02, -187500.02, -76419.80, -42167.17, -187500.02, 0.13, 0.56, 0.86
0, -137468.23, 28035.77, -187500.02, -186582.52, -187500.02, -77371.30, -34587.40, -187500.02, 0.13, 0.56, 0.86
1, -137178.91, 26404.70, -187500.02, -186308.11, -187500.02, -76771.45, -35636.37, -187500.02, 0.13, 0.56, 0.86
2, -135352.59, 6522.71, -187500.02, -187500.02, -187500.02, -74671.30, -42358.43, -187500.02, 0.13, 0.57, 0.85
3, -134812.80, 6515.06, -187500.02, -187500.02, -187500.02, -73855.21, -41684.55, -187500.02, 0.13, 0.57, 0.85
4, -136028.23, 27751.84, -187500.02, -185375.13, -187500.02, -74765.45, -34041.55, -187500.02, 0.13, 0.57, 0.85
5, -136156.67, 31666.68, -187500.02, -184408.64, -187500.02, -74593.13, -33133.24, -187500.02, 0.13, 0.57, 0.85
6, -134163.38, 12522.34, -187500.02, -185714.17, -187500.02, -72336.59, -38582.17, -187500.02, 0.13, 0.57, 0.85
7, -132982.28, 7910.08, -187500.02, -185313.33, -187500.02, -70901.34, -38211.13, -187500.02, 0.12, 0.57, 0.85
8, -134292.66, 27583.50, -187500.02, -183250.06, -187500.02, -71921.70, -32358.57, -187500.02, 0.12, 0.57, 0.85
9, -134974.41, 36654.89, -187500.02, -181973.72, -187500.02, -72310.30, -30253.78, -187500.02, 0.12, 0.57, 0.85
10, -132952.58, 19684.42, -187500.02, -182457.22, -187500.02, -70037.52, -34121.46, -187500.02, 0.12, 0.57, 0.85
11, -131436.52, 10212.36, -187500.02, -182705.25, -187500.02, -68280.91, -35799.31, -187500.02, 0.12, 0.57, 0.85
12, -132651.20, 26956.65, -187500.02, -181500.83, -187500.02, -69219.39, -31766.50, -187500.02, 0.13, 0.57, 0.85
13, -133868.97, 40339.71, -187500.02, -180263.06, -187500.02, -70149.90, -29081.32, -187500.02, 0.13, 0.57, 0.85
14, -132343.92, 25931.62, -187500.02, -181086.72, -187500.02, -68377.00, -33314.09, -187500.02, 0.13, 0.57, 0.85
15, -130565.84, 12163.84, -187500.02, -181785.41, -187500.02, -66371.27, -36253.99, -187500.02, 0.13, 0.57, 0.85
16, -131421.41, 25270.61, -187500.02, -180762.70, -187500.02, -66967.61, -32629.79, -187500.02, 0.13, 0.57, 0.85
17, -133077.52, 42231.14, -187500.02, -179416.13, -187500.02, -68340.70, -28972.75, -187500.02, 0.13, 0.57, 0.85
18, -132227.03, 31538.71, -187500.02, -180360.75, -187500.02, -67239.25, -32947.63, -187500.02, 0.13, 0.57, 0.85
19, -130528.39, 14081.89, -187500.02, -182052.58, -187500.02, -65318.63, -38067.12, -187500.02, 0.13, 0.57, 0.85
20, -130701.62, 22870.24, -187500.02, -180799.25, -187500.02, -65252.27, -33976.80, -187500.02, 0.13, 0.57, 0.85
21, -132031.91, 43137.73, -187500.02, -177859.44, -187500.02, -66317.76, -26520.77, -187500.02, 0.13, 0.57, 0.85
22, -131566.31, 37770.38, -187500.02, -178001.59, -187500.02, -65605.20, -28417.13, -187500.02, 0.13, 0.57, 0.85
23, -129800.20, 18278.83, -187500.02, -180044.50, -187500.02, -63623.75, -34470.23, -187500.02, 0.13, 0.57, 0.85
24, -129607.97, 21848.96, -187500.02, -179519.61, -187500.02, -63206.75, -32216.22, -187500.02, 0.13, 0.57, 0.85
25, -131001.02, 43148.84, -187500.02, -176567.39, -187500.02, -64344.39, -24417.51, -187500.02, 0.13, 0.57, 0.85
26, -130946.48, 43196.89, -187500.02, -176084.28, -187500.02, -64043.78, -24637.43, -187500.02, 0.13, 0.57, 0.85
27, -129157.05, 23143.13, -187500.02, -178143.95, -187500.02, -62042.23, -31117.14, -187500.02, 0.13, 0.57, 0.85
28, -128528.00, 21309.39, -187500.02, -178288.27, -187500.02, -61201.53, -30907.48, -187500.02, 0.13, 0.57, 0.85
29, -129800.15, 42194.82, -187500.02, -175559.02, -187500.02, -62231.10, -23515.46, -187500.02, 0.13, 0.57, 0.85
30, -130178.50, 47806.31, -187500.02, -174372.25, -187500.02, -62367.36, -21986.74, -187500.02, 0.13, 0.57, 0.85
31, -128548.99, 28615.28, -187500.02, -176240.34, -187500.02, -60529.33, -28431.06, -187500.02, 0.13, 0.57, 0.85
32, -127577.83, 21655.80, -187500.02, -176934.80, -187500.02, -59357.09, -30168.82, -187500.02, 0.13, 0.57, 0.86
33, -128666.12, 40745.69, -187500.02, -174480.11, -187500.02, -60216.78, -23468.48, -187500.02, 0.13, 0.57, 0.86
34, -129422.43, 51550.03, -187500.02, -172707.77, -187500.02, -60737.46, -20280.29, -187500.02, 0.13, 0.57, 0.86
35, -127993.59, 34500.39, -187500.02, -174412.59, -187500.02, -59104.94, -26325.06, -187500.02, 0.13, 0.57, 0.86
36, -126694.71, 22749.76, -187500.02, -175714.95, -187500.02, -57616.67, -29775.14, -187500.02, 0.13, 0.57, 0.86
37, -127494.28, 38682.40, -187500.02, -173763.27, -187500.02, -58200.97, -24092.43, -187500.02, 0.13, 0.57, 0.85
38, -128536.30, 53805.77, -187500.02, -171555.75, -187500.02, -59014.39, -19472.26, -187500.02, 0.13, 0.57, 0.85
39, -127392.60, 40189.93, -187500.02, -172890.16, -187500.02, -57670.61, -24645.55, -187500.02, 0.13, 0.57, 0.85
40, -125842.41, 24476.12, -187500.02, -174575.02, -187500.02, -55939.78, -29525.85, -187500.02, 0.13, 0.57, 0.85
41, -126299.71, 36275.32, -187500.02, -173121.27, -187500.02, -56196.87, -25147.32, -187500.02, 0.13, 0.57, 0.85
42, -127578.63, 54842.89, -187500.02, -170477.84, -187500.02, -57253.41, -19181.06, -187500.02, 0.13, 0.57, 0.85
43, -126826.41, 45706.28, -187500.02, -171158.66, -187500.02, -56303.73, -22897.66, -187500.02, 0.13, 0.57, 0.85
44, -125107.72, 27268.95, -187500.02, -173132.52, -187500.02, -54414.76, -28878.70, -187500.02, 0.13, 0.57, 0.85
45, -125189.34, 34304.76, -187500.02, -172227.14, -187500.02, -54311.96, -25989.13, -187500.02, 0.13, 0.57, 0.85
46, -126583.63, 54993.85, -187500.02, -169374.34, -187500.02, -55495.20, -19063.82, -187500.02, 0.13, 0.57, 0.85
47, -126276.27, 51166.45, -187500.02, -169335.95, -187500.02, -54990.07, -20876.48, -187500.02, 0.13, 0.57, 0.85
48, -124538.64, 31326.51, -187500.02, -171343.75, -187500.02, -53084.81, -27355.00, -187500.02, 0.13, 0.57, 0.85
49, -124241.99, 33214.82, -187500.02, -171041.22, -187500.02, -52617.05, -26156.41, -187500.02, 0.13, 0.57, 0.85
50, -125640.85, 54555.55, -187500.02, -168171.69, -187500.02, -53815.55, -18891.00, -187500.02, 0.13, 0.57, 0.85
51, -125787.43, 56457.49, -187500.02, -167433.22, -187500.02, -53767.07, -18798.24, -187500.02, 0.13, 0.57, 0.85
52, -124104.97, 36475.32, -187500.02, -169443.25, -187500.02, -51923.05, -25541.76, -187500.02, 0.13, 0.57, 0.85
53, -123428.09, 32988.43, -187500.02, -169748.00, -187500.02, -51083.28, -26184.38, -187500.02, 0.13, 0.58, 0.86
54, -124704.87, 53444.02, -187500.02, -167086.91, -187500.02, -52168.16, -19190.45, -187500.02, 0.13, 0.58, 0.86
55, -125246.37, 60691.82, -187500.02, -165751.88, -187500.02, -52517.05, -17346.74, -187500.02, 0.13, 0.58, 0.86
56, -123698.28, 41946.09, -187500.02, -167656.55, -187500.02, -50809.54, -23931.83, -187500.02, 0.13, 0.58, 0.86
57, -122646.07, 33295.34, -187500.02, -168607.56, -187500.02, -49607.15, -26411.51, -187500.02, 0.13, 0.58, 0.86
58, -123701.68, 51523.36, -187500.02, -166289.19, -187500.02, -50485.19, -20054.39, -187500.02, 0.13, 0.57, 0.86
59, -124603.59, 63785.19, -187500.02, -164302.69, -187500.02, -51197.72, -16361.28, -187500.02, 0.13, 0.57, 0.86
60, -123283.73, 47627.07, -187500.02, -165854.92, -187500.02, -49718.77, -22178.00, -187500.02, 0.13, 0.57, 0.86
61, -121919.15, 34567.78, -187500.02, -167298.89, -187500.02, -48213.29, -26199.02, -187500.02, 0.13, 0.57, 0.86
62, -122634.43, 49287.52, -187500.02, -165549.95, -187500.02, -48765.40, -20993.47, -187500.02, 0.13, 0.57, 0.86
63, -123834.70, 65701.56, -187500.02, -163073.00, -187500.02, -49780.15, -15712.02, -187500.02, 0.13, 0.57, 0.85
64, -122886.31, 53435.26, -187500.02, -164054.00, -187500.02, -48673.29, -20244.96, -187500.02, 0.13, 0.57, 0.85
65, -121344.30, 36907.51, -187500.02, -165766.00, -187500.02, -46997.09, -25442.63, -187500.02, 0.13, 0.57, 0.85
66, -121733.95, 47344.26, -187500.02, -164510.98, -187500.02, -47234.42, -21579.16, -187500.02, 0.13, 0.57, 0.85
67, -123099.10, 66668.52, -187500.02, -161830.47, -187500.02, -48421.68, -15296.50, -187500.02, 0.13, 0.57, 0.85
68, -122529.38, 59186.10, -187500.02, -162313.72, -187500.02, -47691.94, -18389.05, -187500.02, 0.13, 0.57, 0.86
69, -120835.41, 40097.75, -187500.02, -164336.56, -187500.02, -45867.32, -24599.97, -187500.02, 0.13, 0.57, 0.86
70, -120826.44, 45481.48, -187500.02, -163709.41, -187500.02, -45716.45, -22361.18, -187500.02, 0.13, 0.57, 0.86
71, -122241.38, 66318.92, -187500.02, -160947.44, -187500.02, -46963.27, -15439.40, -187500.02, 0.13, 0.57, 0.86
72, -122076.10, 64097.38, -187500.02, -160822.11, -187500.02, -46640.94, -16793.45, -187500.02, 0.13, 0.57, 0.86
73, -120328.09, 43824.33, -187500.02, -163025.06, -187500.02, -44767.35, -23593.94, -187500.02, 0.13, 0.57, 0.86
74, -119891.53, 43768.49, -187500.02, -163083.23, -187500.02, -44202.05, -23151.94, -187500.02, 0.13, 0.57, 0.86
75, -121268.00, 64821.93, -187500.02, -160348.86, -187500.02, -45419.95, -15974.21, -187500.02, 0.13, 0.57, 0.86
76, -121532.24, 68111.10, -187500.02, -159540.84, -187500.02, -45525.79, -15446.51, -187500.02, 0.13, 0.57, 0.86
77, -119867.39, 48138.91, -187500.02, -161649.02, -187500.02, -43736.48, -22265.38, -187500.02, 0.13, 0.57, 0.86
78, -119075.05, 42890.45, -187500.02, -162227.75, -187500.02, -42823.37, -23481.54, -187500.02, 0.12, 0.57, 0.86
79, -120314.81, 62702.72, -187500.02, -159695.86, -187500.02, -43911.90, -16570.35, -187500.02, 0.12, 0.57, 0.86
80, -120998.75, 71450.26, -187500.02, -158198.80, -187500.02, -44439.09, -14094.94, -187500.02, 0.12, 0.57, 0.86
81, -119535.23, 53253.72, -187500.02, -160034.14, -187500.02, -42852.70, -20440.36, -187500.02, 0.12, 0.57, 0.86
82, -118411.47, 43145.23, -187500.02, -161151.63, -187500.02, -41616.80, -23332.83, -187500.02, 0.12, 0.57, 0.86
83, -119381.98, 60272.75, -187500.02, -159097.13, -187500.02, -42449.00, -17318.27, -187500.02, 0.13, 0.56, 0.86
84, -120395.03, 73757.80, -187500.02, -157097.48, -187500.02, -43309.01, -13177.18, -187500.02, 0.13, 0.56, 0.86
85, -119221.88, 58697.00, -187500.02, -158520.11, -187500.02, -42010.53, -18582.84, -187500.02, 0.13, 0.56, 0.86
86, -117813.72, 44226.46, -187500.02, -160095.80, -187500.02, -40497.34, -22995.41, -187500.02, 0.13, 0.56, 0.86
87, -118448.88, 57571.25, -187500.02, -158571.94, -187500.02, -41008.50, -18191.53, -187500.02, 0.13, 0.56, 0.86
88, -119684.55, 74731.67, -187500.02, -156223.58, -187500.02, -42099.26, -12730.08, -187500.02, 0.12, 0.57, 0.85
89, -118827.57, 63678.78, -187500.02, -157225.16, -187500.02, -41118.45, -16936.01, -187500.02, 0.12, 0.57, 0.85
90, -117201.91, 45963.54, -187500.02, -159194.55, -187500.02, -39395.15, -22551.43, -187500.02, 0.12, 0.57, 0.85
91, -117460.76, 54666.64, -187500.02, -158229.45, -187500.02, -39540.59, -19196.04, -187500.02, 0.12, 0.57, 0.85
92, -118840.20, 74432.70, -187500.02, -155650.69, -187500.02, -40777.14, -12744.72, -187500.02, 0.12, 0.57, 0.85
93, -118421.52, 68429.30, -187500.02, -155905.61, -187500.02, -40231.11, -15148.11, -187500.02, 0.12, 0.57, 0.86
94, -116752.57, 48891.00, -187500.02, -157906.84, -187500.02, -38466.46, -21361.70, -187500.02, 0.12, 0.57, 0.86
95, -116593.38, 52384.08, -187500.02, -157660.73, -187500.02, -38203.13, -19832.03, -187500.02, 0.12, 0.57, 0.86
96, -118014.50, 73349.98, -187500.02, -154986.81, -187500.02, -39490.05, -12824.56, -187500.02, 0.12, 0.57, 0.86
97, -118030.06, 72804.52, -187500.02, -154585.80, -187500.02, -39378.12, -13448.15, -187500.02, 0.12, 0.57, 0.86
98, -116379.85, 52609.84, -187500.02, -156591.22, -187500.02, -37631.78, -20000.90, -187500.02, 0.13, 0.57, 0.86
99, -115885.90, 50993.34, -187500.02, -156786.94, -187500.02, -37040.80, -20035.86, -187500.02, 0.13, 0.57, 0.86
100, -117240.23, 71686.47, -187500.02, -154242.47, -187500.02, -38267.84, -13083.53, -187500.02, 0.13, 0.57, 0.86
101, -117679.02, 76794.76, -187500.02, -153218.44, -187500.02, -38578.13, -11876.64, -187500.02, 0.13, 0.57, 0.86
102, -116117.04, 57277.55, -187500.02, -155200.88, -187500.02, -36919.40, -18481.52, -187500.02, 0.13, 0.57, 0.86
103, -115230.64, 50318.56, -187500.02, -156024.20, -187500.02, -35945.27, -20354.04, -187500.02, 0.13, 0.57, 0.85
104, -116374.38, 69212.84, -187500.02, -153822.52, -187500.02, -36971.08, -13972.05, -187500.02, 0.13, 0.57, 0.85
105, -117148.48, 79319.30, -187500.02, -152300.42, -187500.02, -37618.99, -11117.06, -187500.02, 0.13, 0.57, 0.85
106, -115743.30, 61797.81, -187500.02, -154130.88, -187500.02, -36121.22, -17308.56, -187500.02, 0.13, 0.57, 0.85
107, -114504.63, 50009.99, -187500.02, -155447.86, -187500.02, -34801.87, -20795.50, -187500.02, 0.13, 0.57, 0.85
108, -115370.76, 65921.70, -187500.02, -153595.17, -187500.02, -35561.27, -15243.46, -187500.02, 0.13, 0.57, 0.85
109, -116456.70, 80517.55, -187500.02, -151546.70, -187500.02, -36524.56, -10756.04, -187500.02, 0.13, 0.57, 0.85
110, -115349.33, 66299.59, -187500.02, -152925.02, -187500.02, -35321.95, -15920.12, -187500.02, 0.13, 0.57, 0.85
111, -113871.72, 50746.68, -187500.02, -154580.91, -187500.02, -33770.91, -20682.20, -187500.02, 0.13, 0.57, 0.85
112, -114390.01, 62671.18, -187500.02, -153204.02, -187500.02, -34196.56, -16357.52, -187500.02, 0.13, 0.57, 0.85
113, -115682.95, 80743.87, -187500.02, -150798.77, -187500.02, -35372.04, -10617.10, -187500.02, 0.13, 0.57, 0.86
114, -114928.28, 70950.45, -187500.02, -151685.06, -187500.02, -34521.17, -14449.20, -187500.02, 0.13, 0.57, 0.86
115, -113274.01, 52491.19, -187143.27, -153647.08, -187500.02, -32797.41, -20287.31, -187500.02, 0.13, 0.57, 0.86
116, -113410.09, 59630.25, -187389.95, -152847.58, -187500.02, -32849.38, -17479.98, -187500.02, 0.13, 0.57, 0.86
117, -114825.55, 79893.55, -187500.02, -150164.80, -187500.02, -34154.43, -10807.65, -187500.02, 0.13, 0.57, 0.86
118, -114512.32, 75399.90, -187500.02, -150329.42, -187500.02, -33744.02, -12855.34, -187500.02, 0.13, 0.57, 0.85
119, -112800.63, 55357.96, -186784.89, -152405.75, -187500.02, -31966.12, -19336.14, -187500.02, 0.13, 0.57, 0.85
120, -112528.20, 57249.27, -186629.48, -152240.55, -187500.02, -31621.55, -18265.60, -187500.02, 0.13, 0.57, 0.85
121, -113936.67, 78255.04, -187500.02, -149543.47, -187500.02, -32925.77, -11219.50, -187500.02, 0.13, 0.57, 0.85
122, -114053.86, 79307.18, -187500.02, -149013.84, -187500.02, -32945.11, -11405.47, -187500.02, 0.13, 0.57, 0.85
123, -112349.95, 58946.40, -186640.95, -151188.80, -187500.02, -31176.93, -18231.60, -187500.02, 0.12, 0.57, 0.85
124, -111712.31, 55580.05, -186116.94, -151537.84, -187500.02, -30476.74, -18788.92, -187500.02, 0.12, 0.57, 0.85
125, -113020.16, 75895.86, -187500.02, -148966.48, -187500.02, -31692.76, -11849.08, -187500.02, 0.12, 0.57, 0.85
126, -113534.16, 82453.23, -187500.02, -147823.97, -187500.02, -32111.83, -10211.39, -187500.02, 0.12, 0.57, 0.85
127, -111988.34, 63321.21, -186750.98, -149769.56, -187500.02, -30503.65, -16729.52, -187500.02, 0.12, 0.57, 0.85
128, -111010.77, 54940.79, -185885.75, -150627.13, -187500.02, -29470.48, -18956.34, -187500.02, 0.12, 0.57, 0.85
129, -112087.45, 73090.98, -187078.97, -148452.09, -187500.02, -30464.51, -12724.62, -187500.02, 0.12, 0.57, 0.85
130, -112976.69, 84736.16, -187500.02, -146684.14, -187500.02, -31258.38, -9278.57, -187500.02, 0.12, 0.57, 0.85
131, -111691.51, 68219.35, -186916.50, -148260.38, -187500.02, -29904.89, -15059.58, -187500.02, 0.12, 0.57, 0.85
132, -110419.80, 55322.53, -185752.80, -149595.22, -187500.02, -28582.45, -18852.02, -187500.02, 0.12, 0.57, 0.85
133, -111215.28, 70164.07, -186660.50, -147843.06, -187500.02, -29302.94, -13613.37, -187500.02, 0.13, 0.57, 0.85
134, -112402.27, 86046.23, -187500.02, -145597.38, -187500.02, -30394.95, -8641.25, -187500.02, 0.13, 0.57, 0.85
135, -111456.43, 73339.94, -187134.86, -146671.92, -187500.02, -29378.71, -13250.40, -187500.02, 0.13, 0.57, 0.85
136, -109929.05, 56742.05, -185716.22, -148482.23, -187500.02, -27803.92, -18474.65, -187500.02, 0.13, 0.57, 0.85
137, -110294.99, 67011.51, -186191.97, -147505.45, -187500.02, -28105.44, -14880.36, -187500.02, 0.13, 0.57, 0.85
138, -111645.88, 85898.17, -187500.02, -144987.47, -187500.02, -29367.78, -8761.06, -187500.02, 0.13, 0.57, 0.85
139, -111113.47, 78044.98, -187241.34, -145390.73, -187500.02, -28763.45, -11720.34, -187500.02, 0.13, 0.57, 0.85
140, -109457.88, 58962.36, -185696.50, -147428.88, -187500.02, -27064.41, -17857.57, -187500.02, 0.13, 0.57, 0.85
141, -109440.77, 64231.63, -185789.22, -147018.14, -187500.02, -26991.09, -15823.11, -187500.02, 0.13, 0.57, 0.85
142, -110864.56, 84810.59, -187325.84, -144373.75, -187500.02, -28329.76, -8997.11, -187500.02, 0.13, 0.57, 0.85
143, -110813.24, 82464.37, -187388.80, -143930.36, -187500.02, -28203.12, -9949.97, -187500.02, 0.13, 0.57, 0.85
144, -109187.28, 62429.56, -185874.28, -145880.05, -187500.02, -26533.91, -16416.04, -187500.02, 0.13, 0.57, 0.85
145, -108732.90, 62277.97, -185527.23, -146255.22, -187500.02, -26032.72, -16366.75, -187500.02, 0.13, 0.57, 0.85
146, -110057.05, 82890.73, -186960.91, -143866.48, -187500.02, -27279.23, -9572.96, -187500.02, 0.13, 0.57, 0.85
147, -110469.80, 86290.85, -187485.05, -142641.23, -187500.02, -27613.28, -8448.53, -187500.02, 0.13, 0.57, 0.85
148, -108985.00, 66713.23, -186110.16, -144337.44, -187500.02, -26083.28, -14761.25, -187500.02, 0.13, 0.56, 0.85
149, -108161.34, 61307.93, -185394.02, -145301.63, -187500.02, -25221.19, -16503.28, -187500.02, 0.13, 0.56, 0.85
150, -109284.13, 80489.61, -186623.94, -143342.38, -187500.02, -26274.59, -10282.83, -187500.02, 0.13, 0.56, 0.85
151, -110085.06, 89244.95, -187500.02, -141508.36, -187500.02, -26994.71, -7300.79, -187500.02, 0.13, 0.56, 0.85
152, -108831.13, 71555.95, -186394.77, -142791.67, -187500.02, -25689.66, -12960.08, -187500.02, 0.13, 0.56, 0.85
153, -107670.07, 61212.35, -185340.14, -144291.53, -187500.02, -24492.04, -16408.24, -187500.02, 0.13, 0.57, 0.85
154, -108479.83, 77585.16, -186256.28, -142927.31, -187500.02, -25241.06, -11237.21, -187500.02, 0.13, 0.57, 0.85
155, -109577.66, 90963.51, -187464.52, -140664.31, -187500.02, -26259.88, -6631.11, -187500.02, 0.13, 0.57, 0.85
156, -108643.98, 76372.58, -186638.31, -141399.91, -187500.02, -25268.89, -11134.07, -187500.02, 0.13, 0.57, 0.85
157, -107272.81, 62039.07, -185369.27, -143147.41, -187500.02, -23861.29, -15788.56, -187500.02, 0.13, 0.57, 0.85
158, -107785.23, 74776.88, -185984.70, -142259.22, -187500.02, -24319.17, -11770.58, -187500.02, 0.13, 0.57, 0.85
159, -109095.42, 91862.49, -187403.39, -139760.95, -187500.02, -25554.53, -5982.18, -187500.02, 0.13, 0.57, 0.85
160, -108509.22, 81378.81, -186925.05, -139987.00, -187500.02, -24910.97, -9082.43, -187500.02, 0.13, 0.57, 0.85
161, -106986.45, 63978.36, -185507.20, -141923.25, -187500.02, -23359.05, -14807.07, -187500.02, 0.13, 0.57, 0.85
162, -107115.91, 72182.56, -185740.69, -141678.81, -187500.02, -23445.24, -12473.88, -187500.02, 0.13, 0.57, 0.85
163, -108490.49, 91536.94, -187223.06, -139230.78, -187500.02, -24746.49, -5629.53, -187500.02, 0.13, 0.57, 0.85
164, -108260.13, 85845.27, -187100.91, -139017.30, -187500.02, -24452.99, -6897.12, -187500.02, 0.13, 0.57, 0.85
165, -106648.20, 66364.79, -185592.11, -141081.33, -187500.02, -22806.98, -13410.13, -187500.02, 0.13, 0.57, 0.85
166, -106399.73, 69483.59, -185443.52, -141358.73, -187500.02, -22520.50, -12875.54, -187500.02, 0.13, 0.57, 0.85
167, -107763.50, 89923.99, -186910.56, -138973.06, -187500.02, -23816.74, -5913.96, -187500.02, 0.13, 0.57, 0.85
168, -107940.28, 89496.92, -187193.23, -138099.00, -187500.02, -23927.05, -5401.79, -187500.02, 0.12, 0.57, 0.85
169, -106395.06, 69526.02, -185751.39, -139965.77, -187500.02, -22348.10, -11910.60, -187500.02, 0.12, 0.57, 0.85
170, -105798.31, 67524.20, -185255.75, -140720.59, -187500.02, -21719.88, -13064.62, -187500.02, 0.12, 0.57, 0.85
171, -107040.13, 87605.94, -186601.47, -138635.84, -187500.02, -22899.41, -6465.00, -187500.02, 0.12, 0.57, 0.85
172, -107600.06, 92601.80, -187266.39, -137224.86, -187500.02, -23390.54, -4171.33, -187500.02, 0.12, 0.57, 0.85
173, -106222.88, 73469.47, -185992.53, -138752.97, -187500.02, -21973.71, -10220.02, -187500.02, 0.13, 0.57, 0.85
174, -105290.37, 66445.81, -185162.20, -139991.23, -187500.02, -21013.25, -13065.22, -187500.02, 0.13, 0.57, 0.85
175, -106317.23, 84793.22, -186291.44, -138309.03, -187500.02, -21986.27, -7257.68, -187500.02, 0.13, 0.57, 0.85
176, -107229.00, 94943.63, -187308.91, -136362.72, -187500.02, -22830.14, -3267.02, -187500.02, 0.13, 0.57, 0.85
177, -106093.87, 78026.67, -186277.33, -137470.05, -187500.02, -21653.21, -8484.52, -187500.02, 0.13, 0.57, 0.85
178, -104886.83, 66408.75, -185169.16, -139042.36, -187500.02, -20420.58, -12793.13, -187500.02, 0.12, 0.57, 0.85
179, -105633.88, 81812.21, -186015.48, -137813.28, -187500.02, -21118.93, -8145.29, -187500.02, 0.12, 0.57, 0.85
180, -106793.48, 96238.20, -187279.53, -135548.27, -187500.02, -22213.21, -2903.00, -187500.02, 0.12, 0.57, 0.85
181, -105933.50, 82604.20, -186524.16, -136252.05, -187500.02, -21310.58, -7030.81, -187500.02, 0.12, 0.57, 0.85
182, -104476.61, 67049.51, -185166.27, -138193.34, -187500.02, -19832.32, -12545.05, -187500.02, 0.12, 0.57, 0.85
183, -104859.74, 78390.27, -185647.34, -137568.81, -187500.02, -20176.34, -9344.35, -187500.02, 0.13, 0.57, 0.85
184, -106198.70, 96182.33, -187086.84, -135071.70, -187500.02, -21449.09, -3192.41, -187500.02, 0.13, 0.57, 0.85
185, -105696.61, 86858.07, -186685.20, -135228.39, -187500.02, -20896.73, -5892.63, -187500.02, 0.13, 0.57, 0.85
186, -104115.70, 68567.66, -185203.11, -137293.94, -187500.02, -19297.11, -12118.18, -187500.02, 0.13, 0.57, 0.85
187, -104130.74, 75205.44, -185316.34, -137216.70, -187500.02, -19283.61, -10469.27, -187500.02, 0.13, 0.57, 0.85
188, -105538.32, 95055.26, -186824.56, -134697.44, -187500.02, -20631.58, -3762.63, -187500.02, 0.12, 0.57, 0.86
189, -105458.90, 90908.07, -186847.75, -134179.38, -187500.02, -20499.48, -4646.53, -187500.02, 0.12, 0.57, 0.86
190, -103876.53, 71157.65, -185362.78, -136154.11, -187500.02, -18894.78, -11177.39, -187500.02, 0.12, 0.57, 0.86
191, -103517.50, 72720.91, -185096.72, -136646.02, -187500.02, -18512.85, -11237.38, -187500.02, 0.12, 0.57, 0.86
192, -104848.70, 93135.67, -186524.66, -134391.89, -187500.02, -19791.82, -4595.23, -187500.02, 0.12, 0.57, 0.86
193, -105158.65, 94459.23, -186936.64, -133320.81, -187500.02, -20048.75, -3697.83, -187500.02, 0.12, 0.56, 0.85
194, -103648.99, 74512.53, -185526.53, -135115.19, -187500.02, -18516.77, -10160.79, -187500.02, 0.12, 0.56, 0.85
195, -102927.08, 70825.61, -184901.67, -136102.88, -187500.02, -17779.20, -11891.33, -187500.02, 0.12, 0.56, 0.85
196, -104107.91, 90435.60, -186180.72, -134166.28, -187500.02, -18915.70, -5663.22, -187500.02, 0.12, 0.56, 0.85
197, -104771.54, 96999.48, -186947.84, -132605.98, -187500.02, -19526.35, -3082.10, -187500.02, 0.12, 0.56, 0.85
198, -103406.63, 78230.84, -185683.25, -134174.67, -187500.02, -18137.59, -9132.81, -187500.02, 0.13, 0.57, 0.86
199, -102336.90, 69520.20, -184709.11, -135651.33, -187500.02, -17056.15, -12496.10, -187500.02, 0.13, 0.57, 0.86
200, -103279.23, 87031.27, -185747.34, -134103.17, -187500.02, -17962.15, -7056.47, -187500.02, 0.13, 0.57, 0.86
201, -104268.34, 98494.55, -186836.75, -132064.98, -187500.02, -18897.66, -2881.50, -187500.02, 0.13, 0.57, 0.86
202, -103161.08, 82229.23, -185831.03, -133196.13, -187500.02, -17762.21, -8014.35, -187500.02, 0.13, 0.57, 0.86
203, -101865.41, 69313.30, -184630.80, -134896.47, -187500.02, -16459.51, -12593.51, -187500.02, 0.13, 0.57, 0.85
204, -102533.82, 83652.38, -185395.27, -133781.56, -187500.02, -17099.33, -8256.40, -187500.02, 0.13, 0.57, 0.85
205, -103787.02, 99322.79, -186749.11, -131384.53, -187500.02, -18299.64, -2693.27, -187500.02, 0.13, 0.57, 0.85
206, -103048.53, 86913.70, -186108.48, -131906.48, -187500.02, -17528.28, -6372.64, -187500.02, 0.13, 0.57, 0.85
207, -101585.26, 70525.83, -184738.09, -133813.67, -187500.02, -16055.30, -11954.96, -187500.02, 0.13, 0.57, 0.85
208, -101885.64, 80627.27, -185131.20, -133344.73, -187500.02, -16332.80, -9128.70, -187500.02, 0.13, 0.57, 0.85
209, -103260.74, 99188.70, -186605.08, -130876.05, -187500.02, -17658.68, -2728.30, -187500.02, 0.13, 0.57, 0.85
210, -102918.16, 91553.30, -186359.70, -130772.52, -187500.02, -17278.84, -4704.93, -187500.02, 0.13, 0.57, 0.85
211, -101362.45, 72659.80, -184895.80, -132733.17, -187500.02, -15713.41, -10940.17, -187500.02, 0.13, 0.57, 0.85
212, -101293.99, 77886.30, -184920.64, -132807.41, -187500.02, -15629.77, -9743.44, -187500.02, 0.13, 0.57, 0.85
213, -102686.84, 98009.55, -186410.06, -130410.73, -187500.02, -16978.43, -3057.70, -187500.02, 0.13, 0.56, 0.85
214, -102696.78, 95371.74, -186518.17, -129855.52, -187500.02, -16948.68, -3515.62, -187500.02, 0.13, 0.56, 0.85
215, -101094.74, 75257.38, -185010.19, -131913.78, -187500.02, -15339.93, -10178.02, -187500.02, 0.13, 0.56, 0.85
216, -100636.87, 75233.78, -184643.84, -132541.13, -187500.02, -14874.33, -10691.78, -187500.02, 0.13, 0.56, 0.85
217, -101961.32, 95654.24, -186060.91, -130355.97, -187500.02, -16160.71, -4024.03, -187500.02, 0.13, 0.56, 0.85
218, -102377.76, 98428.52, -186574.56, -129220.73, -187500.02, -16536.31, -2609.52, -187500.02, 0.13, 0.57, 0.85
219, -100934.10, 78723.98, -185224.86, -130918.84, -187500.02, -15081.77, -8845.01, -187500.02, 0.13, 0.57, 0.85
220, -100188.83, 73776.02, -184570.69, -131867.11, -187500.02, -14331.58, -10792.88, -187500.02, 0.13, 0.57, 0.85
221, -101373.16, 93118.15, -185849.41, -129916.29, -187500.02, -15482.85, -4557.23, -187500.02, 0.13, 0.57, 0.85
222, -102186.00, 101349.53, -186758.19, -128164.54, -187500.02, -16251.19, -1335.45, -187500.02, 0.13, 0.57, 0.85
223, -100932.98, 83291.59, -185599.02, -129581.13, -187500.02, -14981.86, -7031.23, -187500.02, 0.13, 0.57, 0.84
224, -99852.59, 73403.69, -184608.77, -131037.52, -187500.02, -13898.92, -10615.09, -187500.02, 0.13, 0.57, 0.84
225, -100775.61, 90240.02, -185622.05, -129554.41, -187500.02, -14795.71, -5348.15, -187500.02, 0.13, 0.57, 0.84
226, -101879.94, 103129.80, -186818.75, -127445.77, -187500.02, -15854.52, -699.94, -187500.02, 0.13, 0.57, 0.84
227, -100908.89, 88038.27, -185939.59, -128443.06, -187500.02, -14863.62, -5397.81, -187500.02, 0.13, 0.57, 0.84
228, -99588.06, 73918.96, -184707.17, -130190.62, -187500.02, -13544.40, -10331.47, -187500.02, 0.13, 0.57, 0.84
229, -100197.70, 87178.20, -185406.97, -129195.80, -187500.02, -14134.06, -6351.02, -187500.02, 0.13, 0.57, 0.84
230, -101497.95, 103723.49, -186802.94, -126872.61, -187500.02, -15389.91, -572.79, -187500.02, 0.13, 0.57, 0.84
231, -100835.63, 92488.27, -186235.36, -127438.16, -187500.02, -14702.57, -4046.38, -187500.02, 0.13, 0.57, 0.84
232, -99326.12, 75117.46, -184815.19, -129421.36, -187500.02, -13194.23, -10084.73, -187500.02, 0.13, 0.57, 0.84
233, -99574.27, 83911.59, -185152.61, -128954.12, -187500.02, -13430.25, -7670.94, -187500.02, 0.13, 0.57, 0.85
234, -100993.60, 103155.98, -186665.73, -126509.88, -187500.02, -14809.73, -1144.50, -187500.02, 0.13, 0.57, 0.85
235, -100726.30, 96697.42, -186490.98, -126456.82, -187500.02, -14513.19, -2954.81, -187500.02, 0.13, 0.57, 0.85
236, -99171.98, 77393.90, -185024.38, -128429.01, -187500.02, -12957.24, -9502.06, -187500.02, 0.13, 0.57, 0.85
237, -99047.41, 81250.66, -184987.86, -128502.61, -187500.02, -12827.15, -8768.23, -187500.02, 0.13, 0.57, 0.85
238, -100491.27, 101797.84, -186524.41, -126065.80, -187500.02, -14236.29, -1876.97, -187500.02, 0.13, 0.57, 0.85
239, -100646.59, 100754.58, -186773.41, -125378.02, -187500.02, -14358.98, -1821.35, -187500.02, 0.12, 0.57, 0.85
240, -99120.35, 80719.57, -185337.66, -127278.96, -187500.02, -12831.73, -8494.27, -187500.02, 0.12, 0.57, 0.85
241, -98611.98, 79342.07, -184916.80, -127947.88, -187500.02, -12322.72, -9525.17, -187500.02, 0.12, 0.57, 0.85
242, -99940.99, 99623.87, -186335.25, -125771.70, -187500.02, -13619.74, -2874.75, -187500.02, 0.12, 0.57, 0.85
243, -100517.87, 104179.66, -187003.69, -124429.85, -187500.02, -14157.95, -857.48, -187500.02, 0.12, 0.57, 0.85
244, -99134.34, 84817.40, -185709.02, -126091.82, -187500.02, -12766.91, -7186.51, -187500.02, 0.13, 0.57, 0.84
245, -98262.83, 78186.82, -184925.63, -127297.18, -187500.02, -11896.54, -9964.61, -187500.02, 0.13, 0.57, 0.84
246, -99366.38, 96797.34, -186117.81, -125562.91, -187500.02, -12973.96, -4079.37, -187500.02, 0.13, 0.57, 0.84
247, -100247.03, 106304.78, -187091.22, -123838.18, -187500.02, -13817.89, -504.61, -187500.02, 0.13, 0.57, 0.84
248, -99027.50, 88787.05, -185961.86, -125287.65, -187500.02, -12588.99, -6213.81, -187500.02, 0.13, 0.57, 0.84
249, -97840.89, 77452.79, -184861.69, -126912.46, -187500.02, -11408.87, -10459.54, -187500.02, 0.13, 0.56, 0.85
250, -98664.11, 93237.68, -185775.13, -125603.12, -187500.02, -12216.99, -5582.84, -187500.02, 0.13, 0.56, 0.85
251, -99816.23, 107191.36, -187019.78, -123497.41, -187500.02, -13334.80, -570.06, -187500.02, 0.13, 0.56, 0.85
252, -98878.75, 92781.17, -186170.17, -124533.14, -187500.02, -12385.12, -5154.31, -187500.02, 0.13, 0.56, 0.85
253, -97486.84, 77616.84, -184861.69, -126394.91, -187500.02, -11002.91, -10469.00, -187500.02, 0.13, 0.56, 0.85
254, -97995.05, 89587.45, -185455.02, -125550.80, -187500.02, -11502.01, -6864.20, -187500.02, 0.14, 0.57, 0.85
255, -99347.40, 107078.58, -186896.97, -123148.92, -187500.02, -12820.58, -705.67, -187500.02, 0.14, 0.57, 0.85
0, -98785.34, 97025.45, -186423.63, -123562.95, -187500.02, -12243.44, -3688.98, -187500.02, 0.14, 0.57, 0.85
1, -97271.52, 79007.24, -184994.31, -125547.13, -187500.02, -10739.23, -9777.79, -187500.02, 0.14, 0.57, 0.85
2, -97417.44, 86372.57, -185223.72, -125255.22, -187500.02, -10882.68, -7743.14, -187500.02, 0.14, 0.57, 0.85
3, -98853.98, 106085.00, -186748.17, -122792.61, -187500.02, -12287.33, -955.45, -187500.02, 0.13, 0.57, 0.84
4, -98698.05, 101092.16, -186682.66, -122601.46, -187500.02, -12107.54, -2175.88, -187500.02, 0.13, 0.57, 0.84
5, -97118.82, 81279.91, -185187.19, -124683.66, -187500.02, -10533.80, -8787.21, -187500.02, 0.13, 0.57, 0.84
6, -96894.05, 83574.02, -185043.78, -124917.01, -187500.02, -10311.22, -8398.09, -187500.02, 0.13, 0.57, 0.84
7, -98311.51, 104144.13, -186548.19, -122550.50, -187500.02, -11701.41, -1466.97, -187500.02, 0.13, 0.57, 0.84
8, -98501.45, 104382.11, -186827.86, -121950.98, -187500.02, -11866.03, -1115.89, -187500.02, 0.12, 0.57, 0.84
9, -96932.45, 84062.07, -185345.95, -124027.86, -187500.02, -10303.04, -7896.60, -187500.02, 0.12, 0.57, 0.84
10, -96367.87, 81207.30, -184866.33, -124657.02, -187500.02, -9745.49, -9105.52, -187500.02, 0.12, 0.57, 0.84
11, -97738.01, 101443.88, -186322.77, -122282.61, -187500.02, -11091.99, -2241.63, -187500.02, 0.12, 0.57, 0.84
12, -98383.26, 107319.80, -187055.27, -120936.44, -187500.02, -11707.42, 90.26, -187500.02, 0.12, 0.57, 0.84
13, -96981.09, 88074.56, -185736.02, -122765.19, -187500.02, -10306.28, -6270.54, -187500.02, 0.12, 0.57, 0.85
14, -96066.48, 80189.09, -184902.55, -123967.27, -187500.02, -9402.31, -9212.83, -187500.02, 0.12, 0.57, 0.85
15, -97177.98, 98373.33, -186098.86, -122123.63, -187500.02, -10496.54, -3293.17, -187500.02, 0.12, 0.57, 0.85
16, -98147.55, 109314.64, -187155.27, -120334.37, -187500.02, -11434.50, 684.25, -187500.02, 0.12, 0.57, 0.85
17, -96968.88, 92454.12, -186059.73, -121861.21, -187500.02, -10251.78, -4840.87, -187500.02, 0.12, 0.57, 0.85
18, -95740.92, 79849.55, -184914.59, -123516.61, -187500.02, -9037.82, -9274.66, -187500.02, 0.12, 0.56, 0.86
19, -96578.45, 94913.10, -185835.19, -122059.81, -187500.02, -9865.23, -4390.60, -187500.02, 0.12, 0.56, 0.86
20, -97828.82, 110060.74, -187146.81, -119839.81, -187500.02, -11085.17, 991.32, -187500.02, 0.12, 0.56, 0.86
21, -96962.29, 96709.71, -186332.70, -120910.69, -187500.02, -10210.90, -3327.93, -187500.02, 0.12, 0.56, 0.86
22, -95522.21, 80477.77, -184972.75, -122878.17, -187500.02, -8787.39, -8932.43, -187500.02, 0.12, 0.56, 0.86
23, -95985.85, 91339.22, -185520.39, -122047.80, -187500.02, -9247.25, -5616.30, -187500.02, 0.12, 0.56, 0.85
24, -97372.84, 109620.62, -186993.81, -119683.48, -187500.02, -10604.94, 636.40, -187500.02, 0.12, 0.56, 0.85
25, -96866.80, 100738.33, -186572.02, -120178.98, -187500.02, -10086.49, -2133.12, -187500.02, 0.12, 0.56, 0.85
26, -95323.17, 81963.73, -185107.28, -122219.45, -187500.02, -8557.57, -8366.37, -187500.02, 0.12, 0.56, 0.85
27, -95434.50, 88073.54, -185297.77, -121870.06, -187500.02, -8672.59, -6573.42, -187500.02, 0.12, 0.56, 0.85
28, -96918.79, 108326.85, -186846.83, -119365.91, -187500.02, -10129.85, 197.41, -187500.02, 0.13, 0.57, 0.85
29, -96831.69, 104750.11, -186783.83, -119264.48, -187500.02, -10024.62, -868.63, -187500.02, 0.13, 0.57, 0.85
30, -95231.23, 84535.70, -185252.73, -121443.53, -187500.02, -8436.82, -7570.20, -187500.02, 0.13, 0.57, 0.85
31, -94925.73, 85351.01, -185026.27, -121763.78, -187500.02, -8138.14, -7578.58, -187500.02, 0.13, 0.57, 0.85
32, -96333.18, 105913.02, -186517.20, -119437.37, -187500.02, -9522.71, -716.17, -187500.02, 0.13, 0.57, 0.85
33, -96610.14, 107751.30, -186879.48, -118833.78, -187500.02, -9779.78, 70.43, -187500.02, 0.13, 0.57, 0.85
34, -95047.98, 87443.89, -185399.06, -120965.13, -187500.02, -8229.78, -6695.40, -187500.02, 0.13, 0.57, 0.85
35, -94381.83, 82934.42, -184813.17, -121723.77, -187500.02, -7582.43, -8418.58, -187500.02, 0.13, 0.57, 0.85
36, -95664.28, 102598.77, -186177.08, -119562.43, -187500.02, -8853.28, -1865.21, -187500.02, 0.13, 0.57, 0.85
37, -96369.79, 109912.71, -186965.72, -118220.30, -187500.02, -9536.21, 927.44, -187500.02, 0.13, 0.57, 0.85
38, -94995.49, 91103.54, -185672.56, -120062.80, -187500.02, -8169.81, -5258.78, -187500.02, 0.12, 0.57, 0.85
39, -93977.46, 81676.52, -184732.84, -121403.43, -187500.02, -7171.04, -8695.07, -187500.02, 0.12, 0.57, 0.85
40, -95001.99, 98973.88, -185836.84, -119688.96, -187500.02, -8187.33, -3082.22, -187500.02, 0.12, 0.57, 0.85
41, -96055.59, 111227.33, -186974.70, -117777.02, -187500.02, -9216.32, 1419.63, -187500.02, 0.12, 0.57, 0.85
42, -94972.70, 95261.41, -185974.64, -119133.34, -187500.02, -8135.72, -3691.77, -187500.02, 0.12, 0.57, 0.85
43, -93701.51, 81589.20, -184783.09, -120824.49, -187500.02, -6886.30, -8475.54, -187500.02, 0.12, 0.57, 0.85
44, -94434.44, 95487.61, -185596.52, -119561.24, -187500.02, -7618.32, -4077.81, -187500.02, 0.12, 0.57, 0.85
45, -95740.48, 111751.88, -186954.97, -117299.20, -187500.02, -8901.49, 1681.43, -187500.02, 0.12, 0.57, 0.85
46, -94995.94, 99793.18, -186248.67, -118187.51, -187500.02, -8157.18, -2106.29, -187500.02, 0.12, 0.57, 0.85
47, -93521.20, 82589.18, -184848.83, -120178.11, -187500.02, -6705.81, -8020.61, -187500.02, 0.12, 0.57, 0.85
48, -93889.44, 92076.40, -185294.53, -119479.50, -187500.02, -7078.02, -5189.31, -187500.02, 0.13, 0.57, 0.86
49, -95329.45, 111084.73, -186799.02, -117044.98, -187500.02, -8495.50, 1363.12, -187500.02, 0.13, 0.57, 0.86
50, -94954.37, 103833.70, -186466.27, -117395.98, -187500.02, -8111.94, -862.71, -187500.02, 0.13, 0.57, 0.86
51, -93347.50, 84316.55, -184930.02, -119636.05, -187500.02, -6524.47, -7573.26, -187500.02, 0.13, 0.57, 0.86
52, -93308.36, 88692.26, -184966.89, -119569.91, -187500.02, -6496.40, -6507.13, -187500.02, 0.13, 0.57, 0.86
53, -94792.05, 109203.35, -186531.02, -117048.37, -187500.02, -7961.18, 501.08, -187500.02, 0.13, 0.57, 0.85
54, -94820.27, 107226.92, -186643.34, -116757.06, -187500.02, -7978.41, 68.87, -187500.02, 0.13, 0.57, 0.85
55, -93202.62, 86789.83, -185104.38, -118982.96, -187500.02, -6380.80, -6890.13, -187500.02, 0.13, 0.57, 0.85
56, -92774.22, 85940.87, -184751.56, -119444.50, -187500.02, -5972.41, -7552.41, -187500.02, 0.13, 0.57, 0.85
57, -94195.27, 106500.29, -186246.64, -117042.72, -187500.02, -7378.62, -616.57, -187500.02, 0.13, 0.57, 0.85
58, -94657.98, 110128.85, -186769.03, -116084.09, -187500.02, -7823.49, 881.53, -187500.02, 0.13, 0.57, 0.86
59, -93158.52, 90190.45, -185339.70, -118119.27, -187500.02, -6339.47, -5823.79, -187500.02, 0.13, 0.57, 0.86
60, -92373.25, 84172.84, -184630.80, -119119.53, -187500.02, -5576.92, -8215.29, -187500.02, 0.13, 0.57, 0.86
61, -93588.74, 103243.06, -185923.08, -117114.84, -187500.02, -6784.96, -1963.09, -187500.02, 0.13, 0.57, 0.86
62, -94405.16, 112145.49, -186819.09, -115640.86, -187500.02, -7584.91, 1295.53, -187500.02, 0.13, 0.57, 0.86
63, -93103.80, 94079.65, -185594.16, -117384.49, -187500.02, -6295.28, -4704.35, -187500.02, 0.13, 0.57, 0.86
64, -91997.09, 83174.05, -184562.22, -118818.34, -187500.02, -5214.35, -8625.52, -187500.02, 0.13, 0.57, 0.86
65, -92947.16, 99541.30, -185592.03, -117209.95, -187500.02, -6164.86, -3333.09, -187500.02, 0.13, 0.57, 0.86
66, -94060.32, 112999.69, -186786.08, -115285.20, -187500.02, -7260.32, 1456.13, -187500.02, 0.13, 0.57, 0.86
67, -93029.74, 98025.49, -185833.11, -116658.60, -187500.02, -6237.46, -3471.94, -187500.02, 0.13, 0.57, 0.86
68, -91642.59, 82981.98, -184520.17, -118572.78, -187500.02, -4878.56, -8776.28, -187500.02, 0.13, 0.57, 0.86
69, -92259.55, 95531.82, -185211.67, -117468.16, -187500.02, -5503.45, -4797.00, -187500.02, 0.13, 0.57, 0.86
70, -93604.61, 112717.98, -186636.14, -115154.93, -187500.02, -6833.35, 1237.86, -187500.02, 0.13, 0.57, 0.86
71, -92918.16, 101875.58, -186029.41, -116001.55, -187500.02, -6150.51, -2245.46, -187500.02, 0.13, 0.57, 0.86
72, -91388.44, 83870.58, -184575.78, -118058.73, -187500.02, -4651.46, -8365.01, -187500.02, 0.13, 0.57, 0.86
73, -91652.85, 91877.65, -184914.41, -117457.66, -187500.02, -4931.67, -5934.59, -187500.02, 0.13, 0.57, 0.87
74, -93133.34, 111591.28, -186473.16, -114920.98, -187500.02, -6396.71, 878.58, -187500.02, 0.13, 0.57, 0.87
75, -92882.45, 105912.91, -186299.42, -115053.16, -187500.02, -6143.96, -787.47, -187500.02, 0.13, 0.57, 0.87
76, -91286.94, 86051.04, -184777.11, -117205.37, -187500.02, -4574.91, -7489.82, -187500.02, 0.13, 0.57, 0.87
77, -91137.60, 88894.52, -184698.92, -117286.59, -187500.02, -4443.50, -6927.99, -187500.02, 0.13, 0.57, 0.87
78, -92593.51, 109510.85, -186227.64, -114895.30, -187500.02, -5885.24, -19.09, -187500.02, 0.13, 0.57, 0.86
79, -92745.30, 109322.42, -186458.05, -114481.14, -187500.02, -6029.25, 94.39, -187500.02, 0.13, 0.57, 0.86
80, -91149.09, 88817.89, -184938.75, -116669.46, -187500.02, -4458.01, -6816.61, -187500.02, 0.13, 0.57, 0.86
81, -90607.95, 86259.89, -184472.05, -117284.27, -187500.02, -3943.54, -7989.79, -187500.02, 0.13, 0.57, 0.86
82, -91974.81, 106495.17, -185913.83, -114996.10, -187500.02, -5302.66, -1202.88, -187500.02, 0.13, 0.57, 0.86
83, -92528.75, 111715.80, -186545.89, -113950.89, -187500.02, -5846.59, 783.63, -187500.02, 0.13, 0.56, 0.86
84, -91054.59, 92108.02, -185146.06, -115988.52, -187500.02, -4393.68, -5827.88, -187500.02, 0.13, 0.56, 0.86
85, -90149.14, 84466.79, -184313.00, -117148.39, -187500.02, -3518.97, -8719.77, -187500.02, 0.13, 0.56, 0.86
86, -91287.34, 102815.02, -185526.27, -115262.06, -187500.02, -4658.77, -2707.56, -187500.02, 0.13, 0.56, 0.86
87, -92190.80, 113154.49, -186505.45, -113702.56, -187500.02, -5550.14, 1031.29, -187500.02, 0.13, 0.56, 0.86
88, -90959.08, 95858.91, -185348.48, -115331.69, -187500.02, -4335.93, -4617.92, -187500.02, 0.12, 0.56, 0.86
89, -89763.75, 83660.41, -184225.39, -116891.05, -187500.02, -3175.56, -8917.03, -187500.02, 0.12, 0.56, 0.86
90, -90605.12, 98891.83, -185139.92, -115480.98, -187500.02, -4025.53, -4030.20, -187500.02, 0.12, 0.56, 0.86
91, -91808.96, 113663.76, -186421.80, -113435.19, -187500.02, -5218.73, 1254.45, -187500.02, 0.12, 0.56, 0.86
92, -90893.05, 99908.52, -185581.20, -114638.67, -187500.02, -4315.07, -3151.33, -187500.02, 0.12, 0.56, 0.86
93, -89471.64, 83880.71, -184230.41, -116537.97, -187500.02, -2927.97, -8634.97, -187500.02, 0.13, 0.57, 0.85
94, -89946.97, 94976.09, -184776.97, -115714.24, -187500.02, -3418.39, -5280.29, -187500.02, 0.13, 0.57, 0.85
95, -91318.74, 112998.55, -186223.44, -113428.21, -187500.02, -4779.63, 967.65, -187500.02, 0.13, 0.57, 0.85
96, -90783.26, 103754.07, -185761.00, -114014.30, -187500.02, -4249.65, -1834.12, -187500.02, 0.13, 0.57, 0.85
97, -89236.14, 85054.46, -184284.88, -116064.02, -187500.02, -2735.07, -8094.04, -187500.02, 0.13, 0.57, 0.85
98, -89355.09, 91401.76, -184475.20, -115729.59, -187500.02, -2876.58, -6321.56, -187500.02, 0.13, 0.57, 0.85
99, -90796.09, 111399.88, -185991.91, -113389.61, -187500.02, -4311.61, 406.11, -187500.02, 0.13, 0.57, 0.85
100, -90657.24, 107319.95, -185929.34, -113406.87, -187500.02, -4174.79, -696.23, -187500.02, 0.13, 0.57, 0.85
101, -89050.55, 87118.45, -184394.05, -115577.23, -187500.02, -2599.71, -7444.70, -187500.02, 0.13, 0.57, 0.85
102, -88788.93, 88312.55, -184201.30, -115760.66, -187500.02, -2365.17, -7333.81, -187500.02, 0.13, 0.57, 0.85
103, -90263.41, 109108.78, -185746.44, -113275.58, -187500.02, -3834.80, -275.24, -187500.02, 0.13, 0.57, 0.85
104, -90476.93, 110288.17, -186033.67, -112885.41, -187500.02, -4046.58, 144.57, -187500.02, 0.13, 0.57, 0.85
105, -88888.05, 89822.96, -184514.73, -115077.86, -187500.02, -2487.28, -6699.47, -187500.02, 0.13, 0.57, 0.85
106, -88308.34, 85994.45, -184002.69, -115603.24, -187500.02, -1940.13, -8046.23, -187500.02, 0.13, 0.57, 0.85
107, -89679.71, 106057.37, -185445.78, -113253.42, -187500.02, -3313.40, -1247.88, -187500.02, 0.13, 0.57, 0.85
108, -90298.07, 112709.77, -186138.70, -112275.83, -187500.02, -3925.88, 980.48, -187500.02, 0.13, 0.57, 0.86
109, -88827.46, 93407.06, -184738.64, -114405.30, -187500.02, -2480.51, -5585.86, -187500.02, 0.13, 0.57, 0.86
110, -87909.27, 84561.20, -183889.11, -115408.06, -187500.02, -1599.09, -8527.01, -187500.02, 0.13, 0.57, 0.86
111, -89079.34, 102492.65, -185129.80, -113322.02, -187500.02, -2776.91, -2434.35, -187500.02, 0.13, 0.57, 0.86
112, -90082.49, 114265.42, -186205.81, -111686.14, -187500.02, -3770.69, 1622.69, -187500.02, 0.13, 0.57, 0.86
113, -88881.06, 97674.05, -185075.20, -113440.71, -187500.02, -2588.76, -4006.15, -187500.02, 0.13, 0.57, 0.86
114, -87654.58, 84356.33, -183916.45, -114976.84, -187500.02, -1399.26, -8501.91, -187500.02, 0.13, 0.57, 0.86
115, -88497.35, 98823.77, -184828.11, -113445.85, -187500.02, -2253.91, -3712.42, -187500.02, 0.13, 0.57, 0.86
116, -89748.95, 114651.59, -186154.42, -111461.09, -187500.02, -3498.03, 1643.30, -187500.02, 0.13, 0.57, 0.86
117, -88839.77, 101808.41, -185318.22, -112861.06, -187500.02, -2605.81, -2803.45, -187500.02, 0.13, 0.57, 0.86
118, -87360.36, 84794.31, -183908.72, -114814.20, -187500.02, -1166.22, -8526.65, -187500.02, 0.13, 0.57, 0.85
119, -87861.15, 94945.87, -184478.23, -113705.27, -187500.02, -1687.94, -5102.12, -187500.02, 0.13, 0.57, 0.85
120, -89328.61, 113903.70, -186016.44, -111266.11, -187500.02, -3150.05, 1408.92, -187500.02, 0.13, 0.57, 0.85
121, -88846.04, 105873.68, -185606.16, -111965.18, -187500.02, -2678.05, -1307.85, -187500.02, 0.13, 0.57, 0.85
122, -87268.65, 86564.88, -184096.69, -114087.86, -187500.02, -1139.80, -7754.80, -187500.02, 0.13, 0.57, 0.85
123, -87369.52, 91736.81, -184264.05, -113631.84, -187500.02, -1266.61, -6086.92, -187500.02, 0.14, 0.57, 0.86
124, -88883.41, 112288.32, -185847.63, -111160.16, -187500.02, -2776.71, 862.89, -187500.02, 0.14, 0.57, 0.86
125, -88805.35, 109619.63, -185840.08, -111297.63, -187500.02, -2703.24, -91.58, -187500.02, 0.14, 0.57, 0.86
126, -87168.70, 89078.98, -184271.33, -113600.32, -187500.02, -1103.19, -6999.83, -187500.02, 0.14, 0.57, 0.86
127, -86866.90, 88926.55, -184036.50, -113722.59, -187500.02, -833.97, -7075.44, -187500.02, 0.14, 0.57, 0.86
128, -88345.85, 109680.59, -185585.80, -111231.82, -187500.02, -2314.05, -22.89, -187500.02, 0.13, 0.57, 0.85
129, -88702.70, 112612.47, -186016.17, -110671.55, -187500.02, -2671.79, 951.87, -187500.02, 0.13, 0.57, 0.85
130, -87146.34, 92381.63, -184530.83, -112897.34, -187500.02, -1150.24, -5865.63, -187500.02, 0.13, 0.57, 0.85
131, -86445.13, 86882.45, -183896.64, -113659.22, -187500.02, -489.70, -7784.58, -187500.02, 0.13, 0.57, 0.85
132, -87749.52, 106338.80, -185269.05, -111465.24, -187500.02, -1800.86, -1261.40, -187500.02, 0.13, 0.57, 0.85
133, -88484.52, 114587.69, -186074.17, -110323.11, -187500.02, -2533.28, 1507.25, -187500.02, 0.12, 0.57, 0.85
134, -87094.84, 95984.31, -184751.59, -112349.14, -187500.02, -1172.19, -4773.93, -187500.02, 0.12, 0.57, 0.85
135, -86097.15, 85710.53, -183818.48, -113478.04, -187500.02, -213.91, -8129.58, -187500.02, 0.12, 0.57, 0.85
136, -87185.55, 102706.22, -184971.66, -111552.16, -187500.02, -1312.07, -2401.14, -187500.02, 0.12, 0.57, 0.85
137, -88284.90, 115867.13, -186140.03, -109807.81, -187500.02, -2403.84, 2082.00, -187500.02, 0.12, 0.57, 0.85
138, -87180.49, 100334.09, -185105.34, -111454.00, -187500.02, -1323.16, -3182.28, -187500.02, 0.12, 0.57, 0.85
139, -85886.84, 85806.91, -183878.59, -113110.53, -187500.02, -70.54, -8034.29, -187500.02, 0.12, 0.57, 0.85
140, -86639.52, 99057.77, -184698.97, -111717.44, -187500.02, -839.87, -3630.73, -187500.02, 0.12, 0.57, 0.85
141, -87979.64, 116033.89, -186112.28, -109578.24, -187500.02, -2176.21, 2154.78, -187500.02, 0.12, 0.57, 0.85
142, -87218.78, 104714.63, -185422.33, -110757.25, -187500.02, -1432.90, -1718.63, -187500.02, 0.12, 0.57, 0.85
143, -85700.52, 86774.25, -183968.86, -112816.78, -187500.02, 45.28, -7731.20, -187500.02, 0.13, 0.57, 0.85
144, -86090.24, 95451.91, -184422.69, -111913.26, -187500.02, -368.02, -4792.82, -187500.02, 0.13, 0.57, 0.85
145, -87594.29, 115072.34, -185997.89, -109456.66, -187500.02, -1868.99, 1925.78, -187500.02, 0.13, 0.57, 0.85
146, -87237.38, 108664.25, -185713.23, -110025.14, -187500.02, -1525.64, -289.39, -187500.02, 0.13, 0.57, 0.85
147, -85631.23, 88788.34, -184172.41, -112257.63, -187500.02, 39.65, -6964.24, -187500.02, 0.13, 0.57, 0.85
148, -85606.55, 92289.30, -184210.42, -112025.53, -187500.02, 34.96, -5860.29, -187500.02, 0.12, 0.57, 0.85
149, -87118.20, 113056.86, -185790.91, -109577.91, -187500.02, -1475.26, 1148.61, -187500.02, 0.12, 0.57, 0.85
150, -87179.94, 112080.45, -185923.25, -109508.95, -187500.02, -1540.48, 784.28, -187500.02, 0.12, 0.57, 0.85
151, -85601.05, 91574.34, -184411.09, -111686.92, -187500.02, 2.91, -6002.69, -187500.02, 0.12, 0.57, 0.85
152, -85209.66, 89852.20, -184084.06, -111945.31, -187500.02, 359.73, -6567.03, -187500.02, 0.12, 0.57, 0.85
153, -86666.14, 110431.00, -185597.14, -109538.74, -187500.02, -1098.79, 403.54, -187500.02, 0.13, 0.57, 0.84
154, -87178.44, 115141.34, -186114.30, -108765.69, -187500.02, -1611.23, 2021.56, -187500.02, 0.13, 0.57, 0.84
155, -85704.77, 95363.42, -184680.70, -110883.45, -187500.02, -168.91, -4572.52, -187500.02, 0.13, 0.57, 0.84
156, -84941.23, 88435.77, -183983.33, -111730.00, -187500.02, 557.65, -6872.69, -187500.02, 0.13, 0.57, 0.84
157, -86205.67, 107298.23, -185308.38, -109628.66, -187500.02, -711.21, -531.37, -187500.02, 0.13, 0.57, 0.84
158, -87074.66, 117170.57, -186187.31, -108339.17, -187500.02, -1574.73, 2793.99, -187500.02, 0.13, 0.57, 0.84
159, -85769.23, 99406.14, -184909.42, -110330.48, -187500.02, -295.18, -3241.43, -187500.02, 0.13, 0.57, 0.84
160, -84661.90, 87619.53, -183868.70, -111697.43, -187500.02, 769.84, -7133.58, -187500.02, 0.13, 0.57, 0.84
161, -85660.95, 103546.09, -184934.75, -109936.98, -187500.02, -244.86, -1738.97, -187500.02, 0.13, 0.57, 0.84
162, -86848.70, 117956.05, -186162.52, -108098.04, -187500.02, -1425.62, 3189.01, -187500.02, 0.13, 0.57, 0.84
163, -85843.93, 103522.57, -185194.34, -109661.72, -187500.02, -439.64, -1719.54, -187500.02, 0.13, 0.57, 0.85
164, -84484.98, 87844.19, -183896.89, -111451.74, -187500.02, 878.27, -6935.77, -187500.02, 0.13, 0.57, 0.85
165, -85146.64, 99770.20, -184623.34, -110180.77, -187500.02, 194.88, -2892.20, -187500.02, 0.13, 0.57, 0.85
166, -86574.12, 117751.87, -186077.22, -107909.37, -187500.02, -1228.32, 3321.87, -187500.02, 0.13, 0.57, 0.85
167, -85970.87, 107845.60, -185476.31, -108842.40, -187500.02, -639.55, 20.59, -187500.02, 0.13, 0.57, 0.85
168, -84468.80, 89351.50, -184030.80, -110856.76, -187500.02, 822.75, -6115.01, -187500.02, 0.13, 0.57, 0.85
169, -84754.82, 96546.37, -184380.63, -110158.04, -187500.02, 511.70, -3710.34, -187500.02, 0.13, 0.57, 0.85
170, -86295.88, 116710.41, -185956.77, -107684.94, -187500.02, -1025.21, 3226.09, -187500.02, 0.13, 0.57, 0.85
171, -86107.01, 112059.59, -185746.28, -108036.30, -187500.02, -843.53, 1655.97, -187500.02, 0.13, 0.57, 0.85
172, -84515.16, 91808.71, -184202.50, -110284.91, -187500.02, 711.66, -5145.71, -187500.02, 0.13, 0.57, 0.85
173, -84392.14, 93711.32, -184142.06, -110212.13, -187500.02, 805.49, -4546.61, -187500.02, 0.13, 0.57, 0.85
174, -85911.74, 114545.63, -185709.19, -107766.92, -187500.02, -713.18, 2541.37, -187500.02, 0.13, 0.57, 0.85
175, -86129.90, 115347.49, -185916.86, -107502.48, -187500.02, -932.56, 2779.15, -187500.02, 0.13, 0.57, 0.85
176, -84538.23, 94747.19, -184367.44, -109843.46, -187500.02, 626.21, -4263.17, -187500.02, 0.13, 0.57, 0.85
177, -83991.23, 91169.14, -183883.64, -110415.53, -187500.02, 1137.68, -5560.44, -187500.02, 0.13, 0.57, 0.85
178, -85396.02, 111291.88, -185349.47, -108087.38, -187500.02, -270.50, 1285.92, -187500.02, 0.13, 0.57, 0.85
179, -86000.19, 117480.45, -185982.98, -107221.00, -187500.02, -871.05, 3313.96, -187500.02, 0.13, 0.57, 0.85
180, -84525.48, 97953.30, -184554.45, -109445.70, -187500.02, 574.17, -3411.08, -187500.02, 0.13, 0.57, 0.85
181, -83613.23, 89311.48, -183703.39, -110565.78, -187500.02, 1446.76, -6391.19, -187500.02, 0.13, 0.57, 0.85
182, -84804.55, 107360.09, -184957.77, -108517.27, -187500.02, 246.09, -229.04, -187500.02, 0.13, 0.57, 0.85
183, -85809.73, 118776.48, -186014.83, -106913.22, -187500.02, -755.02, 3761.55, -187500.02, 0.13, 0.57, 0.85
184, -84606.87, 101929.02, -184864.13, -108706.45, -187500.02, 421.69, -1971.07, -187500.02, 0.12, 0.57, 0.84
185, -83424.02, 88911.39, -183744.13, -110208.87, -187500.02, 1561.92, -6362.22, -187500.02, 0.12, 0.57, 0.84
186, -84319.00, 103682.77, -184701.91, -108622.79, -187500.02, 649.61, -1406.26, -187500.02, 0.12, 0.57, 0.84
187, -85597.12, 119308.42, -186011.88, -106616.52, -187500.02, -622.94, 3956.28, -187500.02, 0.12, 0.57, 0.84
188, -84725.02, 106273.60, -185162.89, -107969.20, -187500.02, 229.89, -505.28, -187500.02, 0.12, 0.57, 0.84
189, -83307.27, 89512.88, -183803.95, -109857.99, -187500.02, 1606.64, -6143.96, -187500.02, 0.13, 0.57, 0.85
190, -83852.92, 100028.21, -184414.92, -108780.55, -187500.02, 1039.49, -2632.50, -187500.02, 0.13, 0.57, 0.85
191, -85314.52, 118730.18, -185912.89, -106467.48, -187500.02, -418.29, 3766.49, -187500.02, 0.13, 0.57, 0.85
192, -84805.13, 110309.90, -185408.25, -107327.42, -187500.02, 76.13, 813.31, -187500.02, 0.13, 0.57, 0.85
193, -83217.24, 90963.86, -183873.53, -109568.76, -187500.02, 1623.52, -5776.32, -187500.02, 0.13, 0.57, 0.85
194, -83368.34, 96498.34, -184084.45, -109059.16, -187500.02, 1446.38, -3918.89, -187500.02, 0.13, 0.56, 0.85
195, -84923.57, 117039.61, -185686.02, -106534.34, -187500.02, -103.80, 3154.52, -187500.02, 0.13, 0.56, 0.85
196, -84827.51, 113849.50, -185602.13, -106777.90, -187500.02, -13.12, 1981.57, -187500.02, 0.13, 0.56, 0.85
197, -83209.73, 93322.73, -184037.80, -109101.90, -187500.02, 1564.49, -4973.13, -187500.02, 0.13, 0.56, 0.85
198, -82967.59, 93607.31, -183859.88, -109174.59, -187500.02, 1770.39, -4868.92, -187500.02, 0.13, 0.56, 0.85
199, -84473.12, 114449.35, -185420.77, -106720.16, -187500.02, 261.78, 2259.09, -187500.02, 0.13, 0.57, 0.85
200, -84803.07, 116877.23, -185770.86, -106288.73, -187500.02, -70.41, 3040.60, -187500.02, 0.13, 0.57, 0.85
201, -83261.38, 96539.91, -184275.86, -108525.54, -187500.02, 1436.57, -3812.47, -187500.02, 0.13, 0.57, 0.85
202, -82655.38, 91594.00, -183728.36, -109136.84, -187500.02, 2009.13, -5432.01, -187500.02, 0.13, 0.57, 0.85
203, -84029.57, 111333.21, -185155.81, -106858.10, -187500.02, 631.68, 1318.51, -187500.02, 0.13, 0.57, 0.85
204, -84808.38, 119321.90, -185927.86, -105662.33, -187500.02, -144.44, 4133.80, -187500.02, 0.13, 0.57, 0.86
205, -83467.34, 100646.13, -184611.03, -107644.86, -187500.02, 1169.33, -2144.92, -187500.02, 0.13, 0.57, 0.86
206, -82508.80, 90718.06, -183710.80, -108842.02, -187500.02, 2090.80, -5483.58, -187500.02, 0.13, 0.57, 0.86
207, -83643.89, 107976.89, -184903.95, -106921.38, -187500.02, 947.22, 404.81, -187500.02, 0.13, 0.57, 0.86
208, -84744.27, 120778.43, -185996.22, -105253.58, -187500.02, -147.43, 4825.36, -187500.02, 0.13, 0.57, 0.86
209, -83621.94, 104921.97, -184868.56, -107040.51, -187500.02, 952.47, -652.92, -187500.02, 0.13, 0.56, 0.86
210, -82341.21, 90569.06, -183645.97, -108758.80, -187500.02, 2192.71, -5538.92, -187500.02, 0.13, 0.56, 0.86
211, -83157.98, 104174.05, -184525.25, -107286.94, -187500.02, 1358.18, -913.27, -187500.02, 0.13, 0.56, 0.86
212, -84527.41, 120923.13, -185906.66, -105164.15, -187500.02, -2.59, 4862.24, -187500.02, 0.13, 0.56, 0.86
213, -83762.69, 109105.12, -185133.55, -106390.63, -187500.02, 747.53, 785.64, -187500.02, 0.13, 0.56, 0.86
214, -82317.49, 91554.27, -183744.28, -108320.17, -187500.02, 2151.78, -5128.38, -187500.02, 0.13, 0.57, 0.85
215, -82765.87, 100638.03, -184252.95, -107420.40, -187500.02, 1682.44, -2099.81, -187500.02, 0.13, 0.57, 0.85
216, -84289.79, 120177.95, -185799.00, -105077.36, -187500.02, 167.57, 4699.30, -187500.02, 0.13, 0.57, 0.85
217, -83908.36, 113275.95, -185395.20, -105857.37, -187500.02, 541.20, 2265.06, -187500.02, 0.13, 0.57, 0.85
218, -82313.52, 93412.63, -183850.11, -108132.69, -187500.02, 2096.37, -4554.86, -187500.02, 0.13, 0.57, 0.85
219, -82349.23, 97350.56, -183946.38, -107849.98, -187500.02, 2032.42, -3445.81, -187500.02, 0.13, 0.57, 0.85
220, -83867.99, 118101.70, -185516.20, -105591.52, -187500.02, 515.72, 2838.76, -187500.02, 0.13, 0.57, 0.85
221, -83862.71, 116583.14, -185529.47, -105835.10, -187500.02, 512.44, 1495.31, -187500.02, 0.13, 0.57, 0.85
222, -82233.74, 95805.43, -183950.77, -108149.02, -187500.02, 2102.56, -5201.12, -187500.02, 0.13, 0.57, 0.85
223, -81864.89, 94325.74, -183640.63, -108379.63, -187500.02, 2438.13, -5183.50, -187500.02, 0.13, 0.57, 0.85
224, -83353.36, 115045.97, -185187.95, -105982.94, -187500.02, 947.80, 1489.21, -187500.02, 0.13, 0.57, 0.85
225, -83817.30, 119276.26, -185697.19, -105386.10, -187500.02, 482.06, 2358.53, -187500.02, 0.13, 0.57, 0.85
226, -82294.00, 99203.90, -184227.25, -107609.05, -187500.02, 1972.47, -4038.67, -187500.02, 0.13, 0.57, 0.85
227, -81569.94, 92650.59, -183564.72, -108359.15, -187500.02, 2658.38, -5886.87, -187500.02, 0.13, 0.57, 0.85
228, -82904.41, 111891.16, -184955.19, -106160.21, -187500.02, 1317.26, 433.15, -187500.02, 0.13, 0.57, 0.85
229, -83773.17, 121464.83, -185823.44, -104951.49, -187500.02, 454.68, 3540.87, -187500.02, 0.13, 0.57, 0.85
230, -82459.05, 103353.48, -184533.00, -107090.06, -187500.02, 1742.88, -2039.53, -187500.02, 0.13, 0.57, 0.85
231, -81384.17, 91887.21, -183517.36, -108885.42, -187500.02, 2775.97, -5034.48, -187500.02, 0.13, 0.57, 0.85
232, -82423.87, 108145.52, -184613.42, -107304.40, -187500.02, 1724.95, 265.76, -187500.02, 0.13, 0.57, 0.85
233, -83632.20, 122385.30, -185827.03, -105483.09, -187500.02, 524.95, 4403.05, -187500.02, 0.13, 0.57, 0.85
234, -82599.80, 107559.90, -184797.05, -107179.78, -187500.02, 1538.49, -605.67, -187500.02, 0.12, 0.57, 0.85
235, -81240.19, 91955.59, -183495.45, -109025.30, -187500.02, 2855.30, -5187.86, -187500.02, 0.12, 0.57, 0.85
236, -81957.83, 104268.72, -184273.25, -107703.15, -187500.02, 2118.83, -1065.24, -187500.02, 0.12, 0.57, 0.85
237, -83406.96, 122155.63, -185741.53, -105456.24, -187500.02, 674.91, 4373.90, -187500.02, 0.12, 0.57, 0.85
238, -82752.80, 111744.95, -185082.70, -106521.50, -187500.02, 1313.92, 741.41, -187500.02, 0.12, 0.57, 0.85
239, -81240.79, 93276.77, -183623.17, -108541.59, -187500.02, 2786.37, -4798.90, -187500.02, 0.13, 0.57, 0.85
240, -81577.18, 100866.11, -184018.94, -107755.90, -187500.02, 2424.40, -2079.34, -187500.02, 0.13, 0.57, 0.85
241, -83129.06, 120973.02, -185601.84, -105341.24, -187500.02, 877.64, 4582.22, -187500.02, 0.13, 0.57, 0.85
242, -82868.53, 115667.59, -185325.91, -105895.84, -187500.02, 1129.55, 2985.16, -187500.02, 0.13, 0.57, 0.85
243, -81243.20, 95369.17, -183747.52, -108240.64, -187500.02, 2715.87, -3581.33, -187500.02, 0.13, 0.57, 0.85
244, -81143.47, 97630.13, -183708.41, -108215.90, -187500.02, 2783.49, -3018.00, -187500.02, 0.13, 0.57, 0.85
245, -82670.92, 118496.56, -185291.39, -105943.48, -187500.02, 1257.60, 3874.52, -187500.02, 0.13, 0.57, 0.85
246, -82815.24, 118625.45, -185472.56, -106020.31, -187500.02, 1110.55, 3952.10, -187500.02, 0.13, 0.57, 0.85
247, -81204.91, 97774.59, -183913.23, -108439.53, -187500.02, 2686.59, -2907.87, -187500.02, 0.13, 0.57, 0.85
248, -80700.45, 94578.07, -183465.58, -108970.80, -187500.02, 3155.91, -4189.63, -187500.02, 0.13, 0.57, 0.85
249, -82126.50, 114804.77, -184951.73, -106786.73, -187500.02, 1725.80, 2337.77, -187500.02, 0.13, 0.57, 0.85
250, -82697.30, 120455.34, -185585.66, -106159.41, -187500.02, 1154.45, 4246.85, -187500.02, 0.13, 0.57, 0.85
251, -81197.20, 100629.83, -184145.72, -108483.12, -187500.02, 2620.90, -2296.04, -187500.02, 0.13, 0.57, 0.85
252, -80336.84, 92374.86, -183342.19, -109516.81, -187500.02, 3440.49, -5197.76, -187500.02, 0.13, 0.57, 0.85
253, -81558.70, 110657.02, -184623.19, -107562.00, -187500.02, 2208.67, 584.59, -187500.02, 0.13, 0.57, 0.85
254, -82510.34, 121557.19, -185636.39, -106280.66, -187500.02, 1259.90, 4168.85, -187500.02, 0.13, 0.57, 0.85
255, -81257.69, 104233.71, -184441.98, -108255.33, -187500.02, 2483.93, -1568.71, -187500.02, 0.13, 0.57, 0.85
0, -80081.54, 91405.09, -183320.27, -109754.73, -187500.02, 3618.97, -6011.66, -187500.02, 0.13, 0.57, 0.85
1, -81029.34, 106553.45, -184324.53, -108118.45, -187500.02, 2658.38, -1320.25, -187500.02, 0.13, 0.57, 0.85
2, -82298.77, 121917.43, -185628.14, -106280.55, -187500.02, 1394.30, 3703.19, -187500.02, 0.13, 0.57, 0.85
3, -81364.66, 108284.38, -184720.75, -107868.45, -187500.02, 2308.31, -906.83, -187500.02, 0.13, 0.57, 0.85
4, -79951.90, 91691.23, -183361.69, -109784.61, -187500.02, 3677.67, -6590.39, -187500.02, 0.13, 0.57, 0.85
5, -80535.77, 102595.76, -184002.19, -108705.83, -187500.02, 3068.18, -3377.80, -187500.02, 0.13, 0.57, 0.85
6, -81993.15, 121134.45, -185501.08, -106557.49, -187500.02, 1611.47, 2686.70, -187500.02, 0.13, 0.57, 0.85
7, -81433.35, 112131.88, -184970.16, -107617.68, -187500.02, 2153.23, -342.83, -187500.02, 0.13, 0.57, 0.85
8, -79854.58, 92879.48, -183444.41, -109837.95, -187500.02, 3686.25, -6827.00, -187500.02, 0.13, 0.57, 0.85
9, -80030.69, 98812.95, -183676.06, -109351.03, -187500.02, 3478.96, -5206.48, -187500.02, 0.13, 0.57, 0.85
10, -81583.57, 119319.93, -185280.83, -106965.07, -187500.02, 1926.03, 1606.49, -187500.02, 0.13, 0.57, 0.85
11, -81454.60, 115650.25, -185192.41, -107317.78, -187500.02, 2044.18, 456.71, -187500.02, 0.13, 0.57, 0.85
12, -79830.88, 95047.77, -183622.75, -109633.25, -187500.02, 3625.65, -6356.48, -187500.02, 0.13, 0.57, 0.85
13, -79631.87, 95766.85, -183480.34, -109643.64, -187500.02, 3789.09, -6276.08, -187500.02, 0.14, 0.57, 0.85
14, -81168.50, 116741.95, -185065.98, -107179.13, -187500.02, 2247.38, 721.36, -187500.02, 0.14, 0.57, 0.85
15, -81492.38, 118756.38, -185397.34, -106806.42, -187500.02, 1917.18, 1574.26, -187500.02, 0.14, 0.57, 0.85
16, -79930.30, 98245.10, -183874.73, -109111.76, -187500.02, 3441.54, -5113.30, -187500.02, 0.14, 0.57, 0.85
17, -79326.09, 93612.99, -183322.91, -109775.49, -187500.02, 4006.39, -6764.82, -187500.02, 0.14, 0.57, 0.85
18, -80728.66, 113551.10, -184775.92, -107520.31, -187500.02, 2595.40, -136.55, -187500.02, 0.13, 0.57, 0.85
19, -81450.36, 121030.96, -185508.45, -106565.16, -187500.02, 1871.87, 2543.38, -187500.02, 0.13, 0.57, 0.85
20, -80032.01, 101928.89, -184122.64, -108761.39, -187500.02, 3257.41, -3624.78, -187500.02, 0.13, 0.57, 0.85
21, -79080.78, 92253.23, -183226.77, -109920.60, -187500.02, 4166.68, -6785.30, -187500.02, 0.13, 0.57, 0.85
22, -80241.64, 109791.63, -184441.61, -108013.66, -187500.02, 2992.09, -1034.64, -187500.02, 0.13, 0.57, 0.85
23, -81311.87, 122196.45, -185534.77, -106491.89, -187500.02, 1922.16, 3274.04, -187500.02, 0.12, 0.58, 0.85
24, -80152.70, 105885.80, -184406.00, -108331.39, -187500.02, 3051.88, -1898.49, -187500.02, 0.12, 0.58, 0.85
25, -78897.32, 91834.24, -183207.13, -110000.24, -187500.02, 4262.05, -6470.36, -187500.02, 0.12, 0.58, 0.85
26, -79730.05, 105758.37, -184096.36, -108595.14, -187500.02, 3409.78, -1990.07, -187500.02, 0.12, 0.58, 0.85
27, -81066.17, 122186.57, -185467.64, -106640.70, -187500.02, 2075.16, 3621.61, -187500.02, 0.12, 0.58, 0.85
28, -80241.89, 109830.19, -184667.16, -108067.80, -187500.02, 2878.90, -257.89, -187500.02, 0.12, 0.57, 0.85
29, -78754.94, 92266.68, -183230.61, -110170.00, -187500.02, 4321.02, -5954.53, -187500.02, 0.12, 0.57, 0.85
30, -79224.77, 101714.76, -183754.11, -109270.77, -187500.02, 3824.70, -2914.98, -187500.02, 0.12, 0.57, 0.85
31, -80742.90, 121037.80, -185320.83, -106997.02, -187500.02, 2305.78, 3661.91, -187500.02, 0.12, 0.57, 0.85
32, -80313.13, 113573.59, -184931.58, -107886.26, -187500.02, 2716.90, 1386.28, -187500.02, 0.12, 0.57, 0.85
33, -78718.86, 93761.07, -183389.98, -110169.46, -187500.02, 4265.70, -4991.35, -187500.02, 0.12, 0.57, 0.85
34, -78799.55, 98155.00, -183526.17, -109811.45, -187500.02, 4150.70, -3630.95, -187500.02, 0.12, 0.57, 0.85
35, -80363.75, 118916.73, -185131.67, -107447.78, -187500.02, 2584.09, 3307.01, -187500.02, 0.12, 0.57, 0.85
36, -80376.55, 116927.09, -185144.23, -107683.70, -187500.02, 2562.58, 2816.90, -187500.02, 0.12, 0.57, 0.85
37, -78732.36, 96083.93, -183541.05, -110167.14, -187500.02, 4166.90, -4023.87, -187500.02, 0.12, 0.57, 0.85
38, -78393.58, 95089.05, -183255.89, -110435.07, -187500.02, 4467.64, -4482.08, -187500.02, 0.12, 0.57, 0.85
39, -79895.34, 115840.51, -184812.73, -108095.47, -187500.02, 2960.00, 2403.66, -187500.02, 0.12, 0.57, 0.85
40, -80335.88, 119485.56, -185292.95, -107632.70, -187500.02, 2515.80, 3795.10, -187500.02, 0.12, 0.57, 0.85
41, -78797.77, 99163.69, -183804.63, -109982.98, -187500.02, 4017.39, -2830.69, -187500.02, 0.12, 0.57, 0.85
42, -78084.32, 92920.24, -183146.34, -110799.34, -187500.02, 4689.78, -5015.08, -187500.02, 0.12, 0.57, 0.85
43, -79437.54, 112279.13, -184549.94, -108609.73, -187500.02, 3326.12, 1361.20, -187500.02, 0.12, 0.57, 0.86
44, -80315.16, 121406.29, -185419.25, -107389.31, -187500.02, 2447.74, 4606.83, -187500.02, 0.12, 0.57, 0.86
45, -78992.98, 103038.61, -184110.63, -109455.46, -187500.02, 3738.08, -1381.96, -187500.02, 0.12, 0.57, 0.86
46, -77947.28, 91977.63, -183117.70, -110812.14, -187500.02, 4739.82, -5171.97, -187500.02, 0.12, 0.57, 0.86
47, -79014.11, 108513.36, -184239.34, -109067.66, -187500.02, 3656.05, 68.80, -187500.02, 0.12, 0.57, 0.86
48, -80178.12, 122255.23, -185419.52, -107401.20, -187500.02, 2492.02, 4677.06, -187500.02, 0.12, 0.57, 0.85
49, -79130.70, 107137.59, -184388.11, -109096.05, -187500.02, 3511.75, -243.97, -187500.02, 0.12, 0.57, 0.85
50, -77796.92, 91821.43, -183105.94, -110900.77, -187500.02, 4800.57, -5381.32, -187500.02, 0.12, 0.57, 0.85
51, -78518.21, 104452.94, -183880.58, -109659.27, -187500.02, 4057.42, -1499.22, -187500.02, 0.12, 0.57, 0.85
52, -79904.27, 121810.30, -185306.19, -107619.42, -187500.02, 2672.35, 4240.98, -187500.02, 0.12, 0.57, 0.85
53, -79190.44, 110875.29, -184619.92, -108868.80, -187500.02, 3366.69, 668.92, -187500.02, 0.13, 0.57, 0.85
54, -77646.56, 92432.26, -183125.13, -111046.84, -187500.02, 4865.84, -5477.14, -187500.02, 0.13, 0.57, 0.85
55, -77959.89, 100301.04, -183490.88, -110403.76, -187500.02, 4522.61, -3210.40, -187500.02, 0.13, 0.57, 0.85
56, -79474.55, 120140.94, -185061.95, -108082.57, -187500.02, 3006.20, 3340.04, -187500.02, 0.13, 0.57, 0.85
57, -79161.00, 114242.60, -184806.70, -108700.15, -187500.02, 3301.93, 1471.28, -187500.02, 0.13, 0.57, 0.85
58, -77548.15, 94009.47, -183246.45, -110967.55, -187500.02, 4868.75, -5128.50, -187500.02, 0.13, 0.57, 0.86
59, -77485.13, 96772.08, -183236.69, -110833.49, -187500.02, 4895.23, -4468.40, -187500.02, 0.13, 0.57, 0.86
60, -79018.20, 117629.54, -184827.16, -108467.89, -187500.02, 3355.04, 2341.68, -187500.02, 0.13, 0.57, 0.86
