%OpenBCI Raw EEG Data
%
%Sample Rate = 250.0 Hz
%First Column = SampleIndex
%Other Columns = EEG data in microvolts followed by Accel Data (in G) interleaved with Aux Data
0, 0.00, 45628.89, 0.00, 0.00, 0.00, 0.00, 0.00, 0.00, 0.01, 0.00, 1.02
1, 0.00, 45644.18, 0.00, 0.00, 0.00, 0.00, 0.00, 0.00, 0.01, 0.00, 1.02
2, 0.00, 45626.86, 0.00, 0.00, 0.00, 0.00, 0.00, 0.00, 0.01, 0.00, 1.02
3, 0.00, 45612.09, 0.00, 0.00, 0.00, 0.00, 0.00, 0.00, 0.01, 0.00, 1.02
4, 0.00, 45625.12, 0.00, 0.00, 0.00, 0.00, 0.00, 0.00, 0.01, 0.00, 1.02
5, 0.00, 45642.46, 0.00, 0.00, 0.00, 0.00, 0.00, 0.00, 0.01, 0.00, 1.02
6, 0.00, 45623.57, 0.00, 0.00, 0.00, 0.00, 0.00, 0.00, 0.01, 0.00, 1.02
7, 0.00, 45602.45, 0.00, 0.00, 0.00, 0.00, 0.00, 0.00, 0.01, 0.01, 1.02
8, 0.00, 45621.05, 0.00, 0.00, 0.00, 0.00, 0.00, 0.00, 0.01, 0.01, 1.02
9, 0.00, 45644.00, 0.00, 0.00, 0.00, 0.00, 0.00, 0.00, 0.01, 0.01, 1.02
10, 0.00, 45630.91, 0.00, 0.00, 0.00, 0.00, 0.00, 0.00, 0.01, 0.01, 1.02
11, 0.00, 45595.95, 0.00, 0.00, 0.00, 0.00, 0.00, 0.00, 0.01, 0.01, 1.02
12, 0.00, 45610.05, 0.00, 0.00, 0.00, 0.00, 0.00, 0.00, 0.01, 0.01, 1.01
13, 0.00, 45635.58, 0.00, 0.00, 0.00, 0.00, 0.00, 0.00, 0.01, 0.01, 1.01
14, 0.00, 45628.16, 0.00, 0.00, 0.00, 0.00, 0.00, 0.00, 0.01, 0.01, 1.01
15, 0.00, 45601.74, 0.00, 0.00, 0.00, 0.00, 0.00, 0.00, 0.01, 0.01, 1.01
16, 0.00, 45602.32, 0.00, 0.00, 0.00, 0.00, 0.00, 0.00, 0.01, 0.01, 1.01
17, 0.00, 45633.48, 0.00, 0.00, 0.00, 0.00, 0.00, 0.00, 0.01, 0.01, 1.01
18, 0.00, 45627.06, 0.00, 0.00, 0.00, 0.00, 0.00, 0.00, 0.01, 0.01, 1.01
19, 0.00, 45600.08, 0.00, 0.00, 0.00, 0.00, 0.00, 0.00, 0.01, 0.01, 1.01
20, 0.00, 45593.55, 0.00, 0.00, 0.00, 0.00, 0.00, 0.00, 0.01, 0.01, 1.01
21, 0.00, 45618.63, 0.00, 0.00, 0.00, 0.00, 0.00, 0.00, 0.01, 0.01, 1.01
22, 0.00, 45624.87, 0.00, 0.00, 0.00, 0.00, 0.00, 0.00, 0.01, 0.01, 1.03
23, 0.00, 45602.05, 0.00, 0.00, 0.00, 0.00, 0.00, 0.00, 0.01, 0.01, 1.03
24, 0.00, 45592.21, 0.00, 0.00, 0.00, 0.00, 0.00, 0.00, 0.01, 0.01, 1.03
25, 0.00, 45608.31, 0.00, 0.00, 0.00, 0.00, 0.00, 0.00, 0.01, 0.01, 1.03
26, 0.00, 45625.61, 0.00, 0.00, 0.00, 0.00, 0.00, 0.00, 0.01, 0.01, 1.03
27, 0.00, 45601.29, 0.00, 0.00, 0.00, 0.00, 0.00, 0.00, 0.02, 0.01, 1.02
28, 0.00, 45583.79, 0.00, 0.00, 0.00, 0.00, 0.00, 0.00, 0.02, 0.01, 1.02
29, 0.00, 45599.99, 0.00, 0.00, 0.00, 0.00, 0.00, 0.00, 0.02, 0.01, 1.02
30, 0.00, 45621.50, 0.00, 0.00, 0.00, 0.00, 0.00, 0.00, 0.02, 0.01, 1.02
31, 0.00, 45615.73, 0.00, 0.00, 0.00, 0.00, 0.00, 0.00, 0.02, 0.01, 1.02
32, 0.00, 45598.77, 0.00, 0.00, 0.00, 0.00, 0.00, 0.00, 0.01, 0.01, 1.02
33, 0.00, 45613.18, 0.00, 0.00, 0.00, 0.00, 0.00, 0.00, 0.01, 0.01, 1.02
34, 0.00, 45632.11, 0.00, 0.00, 0.00, 0.00, 0.00, 0.00, 0.01, 0.01, 1.02
35, 0.00, 45617.70, 0.00, 0.00, 0.00, 0.00, 0.00, 0.00, 0.01, 0.01, 1.02
36, 0.00, 45592.93, 0.00, 0.00, 0.00, 0.00, 0.00, 0.00, 0.01, 0.01, 1.02
37, 0.00, 45604.42, 0.00, 0.00, 0.00, 0.00, 0.00, 0.00, 0.01, 0.01, 1.02
38, 0.00, 45632.85, 0.00, 0.00, 0.00, 0.00, 0.00, 0.00, 0.01, 0.01, 1.02
39, 0.00, 45623.95, 0.00, 0.00, 0.00, 0.00, 0.00, 0.00, 0.01, 0.01, 1.02
40, 0.00, 45596.98, 0.00, 0.00, 0.00, 0.00, 0.00, 0.00, 0.01, 0.01, 1.02
41, 0.00, 45595.64, 0.00, 0.00, 0.00, 0.00, 0.00, 0.00, 0.01, 0.01, 1.02
42, 0.00, 45615.46, 0.00, 0.00, 0.00, 0.00, 0.00, 0.00, 0.01, 0.01, 1.02
43, 0.00, 45609.00, 0.00, 0.00, 0.00, 0.00, 0.00, 0.00, 0.01, 0.01, 1.02
44, 0.00, 45592.66, 0.00, 0.00, 0.00, 0.00, 0.00, 0.00, 0.01, 0.01, 1.02
45, 0.00, 45594.92, 0.00, 0.00, 0.00, 0.00, 0.00, 0.00, 0.01, 0.01, 1.02
46, 0.00, 45622.79, 0.00, 0.00, 0.00, 0.00, 0.00, 0.00, 0.01, 0.01, 1.02
47, 0.00, 45634.86, 0.00, 0.00, 0.00, 0.00, 0.00, 0.00, 0.01, 0.01, 1.02
48, 0.00, 45606.63, 0.00, 0.00, 0.00, 0.00, 0.00, 0.00, 0.01, 0.01, 1.02
49, 0.00, 45583.72, 0.00, 0.00, 0.00, 0.00, 0.00, 0.00, 0.01, 0.01, 1.02
50, 0.00, 45610.10, 0.00, 0.00, 0.00, 0.00, 0.00, 0.00, 0.01, 0.01, 1.02
51, 0.00, 45626.91, 0.00, 0.00, 0.00, 0.00, 0.00, 0.00, 0.01, 0.01, 1.02
52, 0.00, 45606.79, 0.00, 0.00, 0.00, 0.00, 0.00, 0.00, 0.01, 0.01, 1.02
53, 0.00, 45593.45, 0.00, 0.00, 0.00, 0.00, 0.00, 0.00, 0.01, 0.01, 1.02
54, 0.00, 45613.18, 0.00, 0.00, 0.00, 0.00, 0.00, 0.00, 0.01, 0.01, 1.02
55, 0.00, 45630.21, 0.00, 0.00, 0.00, 0.00, 0.00, 0.00, 0.01, 0.01, 1.02
56, 0.00, 45610.43, 0.00, 0.00, 0.00, 0.00, 0.00, 0.00, 0.01, 0.01, 1.02
57, 0.00, 45592.66, 0.00, 0.00, 0.00, 0.00, 0.00, 0.00, 0.01, 0.00, 1.02
58, 0.00, 45603.79, 0.00, 0.00, 0.00, 0.00, 0.00, 0.00, 0.01, 0.00, 1.02
59, 0.00, 45625.56, 0.00, 0.00, 0.00, 0.00, 0.00, 0.00, 0.01, 0.00, 1.02
60, 0.00, 45617.38, 0.00, 0.00, 0.00, 0.00, 0.00, 0.00, 0.01, 0.00, 1.02
61, 0.00, 45598.00, 0.00, 0.00, 0.00, 0.00, 0.00, 0.00, 0.01, 0.00, 1.02
62, 0.00, 45603.84, 0.00, 0.00, 0.00, 0.00, 0.00, 0.00, 0.01, 0.01, 1.02
63, 0.00, 45626.93, 0.00, 0.00, 0.00, 0.00, 0.00, 0.00, 0.01, 0.01, 1.02
64, 0.00, 45621.18, 0.00, 0.00, 0.00, 0.00, 0.00, 0.00, 0.01, 0.01, 1.02
65, 0.00, 45595.61, 0.00, 0.00, 0.00, 0.00, 0.00, 0.00, 0.01, 0.01, 1.02
66, 0.00, 45603.88, 0.00, 0.00, 0.00, 0.00, 0.00, 0.00, 0.01, 0.01, 1.02
67, 0.00, 45626.03, 0.00, 0.00, 0.00, 0.00, 0.00, 0.00, 0.01, 0.01, 1.01
68, 0.00, 45619.30, 0.00, 0.00, 0.00, 0.00, 0.00, 0.00, 0.01, 0.01, 1.01
69, 0.00, 45594.63, 0.00, 0.00, 0.00, 0.00, 0.00, 0.00, 0.01, 0.01, 1.01
70, 0.00, 45585.60, 0.00, 0.00, 0.00, 0.00, 0.00, 0.00, 0.01, 0.01, 1.01
71, 0.00, 45613.85, 0.00, 0.00, 0.00, 0.00, 0.00, 0.00, 0.01, 0.01, 1.01
72, 0.00, 45625.27, 0.00, 0.00, 0.00, 0.00, 0.00, 0.00, 0.01, 0.00, 1.02
73, 0.00, 45613.25, 0.00, 0.00, 0.00, 0.00, 0.00, 0.00, 0.01, 0.00, 1.02
74, 0.00, 45629.36, 0.00, 0.00, 0.00, 0.00, 0.00, 0.00, 0.01, 0.00, 1.02
75, 0.00, 45651.45, 0.00, 0.00, 0.00, 0.00, 0.00, 0.00, 0.01, 0.00, 1.02
76, 0.00, 45629.59, 0.00, 0.00, 0.00, 0.00, 0.00, 0.00, 0.01, 0.00, 1.02
77, 0.00, 45616.45, 0.00, 0.00, 0.00, 0.00, 0.00, 0.00, 0.01, 0.00, 1.01
78, 0.00, 45618.86, 0.00, 0.00, 0.00, 0.00, 0.00, 0.00, 0.01, 0.00, 1.01
79, 0.00, 45637.14, 0.00, 0.00, 0.00, 0.00, 0.00, 0.00, 0.01, 0.00, 1.01
80, 0.00, 45660.50, 0.00, 0.00, 0.00, 0.00, 0.00, 0.00, 0.01, 0.00, 1.01
81, 0.00, 45658.22, 0.00, 0.00, 0.00, 0.00, 0.00, 0.00, 0.01, 0.00, 1.01
82, 0.00, 45652.12, 0.00, 0.00, 0.00, 0.00, 0.00, 0.00, 0.01, 0.01, 1.02
83, 0.00, 45673.57, 0.00, 0.00, 0.00, 0.00, 0.00, 0.00, 0.01, 0.01, 1.02
84, 0.00, 45702.12, 0.00, 0.00, 0.00, 0.00, 0.00, 0.00, 0.01, 0.01, 1.02
85, 0.00, 45695.70, 0.00, 0.00, 0.00, 0.00, 0.00, 0.00, 0.01, 0.01, 1.02
86, 0.00, 45670.27, 0.00, 0.00, 0.00, 0.00, 0.00, 0.00, 0.01, 0.01, 1.02
87, 0.00, 45675.12, 0.00, 0.00, 0.00, 0.00, 0.00, 0.00, 0.01, 0.01, 1.02
88, 0.00, 45712.49, 0.00, 0.00, 0.00, 0.00, 0.00, 0.00, 0.01, 0.01, 1.02
89, 0.00, 45709.29, 0.00, 0.00, 0.00, 0.00, 0.00, 0.00, 0.01, 0.01, 1.02
90, 0.00, 45689.22, 0.00, 0.00, 0.00, 0.00, 0.00, 0.00, 0.01, 0.01, 1.02
91, 0.00, 45697.07, 0.00, 0.00, 0.00, 0.00, 0.00, 0.00, 0.01, 0.01, 1.02
92, 0.00, 45718.57, 0.00, 0.00, 0.00, 0.00, 0.00, 0.00, 0.02, 0.01, 1.02
93, 0.00, 45719.89, 0.00, 0.00, 0.00, 0.00, 0.00, 0.00, 0.02, 0.01, 1.02
94, 0.00, 45697.87, 0.00, 0.00, 0.00, 0.00, 0.00, 0.00, 0.02, 0.01, 1.02
95, 0.00, 45687.32, 0.00, 0.00, 0.00, 0.00, 0.00, 0.00, 0.02, 0.01, 1.02
96, 0.00, 45706.19, 0.00, 0.00, 0.00, 0.00, 0.00, 0.00, 0.02, 0.01, 1.02
97, 0.00, 45717.68, 0.00, 0.00, 0.00, 0.00, 0.00, 0.00, 0.01, 0.01, 1.02
98, 0.00, 45694.70, 0.00, 0.00, 0.00, 0.00, 0.00, 0.00, 0.01, 0.01, 1.02
99, 0.00, 45683.88, 0.00, 0.00, 0.00, 0.00, 0.00, 0.00, 0.01, 0.01, 1.02
100, 0.00, 45709.56, 0.00, 0.00, 0.00, 0.00, 0.00, 0.00, 0.01, 0.01, 1.02
101, 0.00, 45726.17, 0.00, 0.00, 0.00, 0.00, 0.00, 0.00, 0.01, 0.01, 1.02
102, 0.00, 45706.90, 0.00, 0.00, 0.00, 0.00, 0.00, 0.00, 0.01, 0.01, 1.02
103, 0.00, 45691.75, 0.00, 0.00, 0.00, 0.00, 0.00, 0.00, 0.01, 0.01, 1.02
104, 0.00, 45704.46, 0.00, 0.00, 0.00, 0.00, 0.00, 0.00, 0.01, 0.01, 1.02
105, 0.00, 45726.53, 0.00, 0.00, 0.00, 0.00, 0.00, 0.00, 0.01, 0.01, 1.02
106, 0.00, 45712.38, 0.00, 0.00, 0.00, 0.00, 0.00, 0.00, 0.01, 0.01, 1.02
107, 0.00, 45691.01, 0.00, 0.00, 0.00, 0.00, 0.00, 0.00, 0.01, 0.01, 1.02
108, 0.00, 45698.83, 0.00, 0.00, 0.00, 0.00, 0.00, 0.00, 0.01, 0.01, 1.02
109, 0.00, 45718.88, 0.00, 0.00, 0.00, 0.00, 0.00, 0.00, 0.01, 0.01, 1.02
110, 0.00, 45716.91, 0.00, 0.00, 0.00, 0.00, 0.00, 0.00, 0.01, 0.01, 1.02
111, 0.00, 45694.83, 0.00, 0.00, 0.00, 0.00, 0.00, 0.00, 0.01, 0.01, 1.02
112, 0.00, 45702.01, 0.00, 0.00, 0.00, 0.00, 0.00, 0.00, 0.01, 0.01, 1.01
113, 0.00, 45726.39, 0.00, 0.00, 0.00, 0.00, 0.00, 0.00, 0.01, 0.01, 1.01
114, 0.00, 45723.82, 0.00, 0.00, 0.00, 0.00, 0.00, 0.00, 0.01, 0.01, 1.01
115, 0.00, 45696.55, 0.00, 0.00, 0.00, 0.00, 0.00, 0.00, 0.01, 0.01, 1.01
116, 0.00, 45690.79, 0.00, 0.00, 0.00, 0.00, 0.00, 0.00, 0.01, 0.01, 1.01
117, 0.00, 45719.39, 0.00, 0.00, 0.00, 0.00, 0.00, 0.00, 0.01, 0.01, 1.02
118, 0.00, 45714.81, 0.00, 0.00, 0.00, 0.00, 0.00, 0.00, 0.01, 0.01, 1.02
119, 0.00, 45684.08, 0.00, 0.00, 0.00, 0.00, 0.00, 0.00, 0.01, 0.01, 1.02
120, 0.00, 45682.14, 0.00, 0.00, 0.00, 0.00, 0.00, 0.00, 0.01, 0.01, 1.02
121, 0.00, 45704.87, 0.00, 0.00, 0.00, 0.00, 0.00, 0.00, 0.01, 0.01, 1.02
122, 0.00, 45716.65, 0.00, 0.00, 0.00, 0.00, 0.00, 0.00, 0.01, 0.01, 1.02
123, 0.00, 45693.27, 0.00, 0.00, 0.00, 0.00, 0.00, 0.00, 0.01, 0.01, 1.02
124, 0.00, 45679.57, 0.00, 0.00, 0.00, 0.00, 0.00, 0.00, 0.01, 0.01, 1.02
125, 0.00, 45704.06, 0.00, 0.00, 0.00, 0.00, 0.00, 0.00, 0.01, 0.01, 1.02
126, 0.00, 45730.46, 0.00, 0.00, 0.00, 0.00, 0.00, 0.00, 0.01, 0.01, 1.02
127, 0.00, 45728.11, 0.00, 0.00, 0.00, 0.00, 0.00, 0.00, 0.01, 0.02, 1.02
128, 0.00, 45693.76, 0.00, 0.00, 0.00, 0.00, 0.00, 0.00, 0.01, 0.02, 1.02
129, 0.00, 45688.46, 0.00, 0.00, 0.00, 0.00, 0.00, 0.00, 0.01, 0.02, 1.02
130, 0.00, 45697.49, 0.00, 0.00, 0.00, 0.00, 0.00, 0.00, 0.01, 0.02, 1.02
131, 0.00, 45687.21, 0.00, 0.00, 0.00, 0.00, 0.00, 0.00, 0.01, 0.02, 1.02
132, 0.00, 45666.09, 0.00, 0.00, 0.00, 0.00, 0.00, 0.00, 0.01, 0.01, 1.02
133, 0.00, 45669.64, 0.00, 0.00, 0.00, 0.00, 0.00, 0.00, 0.01, 0.01, 1.02
134, 0.00, 45695.86, 0.00, 0.00, 0.00, 0.00, 0.00, 0.00, 0.01, 0.01, 1.02
135, 0.00, 45697.27, 0.00, 0.00, 0.00, 0.00, 0.00, 0.00, 0.01, 0.01, 1.02
136, 0.00, 45665.95, 0.00, 0.00, 0.00, 0.00, 0.00, 0.00, 0.01, 0.01, 1.02
137, 0.00, 45660.61, 0.00, 0.00, 0.00, 0.00, 0.00, 0.00, 0.01, 0.01, 1.02
138, 0.00, 45687.72, 0.00, 0.00, 0.00, 0.00, 0.00, 0.00, 0.01, 0.01, 1.02
139, 0.00, 45684.48, 0.00, 0.00, 0.00, 0.00, 0.00, 0.00, 0.01, 0.01, 1.02
140, 0.00, 45660.88, 0.00, 0.00, 0.00, 0.00, 0.00, 0.00, 0.01, 0.01, 1.02
141, 0.00, 45659.67, 0.00, 0.00, 0.00, 0.00, 0.00, 0.00, 0.01, 0.01, 1.02
142, 0.00, 45690.12, 0.00, 0.00, 0.00, 0.00, 0.00, 0.00, 0.01, 0.01, 1.02
143, 0.00, 45696.87, 0.00, 0.00, 0.00, 0.00, 0.00, 0.00, 0.01, 0.01, 1.02
144, 0.00, 45665.39, 0.00, 0.00, 0.00, 0.00, 0.00, 0.00, 0.01, 0.01, 1.02
145, 0.00, 45649.97, 0.00, 0.00, 0.00, 0.00, 0.00, 0.00, 0.01, 0.01, 1.02
146, 0.00, 45680.23, 0.00, 0.00, 0.00, 0.00, 0.00, 0.00, 0.01, 0.01, 1.02
147, 0.00, 45695.35, 0.00, 0.00, 0.00, 0.00, 0.00, 0.00, 0.01, 0.01, 1.02
148, 0.00, 45672.03, 0.00, 0.00, 0.00, 0.00, 0.00, 0.00, 0.01, 0.01, 1.02
149, 0.00, 45654.69, 0.00, 0.00, 0.00, 0.00, 0.00, 0.00, 0.01, 0.01, 1.02
150, 0.00, 45683.25, 0.00, 0.00, 0.00, 0.00, 0.00, 0.00, 0.01, 0.01, 1.02
151, 0.00, 45701.89, 0.00, 0.00, 0.00, 0.00, 0.00, 0.00, 0.01, 0.01, 1.02
152, 0.00, 45683.07, 0.00, 0.00, 0.00, 0.00, 0.00, 0.00, 0.01, 0.01, 1.01
153, 0.00, 45662.89, 0.00, 0.00, 0.00, 0.00, 0.00, 0.00, 0.01, 0.01, 1.01
154, 0.00, 45681.53, 0.00, 0.00, 0.00, 0.00, 0.00, 0.00, 0.01, 0.01, 1.01
155, 0.00, 45700.31, 0.00, 0.00, 0.00, 0.00, 0.00, 0.00, 0.01, 0.01, 1.01
156, 0.00, 45685.45, 0.00, 0.00, 0.00, 0.00, 0.00, 0.00, 0.01, 0.01, 1.01
157, 0.00, 45659.36, 0.00, 0.00, 0.00, 0.00, 0.00, 0.00, 0.01, 0.01, 1.01
158, 0.00, 45677.00, 0.00, 0.00, 0.00, 0.00, 0.00, 0.00, 0.01, 0.01, 1.02
159, 0.00, 45704.58, 0.00, 0.00, 0.00, 0.00, 0.00, 0.00, 0.01, 0.01, 1.02
160, 0.00, 45694.41, 0.00, 0.00, 0.00, 0.00, 0.00, 0.00, 0.01, 0.01, 1.02
161, 0.00, 45662.73, 0.00, 0.00, 0.00, 0.00, 0.00, 0.00, 0.01, 0.01, 1.02
162, 0.00, 45668.21, 0.00, 0.00, 0.00, 0.00, 0.00, 0.00, 0.01, 0.01, 1.02
163, 0.00, 45692.95, 0.00, 0.00, 0.00, 0.00, 0.00, 0.00, 0.01, 0.01, 1.02
164, 0.00, 45686.47, 0.00, 0.00, 0.00, 0.00, 0.00, 0.00, 0.01, 0.01, 1.02
165, 0.00, 45660.79, 0.00, 0.00, 0.00, 0.00, 0.00, 0.00, 0.01, 0.01, 1.02
166, 0.00, 45658.93, 0.00, 0.00, 0.00, 0.00, 0.00, 0.00, 0.01, 0.01, 1.02
167, 0.00, 45688.39, 0.00, 0.00, 0.00, 0.00, 0.00, 0.00, 0.01, 0.01, 1.02
168, 0.00, 45687.48, 0.00, 0.00, 0.00, 0.00, 0.00, 0.00, 0.01, 0.01, 1.02
169, 0.00, 45653.73, 0.00, 0.00, 0.00, 0.00, 0.00, 0.00, 0.01, 0.01, 1.02
170, 0.00, 45646.26, 0.00, 0.00, 0.00, 0.00, 0.00, 0.00, 0.01, 0.01, 1.02
171, 0.00, 45672.77, 0.00, 0.00, 0.00, 0.00, 0.00, 0.00, 0.01, 0.01, 1.02
172, 0.00, 45690.25, 0.00, 0.00, 0.00, 0.00, 0.00, 0.00, 0.01, 0.01, 1.02
173, 0.00, 45669.66, 0.00, 0.00, 0.00, 0.00, 0.00, 0.00, 0.00, 0.01, 1.02
174, 0.00, 45652.16, 0.00, 0.00, 0.00, 0.00, 0.00, 0.00, 0.00, 0.01, 1.02
175, 0.00, 45673.40, 0.00, 0.00, 0.00, 0.00, 0.00, 0.00, 0.00, 0.01, 1.02
176, 0.00, 45691.39, 0.00, 0.00, 0.00, 0.00, 0.00, 0.00, 0.00, 0.01, 1.02
177, 0.00, 45665.35, 0.00, 0.00, 0.00, 0.00, 0.00, 0.00, 0.00, 0.01, 1.02
178, 0.00, 45647.09, 0.00, 0.00, 0.00, 0.00, 0.00, 0.00, 0.01, 0.00, 1.02
179, 0.00, 45670.74, 0.00, 0.00, 0.00, 0.00, 0.00, 0.00, 0.01, 0.00, 1.02
180, 0.00, 45692.73, 0.00, 0.00, 0.00, 0.00, 0.00, 0.00, 0.01, 0.00, 1.02
181, 0.00, 45680.41, 0.00, 0.00, 0.00, 0.00, 0.00, 0.00, 0.01, 0.00, 1.02
182, 0.00, 45658.24, 0.00, 0.00, 0.00, 0.00, 0.00, 0.00, 0.01, 0.00, 1.02
183, 0.00, 45664.46, 0.00, 0.00, 0.00, 0.00, 0.00, 0.00, 0.01, -0.00, 1.02
184, 0.00, 45686.59, 0.00, 0.00, 0.00, 0.00, 0.00, 0.00, 0.01, -0.00, 1.02
185, 0.00, 45678.29, 0.00, 0.00, 0.00, 0.00, 0.00, 0.00, 0.01, -0.00, 1.02
186, 0.00, 45653.61, 0.00, 0.00, 0.00, 0.00, 0.00, 0.00, 0.01, -0.00, 1.02
187, 0.00, 45652.61, 0.00, 0.00, 0.00, 0.00, 0.00, 0.00, 0.01, -0.00, 1.02
188, 0.00, 45675.70, 0.00, 0.00, 0.00, 0.00, 0.00, 0.00, 0.01, 0.00, 1.02
189, 0.00, 45680.95, 0.00, 0.00, 0.00, 0.00, 0.00, 0.00, 0.01, 0.00, 1.02
190, 0.00, 45653.82, 0.00, 0.00, 0.00, 0.00, 0.00, 0.00, 0.01, 0.00, 1.02
191, 0.00, 45646.24, 0.00, 0.00, 0.00, 0.00, 0.00, 0.00, 0.01, 0.00, 1.02
192, 0.00, 45669.48, 0.00, 0.00, 0.00, 0.00, 0.00, 0.00, 0.01, 0.00, 1.02
193, 0.00, 45677.11, 0.00, 0.00, 0.00, 0.00, 0.00, 0.00, 0.01, 0.01, 1.02
194, 0.00, 45653.53, 0.00, 0.00, 0.00, 0.00, 0.00, 0.00, 0.01, 0.01, 1.02
195, 0.00, 45639.54, 0.00, 0.00, 0.00, 0.00, 0.00, 0.00, 0.01, 0.01, 1.02
196, 0.00, 45659.89, 0.00, 0.00, 0.00, 0.00, 0.00, 0.00, 0.01, 0.01, 1.02
197, 0.00, 45674.04, 0.00, 0.00, 0.00, 0.00, 0.00, 0.00, 0.01, 0.01, 1.02
198, 0.00, 45653.26, 0.00, 0.00, 0.00, 0.00, 0.00, 0.00, 0.01, 0.00, 1.02
199, 0.00, 45640.85, 0.00, 0.00, 0.00, 0.00, 0.00, 0.00, 0.01, 0.00, 1.02
200, 0.00, 45664.68, 0.00, 0.00, 0.00, 0.00, 0.00, 0.00, 0.01, 0.00, 1.02
201, 0.00, 45691.86, 0.00, 0.00, 0.00, 0.00, 0.00, 0.00, 0.01, 0.00, 1.02
202, 0.00, 45679.01, 0.00, 0.00, 0.00, 0.00, 0.00, 0.00, 0.01, 0.00, 1.02
203, 0.00, 45647.11, 0.00, 0.00, 0.00, 0.00, 0.00, 0.00, 0.01, 0.01, 1.03
204, 0.00, 45656.07, 0.00, 0.00, 0.00, 0.00, 0.00, 0.00, 0.01, 0.01, 1.03
205, 0.00, 45683.19, 0.00, 0.00, 0.00, 0.00, 0.00, 0.00, 0.01, 0.01, 1.03
206, 0.00, 45668.05, 0.00, 0.00, 0.00, 0.00, 0.00, 0.00, 0.01, 0.01, 1.03
207, 0.00, 45645.57, 0.00, 0.00, 0.00, 0.00, 0.00, 0.00, 0.01, 0.01, 1.03
208, 0.00, 45653.30, 0.00, 0.00, 0.00, 0.00, 0.00, 0.00, 0.01, 0.01, 1.01
209, 0.00, 45674.71, 0.00, 0.00, 0.00, 0.00, 0.00, 0.00, 0.01, 0.01, 1.01
210, 0.00, 45676.50, 0.00, 0.00, 0.00, 0.00, 0.00, 0.00, 0.01, 0.01, 1.01
211, 0.00, 45649.19, 0.00, 0.00, 0.00, 0.00, 0.00, 0.00, 0.01, 0.01, 1.01
212, 0.00, 45643.63, 0.00, 0.00, 0.00, 0.00, 0.00, 0.00, 0.01, 0.01, 1.01
213, 0.00, 45666.76, 0.00, 0.00, 0.00, 0.00, 0.00, 0.00, 0.01, 0.01, 1.01
214, 0.00, 45671.39, 0.00, 0.00, 0.00, 0.00, 0.00, 0.00, 0.01, 0.01, 1.01
215, 0.00, 45655.43, 0.00, 0.00, 0.00, 0.00, 0.00, 0.00, 0.01, 0.01, 1.01
216, 0.00, 45649.86, 0.00, 0.00, 0.00, 0.00, 0.00, 0.00, 0.01, 0.01, 1.01
217, 0.00, 45671.86, 0.00, 0.00, 0.00, 0.00, 0.00, 0.00, 0.01, 0.01, 1.01
218, 0.00, 45671.23, 0.00, 0.00, 0.00, 0.00, 0.00, 0.00, 0.01, 0.01, 1.02
219, 0.00, 45650.51, 0.00, 0.00, 0.00, 0.00, 0.00, 0.00, 0.01, 0.01, 1.02
220, 0.00, 45637.97, 0.00, 0.00, 0.00, 0.00, 0.00, 0.00, 0.01, 0.01, 1.02
221, 0.00, 45658.51, 0.00, 0.00, 0.00, 0.00, 0.00, 0.00, 0.01, 0.01, 1.02
222, 0.00, 45672.57, 0.00, 0.00, 0.00, 0.00, 0.00, 0.00, 0.01, 0.01, 1.02
223, 0.00, 45655.96, 0.00, 0.00, 0.00, 0.00, 0.00, 0.00, 0.01, 0.01, 1.02
224, 0.00, 45640.50, 0.00, 0.00, 0.00, 0.00, 0.00, 0.00, 0.01, 0.01, 1.02
225, 0.00, 45655.47, 0.00, 0.00, 0.00, 0.00, 0.00, 0.00, 0.01, 0.01, 1.02
226, 0.00, 45673.64, 0.00, 0.00, 0.00, 0.00, 0.00, 0.00, 0.01, 0.01, 1.02
227, 0.00, 45663.85, 0.00, 0.00, 0.00, 0.00, 0.00, 0.00, 0.01, 0.01, 1.02
228, 0.00, 45641.93, 0.00, 0.00, 0.00, 0.00, 0.00, 0.00, 0.01, 0.01, 1.02
229, 0.00, 45651.20, 0.00, 0.00, 0.00, 0.00, 0.00, 0.00, 0.01, 0.01, 1.02
230, 0.00, 45674.34, 0.00, 0.00, 0.00, 0.00, 0.00, 0.00, 0.01, 0.01, 1.02
231, 0.00, 45665.64, 0.00, 0.00, 0.00, 0.00, 0.00, 0.00, 0.01, 0.01, 1.02
232, 0.00, 45643.80, 0.00, 0.00, 0.00, 0.00, 0.00, 0.00, 0.01, 0.01, 1.02
233, 0.00, 45644.92, 0.00, 0.00, 0.00, 0.00, 0.00, 0.00, 0.01, 0.01, 1.02
234, 0.00, 45675.54, 0.00, 0.00, 0.00, 0.00, 0.00, 0.00, 0.01, 0.01, 1.02
235, 0.00, 45674.58, 0.00, 0.00, 0.00, 0.00, 0.00, 0.00, 0.01, 0.01, 1.02
236, 0.00, 45640.72, 0.00, 0.00, 0.00, 0.00, 0.00, 0.00, 0.01, 0.01, 1.02
237, 0.00, 45642.42, 0.00, 0.00, 0.00, 0.00, 0.00, 0.00, 0.01, 0.01, 1.02
238, 0.00, 45671.83, 0.00, 0.00, 0.00, 0.00, 0.00, 0.00, 0.00, 0.01, 1.02
239, 0.00, 45673.26, 0.00, 0.00, 0.00, 0.00, 0.00, 0.00, 0.00, 0.01, 1.02
240, 0.00, 45642.33, 0.00, 0.00, 0.00, 0.00, 0.00, 0.00, 0.00, 0.01, 1.02
241, 0.00, 45641.41, 0.00, 0.00, 0.00, 0.00, 0.00, 0.00, 0.00, 0.01, 1.02
242, 0.00, 45662.85, 0.00, 0.00, 0.00, 0.00, 0.00, 0.00, 0.00, 0.01, 1.02
243, 0.00, 45671.56, 0.00, 0.00, 0.00, 0.00, 0.00, 0.00, 0.01, 0.01, 1.02
244, 0.00, 45655.87, 0.00, 0.00, 0.00, 0.00, 0.00, 0.00, 0.01, 0.01, 1.02
245, 0.00, 45645.19, 0.00, 0.00, 0.00, 0.00, 0.00, 0.00, 0.01, 0.01, 1.02
246, 0.00, 45659.52, 0.00, 0.00, 0.00, 0.00, 0.00, 0.00, 0.01, 0.01, 1.02
247, 0.00, 45677.35, 0.00, 0.00, 0.00, 0.00, 0.00, 0.00, 0.01, 0.01, 1.02
248, 0.00, 45663.36, 0.00, 0.00, 0.00, 0.00, 0.00, 0.00, 0.01, 0.01, 1.02
249, 0.00, 45638.98, 0.00, 0.00, 0.00, 0.00, 0.00, 0.00, 0.01, 0.01, 1.02
250, 0.00, 45658.09, 0.00, 0.00, 0.00, 0.00, 0.00, 0.00, 0.01, 0.01, 1.02
251, 0.00, 45683.84, 0.00, 0.00, 0.00, 0.00, 0.00, 0.00, 0.01, 0.01, 1.02
252, 0.00, 45671.68, 0.00, 0.00, 0.00, 0.00, 0.00, 0.00, 0.01, 0.01, 1.02
253, 0.00, 45640.81, 0.00, 0.00, 0.00, 0.00, 0.00, 0.00, 0.01, 0.02, 1.03
254, 0.00, 45648.95, 0.00, 0.00, 0.00, 0.00, 0.00, 0.00, 0.01, 0.02, 1.03
255, 0.00, 45678.09, 0.00, 0.00, 0.00, 0.00, 0.00, 0.00, 0.01, 0.02, 1.03
0, 0.00, 45674.25, 0.00, 0.00, 0.00, 0.00, 0.00, 0.00, 0.01, 0.02, 1.03
1, 0.00, 45656.19, 0.00, 0.00, 0.00, 0.00, 0.00, 0.00, 0.01, 0.02, 1.03
2, 0.00, 45656.30, 0.00, 0.00, 0.00, 0.00, 0.00, 0.00, 0.00, 0.01, 1.02
3, 0.00, 45682.49, 0.00, 0.00, 0.00, 0.00, 0.00, 0.00, 0.00, 0.01, 1.02
4, 0.00, 45682.07, 0.00, 0.00, 0.00, 0.00, 0.00, 0.00, 0.00, 0.01, 1.02
5, 0.00, 45659.49, 0.00, 0.00, 0.00, 0.00, 0.00, 0.00, 0.00, 0.01, 1.02
6, 0.00, 45652.83, 0.00, 0.00, 0.00, 0.00, 0.00, 0.00, 0.00, 0.01, 1.02
7, 0.00, 45675.86, 0.00, 0.00, 0.00, 0.00, 0.00, 0.00, 0.01, 0.01, 1.02
8, 0.00, 45680.84, 0.00, 0.00, 0.00, 0.00, 0.00, 0.00, 0.01, 0.01, 1.02
9, 0.00, 45655.87, 0.00, 0.00, 0.00, 0.00, 0.00, 0.00, 0.01, 0.01, 1.02
10, 0.00, 45642.28, 0.00, 0.00, 0.00, 0.00, 0.00, 0.00, 0.01, 0.01, 1.02
11, 0.00, 45669.38, 0.00, 0.00, 0.00, 0.00, 0.00, 0.00, 0.01, 0.01, 1.02
12, 0.00, 45682.11, 0.00, 0.00, 0.00, 0.00, 0.00, 0.00, 0.00, 0.01, 1.01
13, 0.00, 45657.88, 0.00, 0.00, 0.00, 0.00, 0.00, 0.00, 0.00, 0.01, 1.01
14, 0.00, 45653.50, 0.00, 0.00, 0.00, 0.00, 0.00, 0.00, 0.00, 0.01, 1.01
15, 0.00, 45671.16, 0.00, 0.00, 0.00, 0.00, 0.00, 0.00, 0.00, 0.01, 1.01
16, 0.00, 45683.66, 0.00, 0.00, 0.00, 0.00, 0.00, 0.00, 0.00, 0.01, 1.01
17, 0.00, 45655.05, 0.00, 0.00, 0.00, 0.00, 0.00, 0.00, 0.01, 0.01, 1.02
18, 0.00, 45634.17, 0.00, 0.00, 0.00, 0.00, 0.00, 0.00, 0.01, 0.01, 1.02
19, 0.00, 45656.54, 0.00, 0.00, 0.00, 0.00, 0.00, 0.00, 0.01, 0.01, 1.02
20, 0.00, 45676.70, 0.00, 0.00, 0.00, 0.00, 0.00, 0.00, 0.01, 0.01, 1.02
21, 0.00, 45661.57, 0.00, 0.00, 0.00, 0.00, 0.00, 0.00, 0.01, 0.01, 1.02
22, 0.00, 45648.50, 0.00, 0.00, 0.00, 0.00, 0.00, 0.00, 0.01, 0.01, 1.02
23, 0.00, 45659.16, 0.00, 0.00, 0.00, 0.00, 0.00, 0.00, 0.01, 0.01, 1.02
24, 0.00, 45682.80, 0.00, 0.00, 0.00, 0.00, 0.00, 0.00, 0.01, 0.01, 1.02
25, 0.00, 45669.30, 0.00, 0.00, 0.00, 0.00, 0.00, 0.00, 0.01, 0.01, 1.02
26, 0.00, 45642.26, 0.00, 0.00, 0.00, 0.00, 0.00, 0.00, 0.01, 0.01, 1.02
27, 0.00, 45648.47, 0.00, 0.00, 0.00, 0.00, 0.00, 0.00, 0.01, 0.01, 1.02
28, 0.00, 45671.21, 0.00, 0.00, 0.00, 0.00, 0.00, 0.00, 0.01, 0.01, 1.02
29, 0.00, 45669.60, 0.00, 0.00, 0.00, 0.00, 0.00, 0.00, 0.01, 0.01, 1.02
30, 0.00, 45650.53, 0.00, 0.00, 0.00, 0.00, 0.00, 0.00, 0.01, 0.01, 1.02
31, 0.00, 45656.66, 0.00, 0.00, 0.00, 0.00, 0.00, 0.00, 0.01, 0.01, 1.02
32, 0.00, 45675.97, 0.00, 0.00, 0.00, 0.00, 0.00, 0.00, 0.00, 0.01, 1.02
33, 0.00, 45678.52, 0.00, 0.00, 0.00, 0.00, 0.00, 0.00, 0.00, 0.01, 1.02
34, 0.00, 45656.77, 0.00, 0.00, 0.00, 0.00, 0.00, 0.00, 0.00, 0.01, 1.02
35, 0.00, 45645.34, 0.00, 0.00, 0.00, 0.00, 0.00, 0.00, 0.00, 0.01, 1.02
36, 0.00, 45663.36, 0.00, 0.00, 0.00, 0.00, 0.00, 0.00, 0.00, 0.01, 1.02
37, 0.00, 45671.52, 0.00, 0.00, 0.00, 0.00, 0.00, 0.00, 0.01, 0.01, 1.02
38, 0.00, 45653.73, 0.00, 0.00, 0.00, 0.00, 0.00, 0.00, 0.01, 0.01, 1.02
39, 0.00, 45650.29, 0.00, 0.00, 0.00, 0.00, 0.00, 0.00, 0.01, 0.01, 1.02
40, 0.00, 45663.47, 0.00, 0.00, 0.00, 0.00, 0.00, 0.00, 0.01, 0.01, 1.02
41, 0.00, 45664.01, 0.00, 0.00, 0.00, 0.00, 0.00, 0.00, 0.01, 0.01, 1.02
42, 0.00, 45648.30, 0.00, 0.00, 0.00, 0.00, 0.00, 0.00, 0.01, 0.01, 1.02
43, 0.00, 45630.55, 0.00, 0.00, 0.00, 0.00, 0.00, 0.00, 0.01, 0.01, 1.02
44, 0.00, 45649.32, 0.00, 0.00, 0.00, 0.00, 0.00, 0.00, 0.01, 0.01, 1.02
45, 0.00, 45667.70, 0.00, 0.00, 0.00, 0.00, 0.00, 0.00, 0.01, 0.01, 1.02
46, 0.00, 45651.96, 0.00, 0.00, 0.00, 0.00, 0.00, 0.00, 0.01, 0.01, 1.02
47, 0.00, 45630.28, 0.00, 0.00, 0.00, 0.00, 0.00, 0.00, 0.01, 0.01, 1.02
48, 0.00, 45645.41, 0.00, 0.00, 0.00, 0.00, 0.00, 0.00, 0.01, 0.01, 1.02
49, 0.00, 45669.89, 0.00, 0.00, 0.00, 0.00, 0.00, 0.00, 0.01, 0.01, 1.02
50, 0.00, 45650.96, 0.00, 0.00, 0.00, 0.00, 0.00, 0.00, 0.01, 0.01, 1.02
51, 0.00, 45628.18, 0.00, 0.00, 0.00, 0.00, 0.00, 0.00, 0.01, 0.01, 1.02
52, 0.00, 45632.07, 0.00, 0.00, 0.00, 0.00, 0.00, 0.00, 0.01, 0.01, 1.02
53, 0.00, 45655.63, 0.00, 0.00, 0.00, 0.00, 0.00, 0.00, 0.01, 0.01, 1.02
54, 0.00, 45653.04, 0.00, 0.00, 0.00, 0.00, 0.00, 0.00, 0.01, 0.01, 1.02
55, 0.00, 45636.52, 0.00, 0.00, 0.00, 0.00, 0.00, 0.00, 0.01, 0.01, 1.02
56, 0.00, 45638.44, 0.00, 0.00, 0.00, 0.00, 0.00, 0.00, 0.01, 0.01, 1.02
57, 0.00, 45664.14, 0.00, 0.00, 0.00, 0.00, 0.00, 0.00, 0.01, 0.01, 1.02
58, 0.00, 45658.84, 0.00, 0.00, 0.00, 0.00, 0.00, 0.00, 0.01, 0.01, 1.02
59, 0.00, 45630.14, 0.00, 0.00, 0.00, 0.00, 0.00, 0.00, 0.01, 0.01, 1.02
60, 0.00, 45623.73, 0.00, 0.00, 0.00, 0.00, 0.00, 0.00, 0.01, 0.01, 1.02
61, 0.00, 45644.12, 0.00, 0.00, 0.00, 0.00, 0.00, 0.00, 0.01, 0.01, 1.02
62, 0.00, 45652.52, 0.00, 0.00, 0.00, 0.00, 0.00, 0.00, 0.01, 0.01, 1.02
63, 0.00, 45633.07, 0.00, 0.00, 0.00, 0.00, 0.00, 0.00, 0.01, 0.01, 1.02
64, 0.00, 45622.01, 0.00, 0.00, 0.00, 0.00, 0.00, 0.00, 0.01, 0.01, 1.02
65, 0.00, 45641.05, 0.00, 0.00, 0.00, 0.00, 0.00, 0.00, 0.01, 0.01, 1.02
66, 0.00, 45651.49, 0.00, 0.00, 0.00, 0.00, 0.00, 0.00, 0.01, 0.01, 1.02
67, 0.00, 45632.67, 0.00, 0.00, 0.00, 0.00, 0.00, 0.00, 0.01, 0.01, 1.02
68, 0.00, 45612.49, 0.00, 0.00, 0.00, 0.00, 0.00, 0.00, 0.01, 0.01, 1.02
69, 0.00, 45630.35, 0.00, 0.00, 0.00, 0.00, 0.00, 0.00, 0.01, 0.01, 1.02
70, 0.00, 45658.38, 0.00, 0.00, 0.00, 0.00, 0.00, 0.00, 0.01, 0.01, 1.02
71, 0.00, 45642.73, 0.00, 0.00, 0.00, 0.00, 0.00, 0.00, 0.01, 0.01, 1.02
72, 0.00, 45620.80, 0.00, 0.00, 0.00, 0.00, 0.00, 0.00, 0.01, 0.01, 1.01
73, 0.00, 45624.80, 0.00, 0.00, 0.00, 0.00, 0.00, 0.00, 0.01, 0.01, 1.01
74, 0.00, 45653.14, 0.00, 0.00, 0.00, 0.00, 0.00, 0.00, 0.01, 0.01, 1.01
75, 0.00, 45646.06, 0.00, 0.00, 0.00, 0.00, 0.00, 0.00, 0.01, 0.01, 1.01
76, 0.00, 45623.22, 0.00, 0.00, 0.00, 0.00, 0.00, 0.00, 0.01, 0.01, 1.01
77, 0.00, 45623.29, 0.00, 0.00, 0.00, 0.00, 0.00, 0.00, 0.01, 0.01, 1.02
78, 0.00, 45650.69, 0.00, 0.00, 0.00, 0.00, 0.00, 0.00, 0.01, 0.01, 1.02
79, 0.00, 45652.68, 0.00, 0.00, 0.00, 0.00, 0.00, 0.00, 0.01, 0.01, 1.02
80, 0.00, 45629.48, 0.00, 0.00, 0.00, 0.00, 0.00, 0.00, 0.01, 0.01, 1.02
81, 0.00, 45625.52, 0.00, 0.00, 0.00, 0.00, 0.00, 0.00, 0.01, 0.01, 1.02
82, 0.00, 45650.93, 0.00, 0.00, 0.00, 0.00, 0.00, 0.00, 0.01, 0.00, 1.02
83, 0.00, 45651.27, 0.00, 0.00, 0.00, 0.00, 0.00, 0.00, 0.01, 0.00, 1.02
84, 0.00, 45625.99, 0.00, 0.00, 0.00, 0.00, 0.00, 0.00, 0.01, 0.00, 1.02
85, 0.00, 45616.91, 0.00, 0.00, 0.00, 0.00, 0.00, 0.00, 0.01, 0.00, 1.02
86, 0.00, 45644.43, 0.00, 0.00, 0.00, 0.00, 0.00, 0.00, 0.01, 0.00, 1.02
87, 0.00, 45660.01, 0.00, 0.00, 0.00, 0.00, 0.00, 0.00, 0.01, 0.01, 1.02
88, 0.00, 45639.49, 0.00, 0.00, 0.00, 0.00, 0.00, 0.00, 0.01, 0.01, 1.02
89, 0.00, 45624.85, 0.00, 0.00, 0.00, 0.00, 0.00, 0.00, 0.01, 0.01, 1.02
90, 0.00, 45644.23, 0.00, 0.00, 0.00, 0.00, 0.00, 0.00, 0.01, 0.01, 1.02
91, 0.00, 45669.60, 0.00, 0.00, 0.00, 0.00, 0.00, 0.00, 0.01, 0.01, 1.02
92, 0.00, 45649.61, 0.00, 0.00, 0.00, 0.00, 0.00, 0.00, 0.01, 0.00, 1.02
93, 0.00, 45619.71, 0.00, 0.00, 0.00, 0.00, 0.00, 0.00, 0.01, 0.00, 1.02
94, 0.00, 45632.83, 0.00, 0.00, 0.00, 0.00, 0.00, 0.00, 0.01, 0.00, 1.02
95, 0.00, 45657.88, 0.00, 0.00, 0.00, 0.00, 0.00, 0.00, 0.01, 0.00, 1.02
96, 0.00, 45645.93, 0.00, 0.00, 0.00, 0.00, 0.00, 0.00, 0.01, 0.00, 1.02
97, 0.00, 45619.89, 0.00, 0.00, 0.00, 0.00, 0.00, 0.00, 0.01, 0.01, 1.02
98, 0.00, 45625.83, 0.00, 0.00, 0.00, 0.00, 0.00, 0.00, 0.01, 0.01, 1.02
99, 0.00, 45644.74, 0.00, 0.00, 0.00, 0.00, 0.00, 0.00, 0.01, 0.01, 1.02
100, 0.00, 45643.20, 0.00, 0.00, 0.00, 0.00, 0.00, 0.00, 0.01, 0.01, 1.02
101, 0.00, 45613.61, 0.00, 0.00, 0.00, 0.00, 0.00, 0.00, 0.01, 0.01, 1.02
102, 0.00, 45611.71, 0.00, 0.00, 0.00, 0.00, 0.00, 0.00, 0.01, 0.01, 1.02
103, 0.00, 45642.98, 0.00, 0.00, 0.00, 0.00, 0.00, 0.00, 0.01, 0.01, 1.02
104, 0.00, 45641.95, 0.00, 0.00, 0.00, 0.00, 0.00, 0.00, 0.01, 0.01, 1.02
105, 0.00, 45610.92, 0.00, 0.00, 0.00, 0.00, 0.00, 0.00, 0.01, 0.01, 1.02
106, 0.00, 45608.18, 0.00, 0.00, 0.00, 0.00, 0.00, 0.00, 0.01, 0.01, 1.02
107, 0.00, 45630.04, 0.00, 0.00, 0.00, 0.00, 0.00, 0.00, 0.01, 0.01, 1.02
108, 0.00, 45642.28, 0.00, 0.00, 0.00, 0.00, 0.00, 0.00, 0.01, 0.01, 1.02
109, 0.00, 45624.34, 0.00, 0.00, 0.00, 0.00, 0.00, 0.00, 0.01, 0.01, 1.02
110, 0.00, 45617.41, 0.00, 0.00, 0.00, 0.00, 0.00, 0.00, 0.01, 0.01, 1.02
111, 0.00, 45640.32, 0.00, 0.00, 0.00, 0.00, 0.00, 0.00, 0.01, 0.01, 1.02
112, 0.00, 45648.92, 0.00, 0.00, 0.00, 0.00, 0.00, 0.00, 0.01, 0.01, 1.02
113, 0.00, 45626.97, 0.00, 0.00, 0.00, 0.00, 0.00, 0.00, 0.01, 0.01, 1.02
114, 0.00, 45607.86, 0.00, 0.00, 0.00, 0.00, 0.00, 0.00, 0.01, 0.01, 1.02
115, 0.00, 45623.80, 0.00, 0.00, 0.00, 0.00, 0.00, 0.00, 0.01, 0.01, 1.02
116, 0.00, 45644.23, 0.00, 0.00, 0.00, 0.00, 0.00, 0.00, 0.01, 0.01, 1.02
117, 0.00, 45632.43, 0.00, 0.00, 0.00, 0.00, 0.00, 0.00, 0.01, 0.01, 1.02
118, 0.00, 45613.38, 0.00, 0.00, 0.00, 0.00, 0.00, 0.00, 0.01, 0.01, 1.02
119, 0.00, 45625.47, 0.00, 0.00, 0.00, 0.00, 0.00, 0.00, 0.01, 0.01, 1.02
120, 0.00, 45651.36, 0.00, 0.00, 0.00, 0.00, 0.00, 0.00, 0.01, 0.01, 1.02
121, 0.00, 45640.09, 0.00, 0.00, 0.00, 0.00, 0.00, 0.00, 0.01, 0.01, 1.02
122, 0.00, 45617.94, 0.00, 0.00, 0.00, 0.00, 0.00, 0.00, 0.01, 0.01, 1.02
123, 0.00, 45610.68, 0.00, 0.00, 0.00, 0.00, 0.00, 0.00, 0.01, 0.01, 1.02
124, 0.00, 45638.30, 0.00, 0.00, 0.00, 0.00, 0.00, 0.00, 0.01, 0.01, 1.02
125, 0.00, 45639.73, 0.00, 0.00, 0.00, 0.00, 0.00, 0.00, 0.01, 0.01, 1.02
126, 0.00, 45612.98, 0.00, 0.00, 0.00, 0.00, 0.00, 0.00, 0.01, 0.01, 1.02
127, 0.00, 45609.54, 0.00, 0.00, 0.00, 0.00, 0.00, 0.00, 0.01, 0.01, 1.02
128, 0.00, 45635.04, 0.00, 0.00, 0.00, 0.00, 0.00, 0.00, 0.01, 0.01, 1.02
129, 0.00, 45638.75, 0.00, 0.00, 0.00, 0.00, 0.00, 0.00, 0.01, 0.01, 1.02
130, 0.00, 45613.45, 0.00, 0.00, 0.00, 0.00, 0.00, 0.00, 0.01, 0.01, 1.02
131, 0.00, 45615.08, 0.00, 0.00, 0.00, 0.00, 0.00, 0.00, 0.01, 0.01, 1.02
132, 0.00, 45636.94, 0.00, 0.00, 0.00, 0.00, 0.00, 0.00, 0.01, 0.01, 1.02
133, 0.00, 45642.66, 0.00, 0.00, 0.00, 0.00, 0.00, 0.00, 0.01, 0.01, 1.02
134, 0.00, 45623.02, 0.00, 0.00, 0.00, 0.00, 0.00, 0.00, 0.01, 0.01, 1.02
135, 0.00, 45615.02, 0.00, 0.00, 0.00, 0.00, 0.00, 0.00, 0.01, 0.01, 1.02
136, 0.00, 45628.74, 0.00, 0.00, 0.00, 0.00, 0.00, 0.00, 0.01, 0.01, 1.02
137, 0.00, 45643.67, 0.00, 0.00, 0.00, 0.00, 0.00, 0.00, 0.01, 0.01, 1.02
138, 0.00, 45628.54, 0.00, 0.00, 0.00, 0.00, 0.00, 0.00, 0.01, 0.01, 1.01
139, 0.00, 45608.91, 0.00, 0.00, 0.00, 0.00, 0.00, 0.00, 0.01, 0.01, 1.01
140, 0.00, 45625.12, 0.00, 0.00, 0.00, 0.00, 0.00, 0.00, 0.01, 0.01, 1.01
141, 0.00, 45649.48, 0.00, 0.00, 0.00, 0.00, 0.00, 0.00, 0.01, 0.01, 1.01
142, 0.00, 45635.38, 0.00, 0.00, 0.00, 0.00, 0.00, 0.00, 0.01, 0.01, 1.01
143, 0.00, 45618.52, 0.00, 0.00, 0.00, 0.00, 0.00, 0.00, 0.01, 0.01, 1.01
144, 0.00, 45627.29, 0.00, 0.00, 0.00, 0.00, 0.00, 0.00, 0.01, 0.01, 1.01
145, 0.00, 45651.40, 0.00, 0.00, 0.00, 0.00, 0.00, 0.00, 0.01, 0.01, 1.01
146, 0.00, 45644.38, 0.00, 0.00, 0.00, 0.00, 0.00, 0.00, 0.01, 0.01, 1.01
147, 0.00, 45620.00, 0.00, 0.00, 0.00, 0.00, 0.00, 0.00, 0.01, 0.01, 1.01
148, 0.00, 45621.63, 0.00, 0.00, 0.00, 0.00, 0.00, 0.00, 0.02, 0.01, 1.01
149, 0.00, 45653.17, 0.00, 0.00, 0.00, 0.00, 0.00, 0.00, 0.02, 0.01, 1.01
150, 0.00, 45669.26, 0.00, 0.00, 0.00, 0.00, 0.00, 0.00, 0.02, 0.01, 1.01
151, 0.00, 45635.13, 0.00, 0.00, 0.00, 0.00, 0.00, 0.00, 0.02, 0.01, 1.01
152, 0.00, 45613.23, 0.00, 0.00, 0.00, 0.00, 0.00, 0.00, 0.02, 0.01, 1.01
153, 0.00, 45622.61, 0.00, 0.00, 0.00, 0.00, 0.00, 0.00, 0.02, 0.01, 1.02
154, 0.00, 45627.53, 0.00, 0.00, 0.00, 0.00, 0.00, 0.00, 0.02, 0.01, 1.02
155, 0.00, 45598.32, 0.00, 0.00, 0.00, 0.00, 0.00, 0.00, 0.02, 0.01, 1.02
156, 0.00, 45577.29, 0.00, 0.00, 0.00, 0.00, 0.00, 0.00, 0.02, 0.01, 1.02
157, 0.00, 45609.16, 0.00, 0.00, 0.00, 0.00, 0.00, 0.00, 0.02, 0.01, 1.02
158, 0.00, 45606.45, 0.00, 0.00, 0.00, 0.00, 0.00, 0.00, 0.01, 0.01, 1.01
159, 0.00, 45593.63, 0.00, 0.00, 0.00, 0.00, 0.00, 0.00, 0.01, 0.01, 1.01
160, 0.00, 45573.80, 0.00, 0.00, 0.00, 0.00, 0.00, 0.00, 0.01, 0.01, 1.01
161, 0.00, 45578.69, 0.00, 0.00, 0.00, 0.00, 0.00, 0.00, 0.01, 0.01, 1.01
162, 0.00, 45590.92, 0.00, 0.00, 0.00, 0.00, 0.00, 0.00, 0.01, 0.01, 1.01
163, 0.00, 45572.21, 0.00, 0.00, 0.00, 0.00, 0.00, 0.00, 0.02, 0.01, 1.02
164, 0.00, 45556.72, 0.00, 0.00, 0.00, 0.00, 0.00, 0.00, 0.02, 0.01, 1.02
165, 0.00, 45571.59, 0.00, 0.00, 0.00, 0.00, 0.00, 0.00, 0.02, 0.01, 1.02
166, 0.00, 45596.08, 0.00, 0.00, 0.00, 0.00, 0.00, 0.00, 0.02, 0.01, 1.02
167, 0.00, 45586.18, 0.00, 0.00, 0.00, 0.00, 0.00, 0.00, 0.02, 0.01, 1.02
168, 0.00, 45562.29, 0.00, 0.00, 0.00, 0.00, 0.00, 0.00, 0.01, 0.01, 1.01
169, 0.00, 45576.19, 0.00, 0.00, 0.00, 0.00, 0.00, 0.00, 0.01, 0.01, 1.01
170, 0.00, 45596.91, 0.00, 0.00, 0.00, 0.00, 0.00, 0.00, 0.01, 0.01, 1.01
171, 0.00, 45584.62, 0.00, 0.00, 0.00, 0.00, 0.00, 0.00, 0.01, 0.01, 1.01
172, 0.00, 45562.93, 0.00, 0.00, 0.00, 0.00, 0.00, 0.00, 0.01, 0.01, 1.01
173, 0.00, 45575.50, 0.00, 0.00, 0.00, 0.00, 0.00, 0.00, 0.01, 0.01, 1.02
174, 0.00, 45602.50, 0.00, 0.00, 0.00, 0.00, 0.00, 0.00, 0.01, 0.01, 1.02
175, 0.00, 45602.79, 0.00, 0.00, 0.00, 0.00, 0.00, 0.00, 0.01, 0.01, 1.02
176, 0.00, 45581.78, 0.00, 0.00, 0.00, 0.00, 0.00, 0.00, 0.01, 0.01, 1.02
177, 0.00, 45581.93, 0.00, 0.00, 0.00, 0.00, 0.00, 0.00, 0.01, 0.01, 1.02
178, 0.00, 45610.01, 0.00, 0.00, 0.00, 0.00, 0.00, 0.00, 0.01, 0.01, 1.02
179, 0.00, 45618.84, 0.00, 0.00, 0.00, 0.00, 0.00, 0.00, 0.01, 0.01, 1.02
180, 0.00, 45595.07, 0.00, 0.00, 0.00, 0.00, 0.00, 0.00, 0.01, 0.01, 1.02
181, 0.00, 45577.95, 0.00, 0.00, 0.00, 0.00, 0.00, 0.00, 0.01, 0.01, 1.02
182, 0.00, 45604.00, 0.00, 0.00, 0.00, 0.00, 0.00, 0.00, 0.01, 0.01, 1.02
183, 0.00, 45612.42, 0.00, 0.00, 0.00, 0.00, 0.00, 0.00, 0.01, 0.00, 1.02
184, 0.00, 45589.91, 0.00, 0.00, 0.00, 0.00, 0.00, 0.00, 0.01, 0.00, 1.02
185, 0.00, 45574.96, 0.00, 0.00, 0.00, 0.00, 0.00, 0.00, 0.01, 0.00, 1.02
186, 0.00, 45596.53, 0.00, 0.00, 0.00, 0.00, 0.00, 0.00, 0.01, 0.00, 1.02
187, 0.00, 45608.62, 0.00, 0.00, 0.00, 0.00, 0.00, 0.00, 0.01, 0.00, 1.02
188, 0.00, 45591.39, 0.00, 0.00, 0.00, 0.00, 0.00, 0.00, 0.01, 0.00, 1.02
189, 0.00, 45589.38, 0.00, 0.00, 0.00, 0.00, 0.00, 0.00, 0.01, 0.00, 1.02
190, 0.00, 45596.62, 0.00, 0.00, 0.00, 0.00, 0.00, 0.00, 0.01, 0.00, 1.02
191, 0.00, 45611.48, 0.00, 0.00, 0.00, 0.00, 0.00, 0.00, 0.01, 0.00, 1.02
192, 0.00, 45633.07, 0.00, 0.00, 0.00, 0.00, 0.00, 0.00, 0.01, 0.00, 1.02
193, 0.00, 45641.99, 0.00, 0.00, 0.00, 0.00, 0.00, 0.00, 0.01, 0.01, 1.01
194, 0.00, 45611.50, 0.00, 0.00, 0.00, 0.00, 0.00, 0.00, 0.01, 0.01, 1.01
195, 0.00, 45609.20, 0.00, 0.00, 0.00, 0.00, 0.00, 0.00, 0.01, 0.01, 1.01
196, 0.00, 45611.88, 0.00, 0.00, 0.00, 0.00, 0.00, 0.00, 0.01, 0.01, 1.01
197, 0.00, 45609.94, 0.00, 0.00, 0.00, 0.00, 0.00, 0.00, 0.01, 0.01, 1.01
198, 0.00, 45608.22, 0.00, 0.00, 0.00, 0.00, 0.00, 0.00, 0.01, 0.01, 1.02
199, 0.00, 45642.98, 0.00, 0.00, 0.00, 0.00, 0.00, 0.00, 0.01, 0.01, 1.02
200, 0.00, 45634.95, 0.00, 0.00, 0.00, 0.00, 0.00, 0.00, 0.01, 0.01, 1.02
201, 0.00, 45619.17, 0.00, 0.00, 0.00, 0.00, 0.00, 0.00, 0.01, 0.01, 1.02
202, 0.00, 45615.84, 0.00, 0.00, 0.00, 0.00, 0.00, 0.00, 0.01, 0.01, 1.02
203, 0.00, 45635.36, 0.00, 0.00, 0.00, 0.00, 0.00, 0.00, 0.01, 0.01, 1.02
204, 0.00, 45636.72, 0.00, 0.00, 0.00, 0.00, 0.00, 0.00, 0.01, 0.01, 1.02
205, 0.00, 45614.16, 0.00, 0.00, 0.00, 0.00, 0.00, 0.00, 0.01, 0.01, 1.02
206, 0.00, 45596.80, 0.00, 0.00, 0.00, 0.00, 0.00, 0.00, 0.01, 0.01, 1.02
207, 0.00, 45624.34, 0.00, 0.00, 0.00, 0.00, 0.00, 0.00, 0.01, 0.01, 1.02
208, 0.00, 45639.27, 0.00, 0.00, 0.00, 0.00, 0.00, 0.00, 0.00, 0.01, 1.02
209, 0.00, 45626.03, 0.00, 0.00, 0.00, 0.00, 0.00, 0.00, 0.00, 0.01, 1.02
210, 0.00, 45609.92, 0.00, 0.00, 0.00, 0.00, 0.00, 0.00, 0.00, 0.01, 1.02
211, 0.00, 45631.02, 0.00, 0.00, 0.00, 0.00, 0.00, 0.00, 0.00, 0.01, 1.02
212, 0.00, 45644.18, 0.00, 0.00, 0.00, 0.00, 0.00, 0.00, 0.00, 0.01, 1.02
213, 0.00, 45623.35, 0.00, 0.00, 0.00, 0.00, 0.00, 0.00, 0.01, 0.01, 1.02
214, 0.00, 45602.09, 0.00, 0.00, 0.00, 0.00, 0.00, 0.00, 0.01, 0.01, 1.02
215, 0.00, 45617.76, 0.00, 0.00, 0.00, 0.00, 0.00, 0.00, 0.01, 0.01, 1.02
216, 0.00, 45639.18, 0.00, 0.00, 0.00, 0.00, 0.00, 0.00, 0.01, 0.01, 1.02
217, 0.00, 45627.48, 0.00, 0.00, 0.00, 0.00, 0.00, 0.00, 0.01, 0.01, 1.02
218, 0.00, 45601.78, 0.00, 0.00, 0.00, 0.00, 0.00, 0.00, 0.01, 0.01, 1.02
219, 0.00, 45616.63, 0.00, 0.00, 0.00, 0.00, 0.00, 0.00, 0.01, 0.01, 1.02
220, 0.00, 45651.38, 0.00, 0.00, 0.00, 0.00, 0.00, 0.00, 0.01, 0.01, 1.02
221, 0.00, 45643.58, 0.00, 0.00, 0.00, 0.00, 0.00, 0.00, 0.01, 0.01, 1.02
222, 0.00, 45615.33, 0.00, 0.00, 0.00, 0.00, 0.00, 0.00, 0.01, 0.01, 1.02
223, 0.00, 45615.50, 0.00, 0.00, 0.00, 0.00, 0.00, 0.00, 0.02, 0.01, 1.01
224, 0.00, 45642.39, 0.00, 0.00, 0.00, 0.00, 0.00, 0.00, 0.02, 0.01, 1.01
225, 0.00, 45645.52, 0.00, 0.00, 0.00, 0.00, 0.00, 0.00, 0.02, 0.01, 1.01
226, 0.00, 45618.97, 0.00, 0.00, 0.00, 0.00, 0.00, 0.00, 0.02, 0.01, 1.01
227, 0.00, 45613.76, 0.00, 0.00, 0.00, 0.00, 0.00, 0.00, 0.02, 0.01, 1.01
228, 0.00, 45647.71, 0.00, 0.00, 0.00, 0.00, 0.00, 0.00, 0.01, 0.01, 1.02
229, 0.00, 45653.97, 0.00, 0.00, 0.00, 0.00, 0.00, 0.00, 0.01, 0.01, 1.02
230, 0.00, 45623.95, 0.00, 0.00, 0.00, 0.00, 0.00, 0.00, 0.01, 0.01, 1.02
231, 0.00, 45607.53, 0.00, 0.00, 0.00, 0.00, 0.00, 0.00, 0.01, 0.01, 1.02
232, 0.00, 45633.16, 0.00, 0.00, 0.00, 0.00, 0.00, 0.00, 0.01, 0.01, 1.02
233, 0.00, 45643.80, 0.00, 0.00, 0.00, 0.00, 0.00, 0.00, 0.01, 0.01, 1.02
234, 0.00, 45616.60, 0.00, 0.00, 0.00, 0.00, 0.00, 0.00, 0.01, 0.01, 1.02
235, 0.00, 45600.80, 0.00, 0.00, 0.00, 0.00, 0.00, 0.00, 0.01, 0.01, 1.02
236, 0.00, 45628.65, 0.00, 0.00, 0.00, 0.00, 0.00, 0.00, 0.01, 0.01, 1.02
237, 0.00, 45653.41, 0.00, 0.00, 0.00, 0.00, 0.00, 0.00, 0.01, 0.01, 1.02
238, 0.00, 45626.68, 0.00, 0.00, 0.00, 0.00, 0.00, 0.00, 0.00, 0.01, 1.02
239, 0.00, 45601.34, 0.00, 0.00, 0.00, 0.00, 0.00, 0.00, 0.00, 0.01, 1.02
240, 0.00, 45612.22, 0.00, 0.00, 0.00, 0.00, 0.00, 0.00, 0.00, 0.01, 1.02
241, 0.00, 45631.66, 0.00, 0.00, 0.00, 0.00, 0.00, 0.00, 0.00, 0.01, 1.02
242, 0.00, 45627.82, 0.00, 0.00, 0.00, 0.00, 0.00, 0.00, 0.00, 0.01, 1.02
243, 0.00, 45604.84, 0.00, 0.00, 0.00, 0.00, 0.00, 0.00, 0.01, 0.01, 1.02
244, 0.00, 45606.72, 0.00, 0.00, 0.00, 0.00, 0.00, 0.00, 0.01, 0.01, 1.02
245, 0.00, 45639.67, 0.00, 0.00, 0.00, 0.00, 0.00, 0.00, 0.01, 0.01, 1.02
246, 0.00, 45639.20, 0.00, 0.00, 0.00, 0.00, 0.00, 0.00, 0.01, 0.01, 1.02
247, 0.00, 45617.54, 0.00, 0.00, 0.00, 0.00, 0.00, 0.00, 0.01, 0.01, 1.02
248, 0.00, 45614.39, 0.00, 0.00, 0.00, 0.00, 0.00, 0.00, 0.01, 0.01, 1.02
249, 0.00, 45637.72, 0.00, 0.00, 0.00, 0.00, 0.00, 0.00, 0.01, 0.01, 1.02
250, 0.00, 45639.27, 0.00, 0.00, 0.00, 0.00, 0.00, 0.00, 0.01, 0.01, 1.02
251, 0.00, 45614.99, 0.00, 0.00, 0.00, 0.00, 0.00, 0.00, 0.01, 0.01, 1.02
252, 0.00, 45607.88, 0.00, 0.00, 0.00, 0.00, 0.00, 0.00, 0.01, 0.01, 1.02
253, 0.00, 45635.22, 0.00, 0.00, 0.00, 0.00, 0.00, 0.00, 0.01, 0.01, 1.03
254, 0.00, 45642.48, 0.00, 0.00, 0.00, 0.00, 0.00, 0.00, 0.01, 0.01, 1.03
255, 0.00, 45621.25, 0.00, 0.00, 0.00, 0.00, 0.00, 0.00, 0.01, 0.01, 1.03
0, 0.00, 45609.02, 0.00, 0.00, 0.00, 0.00, 0.00, 0.00, 0.01, 0.01, 1.03
1, 0.00, 45625.90, 0.00, 0.00, 0.00, 0.00, 0.00, 0.00, 0.01, 0.01, 1.03
2, 0.00, 45634.26, 0.00, 0.00, 0.00, 0.00, 0.00, 0.00, 0.01, 0.01, 1.02
3, 0.00, 45616.40, 0.00, 0.00, 0.00, 0.00, 0.00, 0.00, 0.01, 0.01, 1.02
4, 0.00, 45606.03, 0.00, 0.00, 0.00, 0.00, 0.00, 0.00, 0.01, 0.01, 1.02
5, 0.00, 45619.44, 0.00, 0.00, 0.00, 0.00, 0.00, 0.00, 0.01, 0.01, 1.02
6, 0.00, 45644.79, 0.00, 0.00, 0.00, 0.00, 0.00, 0.00, 0.01, 0.01, 1.02
7, 0.00, 45632.96, 0.00, 0.00, 0.00, 0.00, 0.00, 0.00, 0.01, 0.01, 1.02
8, 0.00, 45610.70, 0.00, 0.00, 0.00, 0.00, 0.00, 0.00, 0.01, 0.01, 1.02
9, 0.00, 45625.34, 0.00, 0.00, 0.00, 0.00, 0.00, 0.00, 0.01, 0.01, 1.02
10, 0.00, 45644.00, 0.00, 0.00, 0.00, 0.00, 0.00, 0.00, 0.01, 0.01, 1.02
11, 0.00, 45629.09, 0.00, 0.00, 0.00, 0.00, 0.00, 0.00, 0.01, 0.01, 1.02
12, 0.00, 45605.45, 0.00, 0.00, 0.00, 0.00, 0.00, 0.00, 0.01, 0.01, 1.02
13, 0.00, 45609.83, 0.00, 0.00, 0.00, 0.00, 0.00, 0.00, 0.01, 0.01, 1.02
14, 0.00, 45640.83, 0.00, 0.00, 0.00, 0.00, 0.00, 0.00, 0.01, 0.01, 1.02
15, 0.00, 45637.16, 0.00, 0.00, 0.00, 0.00, 0.00, 0.00, 0.01, 0.01, 1.02
16, 0.00, 45611.71, 0.00, 0.00, 0.00, 0.00, 0.00, 0.00, 0.01, 0.01, 1.02
17, 0.00, 45620.00, 0.00, 0.00, 0.00, 0.00, 0.00, 0.00, 0.01, 0.01, 1.02
18, 0.00, 45648.50, 0.00, 0.00, 0.00, 0.00, 0.00, 0.00, 0.01, 0.01, 1.02
19, 0.00, 45630.39, 0.00, 0.00, 0.00, 0.00, 0.00, 0.00, 0.01, 0.01, 1.02
20, 0.00, 45603.64, 0.00, 0.00, 0.00, 0.00, 0.00, 0.00, 0.01, 0.01, 1.02
21, 0.00, 45601.98, 0.00, 0.00, 0.00, 0.00, 0.00, 0.00, 0.01, 0.01, 1.02
22, 0.00, 45622.73, 0.00, 0.00, 0.00, 0.00, 0.00, 0.00, 0.01, 0.01, 1.03
23, 0.00, 45635.78, 0.00, 0.00, 0.00, 0.00, 0.00, 0.00, 0.01, 0.01, 1.03
24, 0.00, 45613.18, 0.00, 0.00, 0.00, 0.00, 0.00, 0.00, 0.01, 0.01, 1.03
25, 0.00, 45601.65, 0.00, 0.00, 0.00, 0.00, 0.00, 0.00, 0.01, 0.01, 1.03
26, 0.00, 45625.14, 0.00, 0.00, 0.00, 0.00, 0.00, 0.00, 0.01, 0.01, 1.03
27, 0.00, 45643.40, 0.00, 0.00, 0.00, 0.00, 0.00, 0.00, 0.01, 0.01, 1.02
28, 0.00, 45622.55, 0.00, 0.00, 0.00, 0.00, 0.00, 0.00, 0.01, 0.01, 1.02
29, 0.00, 45599.57, 0.00, 0.00, 0.00, 0.00, 0.00, 0.00, 0.01, 0.01, 1.02
30, 0.00, 45619.93, 0.00, 0.00, 0.00, 0.00, 0.00, 0.00, 0.01, 0.01, 1.02
31, 0.00, 45645.21, 0.00, 0.00, 0.00, 0.00, 0.00, 0.00, 0.01, 0.01, 1.02
32, 0.00, 45623.42, 0.00, 0.00, 0.00, 0.00, 0.00, 0.00, 0.01, 0.02, 1.02
33, 0.00, 45597.69, 0.00, 0.00, 0.00, 0.00, 0.00, 0.00, 0.01, 0.02, 1.02
34, 0.00, 45607.91, 0.00, 0.00, 0.00, 0.00, 0.00, 0.00, 0.01, 0.02, 1.02
35, 0.00, 45635.51, 0.00, 0.00, 0.00, 0.00, 0.00, 0.00, 0.01, 0.02, 1.02
36, 0.00, 45623.44, 0.00, 0.00, 0.00, 0.00, 0.00, 0.00, 0.01, 0.02, 1.02
37, 0.00, 45594.23, 0.00, 0.00, 0.00, 0.00, 0.00, 0.00, 0.01, 0.01, 1.01
38, 0.00, 45602.70, 0.00, 0.00, 0.00, 0.00, 0.00, 0.00, 0.01, 0.01, 1.01
39, 0.00, 45631.02, 0.00, 0.00, 0.00, 0.00, 0.00, 0.00, 0.01, 0.01, 1.01
40, 0.00, 45627.66, 0.00, 0.00, 0.00, 0.00, 0.00, 0.00, 0.01, 0.01, 1.01
41, 0.00, 45602.77, 0.00, 0.00, 0.00, 0.00, 0.00, 0.00, 0.01, 0.01, 1.01
42, 0.00, 45607.04, 0.00, 0.00, 0.00, 0.00, 0.00, 0.00, 0.01, 0.01, 1.02
43, 0.00, 45632.63, 0.00, 0.00, 0.00, 0.00, 0.00, 0.00, 0.01, 0.01, 1.02
44, 0.00, 45631.78, 0.00, 0.00, 0.00, 0.00, 0.00, 0.00, 0.01, 0.01, 1.02
45, 0.00, 45600.69, 0.00, 0.00, 0.00, 0.00, 0.00, 0.00, 0.01, 0.01, 1.02
46, 0.00, 45598.70, 0.00, 0.00, 0.00, 0.00, 0.00, 0.00, 0.01, 0.01, 1.02
47, 0.00, 45629.48, 0.00, 0.00, 0.00, 0.00, 0.00, 0.00, 0.00, 0.01, 1.02
48, 0.00, 45636.54, 0.00, 0.00, 0.00, 0.00, 0.00, 0.00, 0.00, 0.01, 1.02
49, 0.00, 45605.69, 0.00, 0.00, 0.00, 0.00, 0.00, 0.00, 0.00, 0.01, 1.02
50, 0.00, 45596.75, 0.00, 0.00, 0.00, 0.00, 0.00, 0.00, 0.00, 0.01, 1.02
51, 0.00, 45621.61, 0.00, 0.00, 0.00, 0.00, 0.00, 0.00, 0.00, 0.01, 1.02
52, 0.00, 45640.67, 0.00, 0.00, 0.00, 0.00, 0.00, 0.00, 0.00, 0.01, 1.02
53, 0.00, 45616.94, 0.00, 0.00, 0.00, 0.00, 0.00, 0.00, 0.00, 0.01, 1.02
54, 0.00, 45596.35, 0.00, 0.00, 0.00, 0.00, 0.00, 0.00, 0.00, 0.01, 1.02
55, 0.00, 45617.41, 0.00, 0.00, 0.00, 0.00, 0.00, 0.00, 0.00, 0.01, 1.02
56, 0.00, 45635.82, 0.00, 0.00, 0.00, 0.00, 0.00, 0.00, 0.00, 0.01, 1.02
57, 0.00, 45619.55, 0.00, 0.00, 0.00, 0.00, 0.00, 0.00, 0.01, 0.01, 1.02
58, 0.00, 45601.74, 0.00, 0.00, 0.00, 0.00, 0.00, 0.00, 0.01, 0.01, 1.02
59, 0.00, 45605.49, 0.00, 0.00, 0.00, 0.00, 0.00, 0.00, 0.01, 0.01, 1.02
60, 0.00, 45626.12, 0.00, 0.00, 0.00, 0.00, 0.00, 0.00, 0.01, 0.01, 1.02
61, 0.00, 45620.38, 0.00, 0.00, 0.00, 0.00, 0.00, 0.00, 0.01, 0.01, 1.02
62, 0.00, 45598.68, 0.00, 0.00, 0.00, 0.00, 0.00, 0.00, 0.01, 0.01, 1.02
63, 0.00, 45605.96, 0.00, 0.00, 0.00, 0.00, 0.00, 0.00, 0.01, 0.01, 1.02
64, 0.00, 45630.50, 0.00, 0.00, 0.00, 0.00, 0.00, 0.00, 0.01, 0.01, 1.02
65, 0.00, 45626.48, 0.00, 0.00, 0.00, 0.00, 0.00, 0.00, 0.01, 0.01, 1.02
66, 0.00, 45607.21, 0.00, 0.00, 0.00, 0.00, 0.00, 0.00, 0.01, 0.01, 1.02
67, 0.00, 45613.02, 0.00, 0.00, 0.00, 0.00, 0.00, 0.00, 0.01, 0.02, 1.02
68, 0.00, 45638.59, 0.00, 0.00, 0.00, 0.00, 0.00, 0.00, 0.01, 0.02, 1.02
69, 0.00, 45642.35, 0.00, 0.00, 0.00, 0.00, 0.00, 0.00, 0.01, 0.02, 1.02
70, 0.00, 45624.51, 0.00, 0.00, 0.00, 0.00, 0.00, 0.00, 0.01, 0.02, 1.02
71, 0.00, 45616.78, 0.00, 0.00, 0.00, 0.00, 0.00, 0.00, 0.01, 0.02, 1.02
72, 0.00, 45639.87, 0.00, 0.00, 0.00, 0.00, 0.00, 0.00, 0.01, 0.01, 1.02
73, 0.00, 45649.59, 0.00, 0.00, 0.00, 0.00, 0.00, 0.00, 0.01, 0.01, 1.02
74, 0.00, 45632.98, 0.00, 0.00, 0.00, 0.00, 0.00, 0.00, 0.01, 0.01, 1.02
75, 0.00, 45616.49, 0.00, 0.00, 0.00, 0.00, 0.00, 0.00, 0.01, 0.01, 1.02
76, 0.00, 45633.45, 0.00, 0.00, 0.00, 0.00, 0.00, 0.00, 0.01, 0.01, 1.02
77, 0.00, 45651.07, 0.00, 0.00, 0.00, 0.00, 0.00, 0.00, 0.01, 0.01, 1.02
78, 0.00, 45630.01, 0.00, 0.00, 0.00, 0.00, 0.00, 0.00, 0.01, 0.01, 1.02
79, 0.00, 45603.68, 0.00, 0.00, 0.00, 0.00, 0.00, 0.00, 0.01, 0.01, 1.02
80, 0.00, 45622.28, 0.00, 0.00, 0.00, 0.00, 0.00, 0.00, 0.01, 0.01, 1.02
81, 0.00, 45645.17, 0.00, 0.00, 0.00, 0.00, 0.00, 0.00, 0.01, 0.01, 1.02
82, 0.00, 45633.75, 0.00, 0.00, 0.00, 0.00, 0.00, 0.00, 0.01, 0.01, 1.01
83, 0.00, 45614.72, 0.00, 0.00, 0.00, 0.00, 0.00, 0.00, 0.01, 0.01, 1.01
84, 0.00, 45615.17, 0.00, 0.00, 0.00, 0.00, 0.00, 0.00, 0.01, 0.01, 1.01
85, 0.00, 45633.70, 0.00, 0.00, 0.00, 0.00, 0.00, 0.00, 0.01, 0.01, 1.01
86, 0.00, 45630.35, 0.00, 0.00, 0.00, 0.00, 0.00, 0.00, 0.01, 0.01, 1.01
87, 0.00, 45602.81, 0.00, 0.00, 0.00, 0.00, 0.00, 0.00, 0.02, 0.01, 1.01
88, 0.00, 45601.38, 0.00, 0.00, 0.00, 0.00, 0.00, 0.00, 0.02, 0.01, 1.01
89, 0.00, 45633.59, 0.00, 0.00, 0.00, 0.00, 0.00, 0.00, 0.02, 0.01, 1.01
90, 0.00, 45639.94, 0.00, 0.00, 0.00, 0.00, 0.00, 0.00, 0.02, 0.01, 1.01
91, 0.00, 45615.30, 0.00, 0.00, 0.00, 0.00, 0.00, 0.00, 0.02, 0.01, 1.01
92, 0.00, 45602.56, 0.00, 0.00, 0.00, 0.00, 0.00, 0.00, 0.01, 0.01, 1.02
93, 0.00, 45625.36, 0.00, 0.00, 0.00, 0.00, 0.00, 0.00, 0.01, 0.01, 1.02
94, 0.00, 45632.07, 0.00, 0.00, 0.00, 0.00, 0.00, 0.00, 0.01, 0.01, 1.02
95, 0.00, 45610.39, 0.00, 0.00, 0.00, 0.00, 0.00, 0.00, 0.01, 0.01, 1.02
96, 0.00, 45606.59, 0.00, 0.00, 0.00, 0.00, 0.00, 0.00, 0.01, 0.01, 1.02
97, 0.00, 45633.27, 0.00, 0.00, 0.00, 0.00, 0.00, 0.00, 0.01, 0.01, 1.02
98, 0.00, 45643.07, 0.00, 0.00, 0.00, 0.00, 0.00, 0.00, 0.01, 0.01, 1.02
99, 0.00, 45625.47, 0.00, 0.00, 0.00, 0.00, 0.00, 0.00, 0.01, 0.01, 1.02
100, 0.00, 45616.06, 0.00, 0.00, 0.00, 0.00, 0.00, 0.00, 0.01, 0.01, 1.02
101, 0.00, 45621.83, 0.00, 0.00, 0.00, 0.00, 0.00, 0.00, 0.01, 0.01, 1.02
102, 0.00, 45634.59, 0.00, 0.00, 0.00, 0.00, 0.00, 0.00, 0.01, 0.00, 1.02
103, 0.00, 45619.68, 0.00, 0.00, 0.00, 0.00, 0.00, 0.00, 0.01, 0.00, 1.02
104, 0.00, 45601.25, 0.00, 0.00, 0.00, 0.00, 0.00, 0.00, 0.01, 0.00, 1.02
105, 0.00, 45615.17, 0.00, 0.00, 0.00, 0.00, 0.00, 0.00, 0.01, 0.00, 1.02
106, 0.00, 45636.81, 0.00, 0.00, 0.00, 0.00, 0.00, 0.00, 0.01, 0.00, 1.02
107, 0.00, 45624.91, 0.00, 0.00, 0.00, 0.00, 0.00, 0.00, 0.01, 0.00, 1.02
108, 0.00, 45607.05, 0.00, 0.00, 0.00, 0.00, 0.00, 0.00, 0.01, 0.01, 1.01
109, 0.00, 45609.54, 0.00, 0.00, 0.00, 0.00, 0.00, 0.00, 0.01, 0.01, 1.01
110, 0.00, 45626.82, 0.00, 0.00, 0.00, 0.00, 0.00, 0.00, 0.01, 0.01, 1.01
111, 0.00, 45626.88, 0.00, 0.00, 0.00, 0.00, 0.00, 0.00, 0.01, 0.01, 1.01
112, 0.00, 45602.68, 0.00, 0.00, 0.00, 0.00, 0.00, 0.00, 0.01, 0.01, 1.01
113, 0.00, 45605.61, 0.00, 0.00, 0.00, 0.00, 0.00, 0.00, 0.01, 0.01, 1.01
114, 0.00, 45634.13, 0.00, 0.00, 0.00, 0.00, 0.00, 0.00, 0.01, 0.01, 1.01
115, 0.00, 45633.72, 0.00, 0.00, 0.00, 0.00, 0.00, 0.00, 0.01, 0.01, 1.01
116, 0.00, 45612.80, 0.00, 0.00, 0.00, 0.00, 0.00, 0.00, 0.01, 0.01, 1.01
117, 0.00, 45601.56, 0.00, 0.00, 0.00, 0.00, 0.00, 0.00, 0.01, 0.01, 1.01
118, 0.00, 45617.45, 0.00, 0.00, 0.00, 0.00, 0.00, 0.00, 0.00, 0.02, 1.02
119, 0.00, 45624.07, 0.00, 0.00, 0.00, 0.00, 0.00, 0.00, 0.00, 0.02, 1.02
120, 0.00, 45607.26, 0.00, 0.00, 0.00, 0.00, 0.00, 0.00, 0.00, 0.02, 1.02
121, 0.00, 45598.85, 0.00, 0.00, 0.00, 0.00, 0.00, 0.00, 0.00, 0.02, 1.02
122, 0.00, 45625.81, 0.00, 0.00, 0.00, 0.00, 0.00, 0.00, 0.00, 0.02, 1.02
123, 0.00, 45641.21, 0.00, 0.00, 0.00, 0.00, 0.00, 0.00, 0.00, 0.01, 1.02
124, 0.00, 45618.01, 0.00, 0.00, 0.00, 0.00, 0.00, 0.00, 0.00, 0.01, 1.02
125, 0.00, 45596.89, 0.00, 0.00, 0.00, 0.00, 0.00, 0.00, 0.00, 0.01, 1.02
126, 0.00, 45615.86, 0.00, 0.00, 0.00, 0.00, 0.00, 0.00, 0.00, 0.01, 1.02
127, 0.00, 45635.22, 0.00, 0.00, 0.00, 0.00, 0.00, 0.00, 0.00, 0.01, 1.02
128, 0.00, 45620.40, 0.00, 0.00, 0.00, 0.00, 0.00, 0.00, 0.01, 0.01, 1.02
129, 0.00, 45599.66, 0.00, 0.00, 0.00, 0.00, 0.00, 0.00, 0.01, 0.01, 1.02
130, 0.00, 45607.59, 0.00, 0.00, 0.00, 0.00, 0.00, 0.00, 0.01, 0.01, 1.02
131, 0.00, 45632.45, 0.00, 0.00, 0.00, 0.00, 0.00, 0.00, 0.01, 0.01, 1.02
132, 0.00, 45620.16, 0.00, 0.00, 0.00, 0.00, 0.00, 0.00, 0.01, 0.01, 1.02
133, 0.00, 45596.62, 0.00, 0.00, 0.00, 0.00, 0.00, 0.00, 0.01, 0.01, 1.02
134, 0.00, 45603.23, 0.00, 0.00, 0.00, 0.00, 0.00, 0.00, 0.01, 0.01, 1.02
135, 0.00, 45626.19, 0.00, 0.00, 0.00, 0.00, 0.00, 0.00, 0.01, 0.01, 1.02
136, 0.00, 45623.22, 0.00, 0.00, 0.00, 0.00, 0.00, 0.00, 0.01, 0.01, 1.02
137, 0.00, 45598.45, 0.00, 0.00, 0.00, 0.00, 0.00, 0.00, 0.01, 0.01, 1.02
138, 0.00, 45604.20, 0.00, 0.00, 0.00, 0.00, 0.00, 0.00, 0.01, 0.01, 1.02
139, 0.00, 45629.54, 0.00, 0.00, 0.00, 0.00, 0.00, 0.00, 0.01, 0.01, 1.02
140, 0.00, 45623.22, 0.00, 0.00, 0.00, 0.00, 0.00, 0.00, 0.01, 0.01, 1.02
141, 0.00, 45599.57, 0.00, 0.00, 0.00, 0.00, 0.00, 0.00, 0.01, 0.01, 1.02
142, 0.00, 45591.97, 0.00, 0.00, 0.00, 0.00, 0.00, 0.00, 0.01, 0.01, 1.02
143, 0.00, 45611.55, 0.00, 0.00, 0.00, 0.00, 0.00, 0.00, 0.02, 0.01, 1.01
144, 0.00, 45616.69, 0.00, 0.00, 0.00, 0.00, 0.00, 0.00, 0.02, 0.01, 1.01
145, 0.00, 45600.08, 0.00, 0.00, 0.00, 0.00, 0.00, 0.00, 0.02, 0.01, 1.01
146, 0.00, 45595.34, 0.00, 0.00, 0.00, 0.00, 0.00, 0.00, 0.02, 0.01, 1.01
147, 0.00, 45619.80, 0.00, 0.00, 0.00, 0.00, 0.00, 0.00, 0.02, 0.01, 1.01
148, 0.00, 45631.40, 0.00, 0.00, 0.00, 0.00, 0.00, 0.00, 0.01, 0.01, 1.00
149, 0.00, 45595.57, 0.00, 0.00, 0.00, 0.00, 0.00, 0.00, 0.01, 0.01, 1.00
150, 0.00, 45584.10, 0.00, 0.00, 0.00, 0.00, 0.00, 0.00, 0.01, 0.01, 1.00
151, 0.00, 45605.98, 0.00, 0.00, 0.00, 0.00, 0.00, 0.00, 0.01, 0.01, 1.00
152, 0.00, 45623.42, 0.00, 0.00, 0.00, 0.00, 0.00, 0.00, 0.01, 0.01, 1.00
153, 0.00, 45611.41, 0.00, 0.00, 0.00, 0.00, 0.00, 0.00, 0.01, 0.01, 1.01
154, 0.00, 45593.96, 0.00, 0.00, 0.00, 0.00, 0.00, 0.00, 0.01, 0.01, 1.01
155, 0.00, 45605.74, 0.00, 0.00, 0.00, 0.00, 0.00, 0.00, 0.01, 0.01, 1.01
156, 0.00, 45624.18, 0.00, 0.00, 0.00, 0.00, 0.00, 0.00, 0.01, 0.01, 1.01
157, 0.00, 45604.80, 0.00, 0.00, 0.00, 0.00, 0.00, 0.00, 0.01, 0.01, 1.01
158, 0.00, 45584.64, 0.00, 0.00, 0.00, 0.00, 0.00, 0.00, 0.01, 0.01, 1.02
159, 0.00, 45597.58, 0.00, 0.00, 0.00, 0.00, 0.00, 0.00, 0.01, 0.01, 1.02
160, 0.00, 45620.73, 0.00, 0.00, 0.00, 0.00, 0.00, 0.00, 0.01, 0.01, 1.02
161, 0.00, 45619.55, 0.00, 0.00, 0.00, 0.00, 0.00, 0.00, 0.01, 0.01, 1.02
162, 0.00, 45594.90, 0.00, 0.00, 0.00, 0.00, 0.00, 0.00, 0.01, 0.01, 1.02
163, 0.00, 45595.79, 0.00, 0.00, 0.00, 0.00, 0.00, 0.00, 0.01, 0.01, 1.02
164, 0.00, 45623.66, 0.00, 0.00, 0.00, 0.00, 0.00, 0.00, 0.01, 0.01, 1.02
165, 0.00, 45617.27, 0.00, 0.00, 0.00, 0.00, 0.00, 0.00, 0.01, 0.01, 1.02
166, 0.00, 45594.18, 0.00, 0.00, 0.00, 0.00, 0.00, 0.00, 0.01, 0.01, 1.02
167, 0.00, 45589.24, 0.00, 0.00, 0.00, 0.00, 0.00, 0.00, 0.01, 0.01, 1.02
168, 0.00, 45615.86, 0.00, 0.00, 0.00, 0.00, 0.00, 0.00, 0.01, 0.01, 1.02
169, 0.00, 45626.52, 0.00, 0.00, 0.00, 0.00, 0.00, 0.00, 0.01, 0.01, 1.02
170, 0.00, 45610.61, 0.00, 0.00, 0.00, 0.00, 0.00, 0.00, 0.01, 0.01, 1.02
171, 0.00, 45597.91, 0.00, 0.00, 0.00, 0.00, 0.00, 0.00, 0.01, 0.01, 1.02
172, 0.00, 45620.29, 0.00, 0.00, 0.00, 0.00, 0.00, 0.00, 0.01, 0.01, 1.02
173, 0.00, 45624.34, 0.00, 0.00, 0.00, 0.00, 0.00, 0.00, 0.00, 0.01, 1.02
174, 0.00, 45597.13, 0.00, 0.00, 0.00, 0.00, 0.00, 0.00, 0.00, 0.01, 1.02
175, 0.00, 45590.65, 0.00, 0.00, 0.00, 0.00, 0.00, 0.00, 0.00, 0.01, 1.02
176, 0.00, 45603.12, 0.00, 0.00, 0.00, 0.00, 0.00, 0.00, 0.00, 0.01, 1.02
177, 0.00, 45621.34, 0.00, 0.00, 0.00, 0.00, 0.00, 0.00, 0.00, 0.01, 1.02
178, 0.00, 45605.67, 0.00, 0.00, 0.00, 0.00, 0.00, 0.00, 0.01, 0.01, 1.02
179, 0.00, 45582.58, 0.00, 0.00, 0.00, 0.00, 0.00, 0.00, 0.01, 0.01, 1.02
180, 0.00, 45595.72, 0.00, 0.00, 0.00, 0.00, 0.00, 0.00, 0.01, 0.01, 1.02
181, 0.00, 45612.51, 0.00, 0.00, 0.00, 0.00, 0.00, 0.00, 0.01, 0.01, 1.02
182, 0.00, 45607.17, 0.00, 0.00, 0.00, 0.00, 0.00, 0.00, 0.01, 0.01, 1.02
183, 0.00, 45586.79, 0.00, 0.00, 0.00, 0.00, 0.00, 0.00, 0.01, 0.01, 1.02
184, 0.00, 45596.37, 0.00, 0.00, 0.00, 0.00, 0.00, 0.00, 0.01, 0.01, 1.02
185, 0.00, 45624.63, 0.00, 0.00, 0.00, 0.00, 0.00, 0.00, 0.01, 0.01, 1.02
186, 0.00, 45618.07, 0.00, 0.00, 0.00, 0.00, 0.00, 0.00, 0.01, 0.01, 1.02
187, 0.00, 45587.41, 0.00, 0.00, 0.00, 0.00, 0.00, 0.00, 0.01, 0.01, 1.02
188, 0.00, 45578.89, 0.00, 0.00, 0.00, 0.00, 0.00, 0.00, 0.01, 0.01, 1.03
189, 0.00, 45607.66, 0.00, 0.00, 0.00, 0.00, 0.00, 0.00, 0.01, 0.01, 1.03
190, 0.00, 45609.31, 0.00, 0.00, 0.00, 0.00, 0.00, 0.00, 0.01, 0.01, 1.03
191, 0.00, 45587.95, 0.00, 0.00, 0.00, 0.00, 0.00, 0.00, 0.01, 0.01, 1.03
192, 0.00, 45582.89, 0.00, 0.00, 0.00, 0.00, 0.00, 0.00, 0.01, 0.01, 1.03
193, 0.00, 45607.48, 0.00, 0.00, 0.00, 0.00, 0.00, 0.00, 0.01, 0.02, 1.02
194, 0.00, 45614.30, 0.00, 0.00, 0.00, 0.00, 0.00, 0.00, 0.01, 0.02, 1.02
195, 0.00, 45589.76, 0.00, 0.00, 0.00, 0.00, 0.00, 0.00, 0.01, 0.02, 1.02
196, 0.00, 45572.16, 0.00, 0.00, 0.00, 0.00, 0.00, 0.00, 0.01, 0.02, 1.02
197, 0.00, 45594.85, 0.00, 0.00, 0.00, 0.00, 0.00, 0.00, 0.01, 0.02, 1.02
198, 0.00, 45616.27, 0.00, 0.00, 0.00, 0.00, 0.00, 0.00, 0.01, 0.02, 1.02
199, 0.00, 45600.44, 0.00, 0.00, 0.00, 0.00, 0.00, 0.00, 0.01, 0.02, 1.02
200, 0.00, 45584.01, 0.00, 0.00, 0.00, 0.00, 0.00, 0.00, 0.01, 0.02, 1.02
201, 0.00, 45599.88, 0.00, 0.00, 0.00, 0.00, 0.00, 0.00, 0.01, 0.02, 1.02
202, 0.00, 45614.93, 0.00, 0.00, 0.00, 0.00, 0.00, 0.00, 0.01, 0.02, 1.02
203, 0.00, 45594.61, 0.00, 0.00, 0.00, 0.00, 0.00, 0.00, 0.01, 0.01, 1.01
204, 0.00, 45572.28, 0.00, 0.00, 0.00, 0.00, 0.00, 0.00, 0.01, 0.01, 1.01
205, 0.00, 45582.67, 0.00, 0.00, 0.00, 0.00, 0.00, 0.00, 0.01, 0.01, 1.01
206, 0.00, 45608.20, 0.00, 0.00, 0.00, 0.00, 0.00, 0.00, 0.01, 0.01, 1.01
207, 0.00, 45600.93, 0.00, 0.00, 0.00, 0.00, 0.00, 0.00, 0.01, 0.01, 1.01
208, 0.00, 45573.71, 0.00, 0.00, 0.00, 0.00, 0.00, 0.00, 0.01, 0.01, 1.01
209, 0.00, 45573.26, 0.00, 0.00, 0.00, 0.00, 0.00, 0.00, 0.01, 0.01, 1.01
210, 0.00, 45595.03, 0.00, 0.00, 0.00, 0.00, 0.00, 0.00, 0.01, 0.01, 1.01
211, 0.00, 45587.10, 0.00, 0.00, 0.00, 0.00, 0.00, 0.00, 0.01, 0.01, 1.01
212, 0.00, 45571.03, 0.00, 0.00, 0.00, 0.00, 0.00, 0.00, 0.01, 0.01, 1.01
213, 0.00, 45575.14, 0.00, 0.00, 0.00, 0.00, 0.00, 0.00, 0.01, 0.01, 1.01
214, 0.00, 45606.61, 0.00, 0.00, 0.00, 0.00, 0.00, 0.00, 0.01, 0.01, 1.01
215, 0.00, 45604.26, 0.00, 0.00, 0.00, 0.00, 0.00, 0.00, 0.01, 0.01, 1.01
216, 0.00, 45574.29, 0.00, 0.00, 0.00, 0.00, 0.00, 0.00, 0.01, 0.01, 1.01
217, 0.00, 45569.02, 0.00, 0.00, 0.00, 0.00, 0.00, 0.00, 0.01, 0.01, 1.01
218, 0.00, 45589.60, 0.00, 0.00, 0.00, 0.00, 0.00, 0.00, 0.01, 0.01, 1.01
219, 0.00, 45596.86, 0.00, 0.00, 0.00, 0.00, 0.00, 0.00, 0.01, 0.01, 1.01
220, 0.00, 45578.96, 0.00, 0.00, 0.00, 0.00, 0.00, 0.00, 0.01, 0.01, 1.01
221, 0.00, 45569.71, 0.00, 0.00, 0.00, 0.00, 0.00, 0.00, 0.01, 0.01, 1.01
222, 0.00, 45589.93, 0.00, 0.00, 0.00, 0.00, 0.00, 0.00, 0.01, 0.01, 1.01
223, 0.00, 45609.38, 0.00, 0.00, 0.00, 0.00, 0.00, 0.00, 0.01, 0.01, 1.00
224, 0.00, 45587.19, 0.00, 0.00, 0.00, 0.00, 0.00, 0.00, 0.01, 0.01, 1.00
225, 0.00, 45568.57, 0.00, 0.00, 0.00, 0.00, 0.00, 0.00, 0.01, 0.01, 1.00
226, 0.00, 45583.97, 0.00, 0.00, 0.00, 0.00, 0.00, 0.00, 0.01, 0.01, 1.00
227, 0.00, 45601.04, 0.00, 0.00, 0.00, 0.00, 0.00, 0.00, 0.01, 0.01, 1.00
228, 0.00, 45594.72, 0.00, 0.00, 0.00, 0.00, 0.00, 0.00, 0.00, 0.00, 1.01
229, 0.00, 45574.29, 0.00, 0.00, 0.00, 0.00, 0.00, 0.00, 0.00, 0.00, 1.01
230, 0.00, 45580.48, 0.00, 0.00, 0.00, 0.00, 0.00, 0.00, 0.00, 0.00, 1.01
231, 0.00, 45606.68, 0.00, 0.00, 0.00, 0.00, 0.00, 0.00, 0.00, 0.00, 1.01
232, 0.00, 45596.73, 0.00, 0.00, 0.00, 0.00, 0.00, 0.00, 0.00, 0.00, 1.01
233, 0.00, 45569.84, 0.00, 0.00, 0.00, 0.00, 0.00, 0.00, 0.01, 0.01, 1.01
234, 0.00, 45577.04, 0.00, 0.00, 0.00, 0.00, 0.00, 0.00, 0.01, 0.01, 1.01
235, 0.00, 45604.62, 0.00, 0.00, 0.00, 0.00, 0.00, 0.00, 0.01, 0.01, 1.01
236, 0.00, 45602.50, 0.00, 0.00, 0.00, 0.00, 0.00, 0.00, 0.01, 0.01, 1.01
237, 0.00, 45573.82, 0.00, 0.00, 0.00, 0.00, 0.00, 0.00, 0.01, 0.01, 1.01
238, 0.00, 45571.03, 0.00, 0.00, 0.00, 0.00, 0.00, 0.00, 0.00, 0.01, 1.01
239, 0.00, 45596.75, 0.00, 0.00, 0.00, 0.00, 0.00, 0.00, 0.00, 0.01, 1.01
240, 0.00, 45601.63, 0.00, 0.00, 0.00, 0.00, 0.00, 0.00, 0.00, 0.01, 1.01
241, 0.00, 45574.71, 0.00, 0.00, 0.00, 0.00, 0.00, 0.00, 0.00, 0.01, 1.01
242, 0.00, 45568.14, 0.00, 0.00, 0.00, 0.00, 0.00, 0.00, 0.00, 0.01, 1.01
243, 0.00, 45590.47, 0.00, 0.00, 0.00, 0.00, 0.00, 0.00, 0.01, 0.01, 1.01
244, 0.00, 45599.82, 0.00, 0.00, 0.00, 0.00, 0.00, 0.00, 0.01, 0.01, 1.01
245, 0.00, 45581.11, 0.00, 0.00, 0.00, 0.00, 0.00, 0.00, 0.01, 0.01, 1.01
246, 0.00, 45574.78, 0.00, 0.00, 0.00, 0.00, 0.00, 0.00, 0.01, 0.01, 1.01
247, 0.00, 45591.32, 0.00, 0.00, 0.00, 0.00, 0.00, 0.00, 0.01, 0.01, 1.01
248, 0.00, 45602.95, 0.00, 0.00, 0.00, 0.00, 0.00, 0.00, 0.02, 0.01, 1.01
249, 0.00, 45590.70, 0.00, 0.00, 0.00, 0.00, 0.00, 0.00, 0.02, 0.01, 1.01
250, 0.00, 45572.10, 0.00, 0.00, 0.00, 0.00, 0.00, 0.00, 0.02, 0.01, 1.01
251, 0.00, 45582.20, 0.00, 0.00, 0.00, 0.00, 0.00, 0.00, 0.02, 0.01, 1.01
252, 0.00, 45601.49, 0.00, 0.00, 0.00, 0.00, 0.00, 0.00, 0.02, 0.01, 1.01
253, 0.00, 45593.42, 0.00, 0.00, 0.00, 0.00, 0.00, 0.00, 0.01, 0.01, 1.01
254, 0.00, 45574.51, 0.00, 0.00, 0.00, 0.00, 0.00, 0.00, 0.01, 0.01, 1.01
255, 0.00, 45578.11, 0.00, 0.00, 0.00, 0.00, 0.00, 0.00, 0.01, 0.01, 1.01
0, 0.00, 45609.31, 0.00, 0.00, 0.00, 0.00, 0.00, 0.00, 0.01, 0.01, 1.01
1, 0.00, 45600.38, 0.00, 0.00, 0.00, 0.00, 0.00, 0.00, 0.01, 0.01, 1.01
2, 0.00, 45574.13, 0.00, 0.00, 0.00, 0.00, 0.00, 0.00, 0.01, 0.01, 1.01
3, 0.00, 45576.41, 0.00, 0.00, 0.00, 0.00, 0.00, 0.00, 0.01, 0.01, 1.01
4, 0.00, 45594.36, 0.00, 0.00, 0.00, 0.00, 0.00, 0.00, 0.01, 0.01, 1.01
5, 0.00, 45588.41, 0.00, 0.00, 0.00, 0.00, 0.00, 0.00, 0.01, 0.01, 1.01
6, 0.00, 45573.73, 0.00, 0.00, 0.00, 0.00, 0.00, 0.00, 0.01, 0.01, 1.01
7, 0.00, 45571.16, 0.00, 0.00, 0.00, 0.00, 0.00, 0.00, 0.01, 0.01, 1.02
8, 0.00, 45600.71, 0.00, 0.00, 0.00, 0.00, 0.00, 0.00, 0.01, 0.01, 1.02
9, 0.00, 45602.95, 0.00, 0.00, 0.00, 0.00, 0.00, 0.00, 0.01, 0.01, 1.02
10, 0.00, 45581.87, 0.00, 0.00, 0.00, 0.00, 0.00, 0.00, 0.01, 0.01, 1.02
11, 0.00, 45574.63, 0.00, 0.00, 0.00, 0.00, 0.00, 0.00, 0.01, 0.01, 1.02
12, 0.00, 45593.63, 0.00, 0.00, 0.00, 0.00, 0.00, 0.00, 0.01, 0.00, 1.02
13, 0.00, 45607.53, 0.00, 0.00, 0.00, 0.00, 0.00, 0.00, 0.01, 0.00, 1.02
14, 0.00, 45588.57, 0.00, 0.00, 0.00, 0.00, 0.00, 0.00, 0.01, 0.00, 1.02
15, 0.00, 45576.12, 0.00, 0.00, 0.00, 0.00, 0.00, 0.00, 0.01, 0.00, 1.02
16, 0.00, 45595.39, 0.00, 0.00, 0.00, 0.00, 0.00, 0.00, 0.01, 0.00, 1.02
17, 0.00, 45608.49, 0.00, 0.00, 0.00, 0.00, 0.00, 0.00, 0.01, 0.01, 1.02
18, 0.00, 45590.16, 0.00, 0.00, 0.00, 0.00, 0.00, 0.00, 0.01, 0.01, 1.02
19, 0.00, 45569.57, 0.00, 0.00, 0.00, 0.00, 0.00, 0.00, 0.01, 0.01, 1.02
20, 0.00, 45584.17, 0.00, 0.00, 0.00, 0.00, 0.00, 0.00, 0.01, 0.01, 1.02
21, 0.00, 45598.96, 0.00, 0.00, 0.00, 0.00, 0.00, 0.00, 0.01, 0.01, 1.02
22, 0.00, 45590.47, 0.00, 0.00, 0.00, 0.00, 0.00, 0.00, 0.01, 0.02, 1.02
23, 0.00, 45577.73, 0.00, 0.00, 0.00, 0.00, 0.00, 0.00, 0.01, 0.02, 1.02
24, 0.00, 45585.66, 0.00, 0.00, 0.00, 0.00, 0.00, 0.00, 0.01, 0.02, 1.02
25, 0.00, 45607.23, 0.00, 0.00, 0.00, 0.00, 0.00, 0.00, 0.01, 0.02, 1.02
26, 0.00, 45601.56, 0.00, 0.00, 0.00, 0.00, 0.00, 0.00, 0.01, 0.02, 1.02
27, 0.00, 45575.45, 0.00, 0.00, 0.00, 0.00, 0.00, 0.00, 0.01, 0.02, 1.02
28, 0.00, 45578.40, 0.00, 0.00, 0.00, 0.00, 0.00, 0.00, 0.01, 0.02, 1.02
29, 0.00, 45609.11, 0.00, 0.00, 0.00, 0.00, 0.00, 0.00, 0.01, 0.02, 1.02
30, 0.00, 45608.93, 0.00, 0.00, 0.00, 0.00, 0.00, 0.00, 0.01, 0.02, 1.02
31, 0.00, 45584.79, 0.00, 0.00, 0.00, 0.00, 0.00, 0.00, 0.01, 0.02, 1.02
32, 0.00, 45583.77, 0.00, 0.00, 0.00, 0.00, 0.00, 0.00, 0.01, 0.01, 1.02
33, 0.00, 45604.20, 0.00, 0.00, 0.00, 0.00, 0.00, 0.00, 0.01, 0.01, 1.02
34, 0.00, 45604.08, 0.00, 0.00, 0.00, 0.00, 0.00, 0.00, 0.01, 0.01, 1.02
35, 0.00, 45585.29, 0.00, 0.00, 0.00, 0.00, 0.00, 0.00, 0.01, 0.01, 1.02
36, 0.00, 45574.31, 0.00, 0.00, 0.00, 0.00, 0.00, 0.00, 0.01, 0.01, 1.02
37, 0.00, 45595.81, 0.00, 0.00, 0.00, 0.00, 0.00, 0.00, 0.01, 0.01, 1.01
38, 0.00, 45613.76, 0.00, 0.00, 0.00, 0.00, 0.00, 0.00, 0.01, 0.01, 1.01
39, 0.00, 45596.62, 0.00, 0.00, 0.00, 0.00, 0.00, 0.00, 0.01, 0.01, 1.01
40, 0.00, 45586.79, 0.00, 0.00, 0.00, 0.00, 0.00, 0.00, 0.01, 0.01, 1.01
41, 0.00, 45598.18, 0.00, 0.00, 0.00, 0.00, 0.00, 0.00, 0.01, 0.01, 1.01
42, 0.00, 45611.06, 0.00, 0.00, 0.00, 0.00, 0.00, 0.00, 0.01, 0.01, 1.02
43, 0.00, 45599.79, 0.00, 0.00, 0.00, 0.00, 0.00, 0.00, 0.01, 0.01, 1.02
44, 0.00, 45580.95, 0.00, 0.00, 0.00, 0.00, 0.00, 0.00, 0.01, 0.01, 1.02
45, 0.00, 45589.58, 0.00, 0.00, 0.00, 0.00, 0.00, 0.00, 0.01, 0.01, 1.02
46, 0.00, 45622.05, 0.00, 0.00, 0.00, 0.00, 0.00, 0.00, 0.01, 0.01, 1.02
47, 0.00, 45612.06, 0.00, 0.00, 0.00, 0.00, 0.00, 0.00, 0.01, 0.01, 1.02
48, 0.00, 45588.80, 0.00, 0.00, 0.00, 0.00, 0.00, 0.00, 0.01, 0.01, 1.02
49, 0.00, 45590.88, 0.00, 0.00, 0.00, 0.00, 0.00, 0.00, 0.01, 0.01, 1.02
50, 0.00, 45612.29, 0.00, 0.00, 0.00, 0.00, 0.00, 0.00, 0.01, 0.01, 1.02
51, 0.00, 45601.25, 0.00, 0.00, 0.00, 0.00, 0.00, 0.00, 0.01, 0.01, 1.02
52, 0.00, 45578.98, 0.00, 0.00, 0.00, 0.00, 0.00, 0.00, 0.01, 0.00, 1.02
53, 0.00, 45585.04, 0.00, 0.00, 0.00, 0.00, 0.00, 0.00, 0.01, 0.00, 1.02
54, 0.00, 45608.42, 0.00, 0.00, 0.00, 0.00, 0.00, 0.00, 0.01, 0.00, 1.02
55, 0.00, 45609.16, 0.00, 0.00, 0.00, 0.00, 0.00, 0.00, 0.01, 0.00, 1.02
56, 0.00, 45590.74, 0.00, 0.00, 0.00, 0.00, 0.00, 0.00, 0.01, 0.00, 1.02
57, 0.00, 45577.84, 0.00, 0.00, 0.00, 0.00, 0.00, 0.00, 0.01, 0.00, 1.02
58, 0.00, 45598.56, 0.00, 0.00, 0.00, 0.00, 0.00, 0.00, 0.01, 0.00, 1.02
59, 0.00, 45613.89, 0.00, 0.00, 0.00, 0.00, 0.00, 0.00, 0.01, 0.00, 1.02
60, 0.00, 45587.84, 0.00, 0.00, 0.00, 0.00, 0.00, 0.00, 0.01, 0.00, 1.02
61, 0.00, 45579.09, 0.00, 0.00, 0.00, 0.00, 0.00, 0.00, 0.01, 0.00, 1.02
62, 0.00, 45613.83, 0.00, 0.00, 0.00, 0.00, 0.00, 0.00, 0.01, 0.01, 1.02
63, 0.00, 45614.61, 0.00, 0.00, 0.00, 0.00, 0.00, 0.00, 0.01, 0.01, 1.02
64, 0.00, 45594.03, 0.00, 0.00, 0.00, 0.00, 0.00, 0.00, 0.01, 0.01, 1.02
65, 0.00, 45571.79, 0.00, 0.00, 0.00, 0.00, 0.00, 0.00, 0.01, 0.01, 1.02
66, 0.00, 45592.26, 0.00, 0.00, 0.00, 0.00, 0.00, 0.00, 0.01, 0.01, 1.02
67, 0.00, 45614.19, 0.00, 0.00, 0.00, 0.00, 0.00, 0.00, 0.01, 0.01, 1.01
68, 0.00, 45600.39, 0.00, 0.00, 0.00, 0.00, 0.00, 0.00, 0.01, 0.01, 1.01
69, 0.00, 45572.81, 0.00, 0.00, 0.00, 0.00, 0.00, 0.00, 0.01, 0.01, 1.01
70, 0.00, 45583.72, 0.00, 0.00, 0.00, 0.00, 0.00, 0.00, 0.01, 0.01, 1.01
71, 0.00, 45602.16, 0.00, 0.00, 0.00, 0.00, 0.00, 0.00, 0.01, 0.01, 1.01
72, 0.00, 45588.26, 0.00, 0.00, 0.00, 0.00, 0.00, 0.00, 0.01, 0.01, 1.01
73, 0.00, 45564.90, 0.00, 0.00, 0.00, 0.00, 0.00, 0.00, 0.01, 0.01, 1.01
74, 0.00, 45580.32, 0.00, 0.00, 0.00, 0.00, 0.00, 0.00, 0.01, 0.01, 1.01
75, 0.00, 45605.00, 0.00, 0.00, 0.00, 0.00, 0.00, 0.00, 0.01, 0.01, 1.01
76, 0.00, 45597.71, 0.00, 0.00, 0.00, 0.00, 0.00, 0.00, 0.01, 0.01, 1.01
77, 0.00, 45570.42, 0.00, 0.00, 0.00, 0.00, 0.00, 0.00, 0.01, 0.01, 1.01
78, 0.00, 45560.43, 0.00, 0.00, 0.00, 0.00, 0.00, 0.00, 0.01, 0.01, 1.01
79, 0.00, 45595.50, 0.00, 0.00, 0.00, 0.00, 0.00, 0.00, 0.01, 0.01, 1.01
80, 0.00, 45607.59, 0.00, 0.00, 0.00, 0.00, 0.00, 0.00, 0.01, 0.01, 1.01
81, 0.00, 45585.66, 0.00, 0.00, 0.00, 0.00, 0.00, 0.00, 0.01, 0.01, 1.01
82, 0.00, 45577.35, 0.00, 0.00, 0.00, 0.00, 0.00, 0.00, 0.00, 0.01, 1.01
83, 0.00, 45593.76, 0.00, 0.00, 0.00, 0.00, 0.00, 0.00, 0.00, 0.01, 1.01
84, 0.00, 45604.35, 0.00, 0.00, 0.00, 0.00, 0.00, 0.00, 0.00, 0.01, 1.01
85, 0.00, 45588.21, 0.00, 0.00, 0.00, 0.00, 0.00, 0.00, 0.00, 0.01, 1.01
86, 0.00, 45568.32, 0.00, 0.00, 0.00, 0.00, 0.00, 0.00, 0.00, 0.01, 1.01
87, 0.00, 45590.96, 0.00, 0.00, 0.00, 0.00, 0.00, 0.00, 0.00, 0.01, 1.01
88, 0.00, 45602.81, 0.00, 0.00, 0.00, 0.00, 0.00, 0.00, 0.00, 0.01, 1.01
89, 0.00, 45592.06, 0.00, 0.00, 0.00, 0.00, 0.00, 0.00, 0.00, 0.01, 1.01
90, 0.00, 45571.92, 0.00, 0.00, 0.00, 0.00, 0.00, 0.00, 0.00, 0.01, 1.01
91, 0.00, 45586.34, 0.00, 0.00, 0.00, 0.00, 0.00, 0.00, 0.00, 0.01, 1.01
92, 0.00, 45605.58, 0.00, 0.00, 0.00, 0.00, 0.00, 0.00, 0.00, 0.01, 1.01
93, 0.00, 45588.19, 0.00, 0.00, 0.00, 0.00, 0.00, 0.00, 0.01, 0.01, 1.01
94, 0.00, 45565.44, 0.00, 0.00, 0.00, 0.00, 0.00, 0.00, 0.01, 0.01, 1.01
95, 0.00, 45566.96, 0.00, 0.00, 0.00, 0.00, 0.00, 0.00, 0.01, 0.01, 1.01
96, 0.00, 45596.68, 0.00, 0.00, 0.00, 0.00, 0.00, 0.00, 0.01, 0.01, 1.01
97, 0.00, 45590.63, 0.00, 0.00, 0.00, 0.00, 0.00, 0.00, 0.01, 0.01, 1.01
98, 0.00, 45561.41, 0.00, 0.00, 0.00, 0.00, 0.00, 0.00, 0.01, 0.01, 1.01
99, 0.00, 45569.17, 0.00, 0.00, 0.00, 0.00, 0.00, 0.00, 0.01, 0.01, 1.01
100, 0.00, 45587.16, 0.00, 0.00, 0.00, 0.00, 0.00, 0.00, 0.01, 0.01, 1.01
101, 0.00, 45584.50, 0.00, 0.00, 0.00, 0.00, 0.00, 0.00, 0.01, 0.01, 1.01
102, 0.00, 45570.36, 0.00, 0.00, 0.00, 0.00, 0.00, 0.00, 0.01, 0.01, 1.01
103, 0.00, 45564.12, 0.00, 0.00, 0.00, 0.00, 0.00, 0.00, 0.01, 0.01, 1.02
104, 0.00, 45588.13, 0.00, 0.00, 0.00, 0.00, 0.00, 0.00, 0.01, 0.01, 1.02
105, 0.00, 45593.89, 0.00, 0.00, 0.00, 0.00, 0.00, 0.00, 0.01, 0.01, 1.02
106, 0.00, 45570.69, 0.00, 0.00, 0.00, 0.00, 0.00, 0.00, 0.01, 0.01, 1.02
107, 0.00, 45564.27, 0.00, 0.00, 0.00, 0.00, 0.00, 0.00, 0.01, 0.01, 1.02
108, 0.00, 45586.74, 0.00, 0.00, 0.00, 0.00, 0.00, 0.00, 0.01, 0.01, 1.02
109, 0.00, 45596.39, 0.00, 0.00, 0.00, 0.00, 0.00, 0.00, 0.01, 0.01, 1.02
110, 0.00, 45573.42, 0.00, 0.00, 0.00, 0.00, 0.00, 0.00, 0.01, 0.01, 1.02
111, 0.00, 45561.48, 0.00, 0.00, 0.00, 0.00, 0.00, 0.00, 0.01, 0.01, 1.02
112, 0.00, 45576.17, 0.00, 0.00, 0.00, 0.00, 0.00, 0.00, 0.01, 0.01, 1.02
113, 0.00, 45588.64, 0.00, 0.00, 0.00, 0.00, 0.00, 0.00, 0.02, 0.01, 1.02
114, 0.00, 45575.12, 0.00, 0.00, 0.00, 0.00, 0.00, 0.00, 0.02, 0.01, 1.02
115, 0.00, 45551.25, 0.00, 0.00, 0.00, 0.00, 0.00, 0.00, 0.02, 0.01, 1.02
116, 0.00, 45567.92, 0.00, 0.00, 0.00, 0.00, 0.00, 0.00, 0.02, 0.01, 1.02
117, 0.00, 45592.93, 0.00, 0.00, 0.00, 0.00, 0.00, 0.00, 0.02, 0.01, 1.02
118, 0.00, 45578.02, 0.00, 0.00, 0.00, 0.00, 0.00, 0.00, 0.01, 0.02, 1.03
119, 0.00, 45558.38, 0.00, 0.00, 0.00, 0.00, 0.00, 0.00, 0.01, 0.02, 1.03
120, 0.00, 45563.18, 0.00, 0.00, 0.00, 0.00, 0.00, 0.00, 0.01, 0.02, 1.03
121, 0.00, 45582.54, 0.00, 0.00, 0.00, 0.00, 0.00, 0.00, 0.01, 0.02, 1.03
122, 0.00, 45577.53, 0.00, 0.00, 0.00, 0.00, 0.00, 0.00, 0.01, 0.02, 1.03
123, 0.00, 45551.94, 0.00, 0.00, 0.00, 0.00, 0.00, 0.00, 0.01, 0.01, 1.02
124, 0.00, 45553.93, 0.00, 0.00, 0.00, 0.00, 0.00, 0.00, 0.01, 0.01, 1.02
125, 0.00, 45577.91, 0.00, 0.00, 0.00, 0.00, 0.00, 0.00, 0.01, 0.01, 1.02
126, 0.00, 45580.10, 0.00, 0.00, 0.00, 0.00, 0.00, 0.00, 0.01, 0.01, 1.02
127, 0.00, 45556.32, 0.00, 0.00, 0.00, 0.00, 0.00, 0.00, 0.01, 0.01, 1.02
128, 0.00, 45544.72, 0.00, 0.00, 0.00, 0.00, 0.00, 0.00, 0.01, 0.01, 1.02
129, 0.00, 45567.29, 0.00, 0.00, 0.00, 0.00, 0.00, 0.00, 0.01, 0.01, 1.02
130, 0.00, 45575.36, 0.00, 0.00, 0.00, 0.00, 0.00, 0.00, 0.01, 0.01, 1.02
131, 0.00, 45549.86, 0.00, 0.00, 0.00, 0.00, 0.00, 0.00, 0.01, 0.01, 1.02
132, 0.00, 45543.18, 0.00, 0.00, 0.00, 0.00, 0.00, 0.00, 0.01, 0.01, 1.02
133, 0.00, 45566.91, 0.00, 0.00, 0.00, 0.00, 0.00, 0.00, 0.01, 0.01, 1.02
134, 0.00, 45583.39, 0.00, 0.00, 0.00, 0.00, 0.00, 0.00, 0.01, 0.01, 1.02
135, 0.00, 45558.91, 0.00, 0.00, 0.00, 0.00, 0.00, 0.00, 0.01, 0.01, 1.02
136, 0.00, 45543.87, 0.00, 0.00, 0.00, 0.00, 0.00, 0.00, 0.01, 0.01, 1.02
137, 0.00, 45567.56, 0.00, 0.00, 0.00, 0.00, 0.00, 0.00, 0.01, 0.01, 1.02
138, 0.00, 45585.22, 0.00, 0.00, 0.00, 0.00, 0.00, 0.00, 0.01, 0.02, 1.02
139, 0.00, 45560.41, 0.00, 0.00, 0.00, 0.00, 0.00, 0.00, 0.01, 0.02, 1.02
140, 0.00, 45546.42, 0.00, 0.00, 0.00, 0.00, 0.00, 0.00, 0.01, 0.02, 1.02
141, 0.00, 45567.02, 0.00, 0.00, 0.00, 0.00, 0.00, 0.00, 0.01, 0.02, 1.02
142, 0.00, 45593.06, 0.00, 0.00, 0.00, 0.00, 0.00, 0.00, 0.01, 0.02, 1.02
143, 0.00, 45578.74, 0.00, 0.00, 0.00, 0.00, 0.00, 0.00, 0.01, 0.01, 1.03
144, 0.00, 45555.11, 0.00, 0.00, 0.00, 0.00, 0.00, 0.00, 0.01, 0.01, 1.03
145, 0.00, 45563.05, 0.00, 0.00, 0.00, 0.00, 0.00, 0.00, 0.01, 0.01, 1.03
146, 0.00, 45583.57, 0.00, 0.00, 0.00, 0.00, 0.00, 0.00, 0.01, 0.01, 1.03
147, 0.00, 45568.52, 0.00, 0.00, 0.00, 0.00, 0.00, 0.00, 0.01, 0.01, 1.03
148, 0.00, 45534.77, 0.00, 0.00, 0.00, 0.00, 0.00, 0.00, 0.01, 0.01, 1.02
149, 0.00, 45539.29, 0.00, 0.00, 0.00, 0.00, 0.00, 0.00, 0.01, 0.01, 1.02
150, 0.00, 45570.91, 0.00, 0.00, 0.00, 0.00, 0.00, 0.00, 0.01, 0.01, 1.02
151, 0.00, 45573.89, 0.00, 0.00, 0.00, 0.00, 0.00, 0.00, 0.01, 0.01, 1.02
152, 0.00, 45551.42, 0.00, 0.00, 0.00, 0.00, 0.00, 0.00, 0.01, 0.01, 1.02
153, 0.00, 45549.61, 0.00, 0.00, 0.00, 0.00, 0.00, 0.00, 0.01, 0.01, 1.02
154, 0.00, 45568.25, 0.00, 0.00, 0.00, 0.00, 0.00, 0.00, 0.01, 0.01, 1.02
155, 0.00, 45569.24, 0.00, 0.00, 0.00, 0.00, 0.00, 0.00, 0.01, 0.01, 1.02
156, 0.00, 45553.39, 0.00, 0.00, 0.00, 0.00, 0.00, 0.00, 0.01, 0.01, 1.02
157, 0.00, 45541.66, 0.00, 0.00, 0.00, 0.00, 0.00, 0.00, 0.01, 0.01, 1.02
158, 0.00, 45568.37, 0.00, 0.00, 0.00, 0.00, 0.00, 0.00, 0.01, 0.01, 1.02
159, 0.00, 45583.83, 0.00, 0.00, 0.00, 0.00, 0.00, 0.00, 0.01, 0.01, 1.02
160, 0.00, 45566.29, 0.00, 0.00, 0.00, 0.00, 0.00, 0.00, 0.01, 0.01, 1.02
161, 0.00, 45545.66, 0.00, 0.00, 0.00, 0.00, 0.00, 0.00, 0.01, 0.01, 1.02
162, 0.00, 45560.90, 0.00, 0.00, 0.00, 0.00, 0.00, 0.00, 0.01, 0.01, 1.02
163, 0.00, 45578.07, 0.00, 0.00, 0.00, 0.00, 0.00, 0.00, 0.01, 0.00, 1.02
164, 0.00, 45555.63, 0.00, 0.00, 0.00, 0.00, 0.00, 0.00, 0.01, 0.00, 1.02
165, 0.00, 45537.32, 0.00, 0.00, 0.00, 0.00, 0.00, 0.00, 0.01, 0.00, 1.02
166, 0.00, 45555.22, 0.00, 0.00, 0.00, 0.00, 0.00, 0.00, 0.01, 0.00, 1.02
167, 0.00, 45587.14, 0.00, 0.00, 0.00, 0.00, 0.00, 0.00, 0.01, 0.00, 1.02
168, 0.00, 45584.05, 0.00, 0.00, 0.00, 0.00, 0.00, 0.00, 0.01, 0.01, 1.03
169, 0.00, 45553.70, 0.00, 0.00, 0.00, 0.00, 0.00, 0.00, 0.01, 0.01, 1.03
170, 0.00, 45565.28, 0.00, 0.00, 0.00, 0.00, 0.00, 0.00, 0.01, 0.01, 1.03
171, 0.00, 45582.45, 0.00, 0.00, 0.00, 0.00, 0.00, 0.00, 0.01, 0.01, 1.03
172, 0.00, 45576.50, 0.00, 0.00, 0.00, 0.00, 0.00, 0.00, 0.01, 0.01, 1.03
173, 0.00, 45547.76, 0.00, 0.00, 0.00, 0.00, 0.00, 0.00, 0.01, 0.01, 1.02
174, 0.00, 45546.33, 0.00, 0.00, 0.00, 0.00, 0.00, 0.00, 0.01, 0.01, 1.02
175, 0.00, 45578.20, 0.00, 0.00, 0.00, 0.00, 0.00, 0.00, 0.01, 0.01, 1.02
176, 0.00, 45580.14, 0.00, 0.00, 0.00, 0.00, 0.00, 0.00, 0.01, 0.01, 1.02
177, 0.00, 45552.70, 0.00, 0.00, 0.00, 0.00, 0.00, 0.00, 0.01, 0.01, 1.02
178, 0.00, 45549.23, 0.00, 0.00, 0.00, 0.00, 0.00, 0.00, 0.01, 0.01, 1.02
179, 0.00, 45569.77, 0.00, 0.00, 0.00, 0.00, 0.00, 0.00, 0.01, 0.01, 1.02
180, 0.00, 45573.20, 0.00, 0.00, 0.00, 0.00, 0.00, 0.00, 0.01, 0.01, 1.02
181, 0.00, 45546.10, 0.00, 0.00, 0.00, 0.00, 0.00, 0.00, 0.01, 0.01, 1.02
182, 0.00, 45534.82, 0.00, 0.00, 0.00, 0.00, 0.00, 0.00, 0.01, 0.01, 1.02
183, 0.00, 45556.07, 0.00, 0.00, 0.00, 0.00, 0.00, 0.00, 0.01, 0.00, 1.02
184, 0.00, 45571.43, 0.00, 0.00, 0.00, 0.00, 0.00, 0.00, 0.01, 0.00, 1.02
185, 0.00, 45552.50, 0.00, 0.00, 0.00, 0.00, 0.00, 0.00, 0.01, 0.00, 1.02
186, 0.00, 45535.80, 0.00, 0.00, 0.00, 0.00, 0.00, 0.00, 0.01, 0.00, 1.02
187, 0.00, 45553.70, 0.00, 0.00, 0.00, 0.00, 0.00, 0.00, 0.01, 0.00, 1.02
188, 0.00, 45575.83, 0.00, 0.00, 0.00, 0.00, 0.00, 0.00, 0.01, 0.00, 1.02
189, 0.00, 45559.11, 0.00, 0.00, 0.00, 0.00, 0.00, 0.00, 0.01, 0.00, 1.02
190, 0.00, 45543.55, 0.00, 0.00, 0.00, 0.00, 0.00, 0.00, 0.01, 0.00, 1.02
191, 0.00, 45554.06, 0.00, 0.00, 0.00, 0.00, 0.00, 0.00, 0.01, 0.00, 1.02
192, 0.00, 45578.31, 0.00, 0.00, 0.00, 0.00, 0.00, 0.00, 0.01, 0.00, 1.02
193, 0.00, 45577.17, 0.00, 0.00, 0.00, 0.00, 0.00, 0.00, 0.01, 0.01, 1.02
194, 0.00, 45543.80, 0.00, 0.00, 0.00, 0.00, 0.00, 0.00, 0.01, 0.01, 1.02
195, 0.00, 45551.40, 0.00, 0.00, 0.00, 0.00, 0.00, 0.00, 0.01, 0.01, 1.02
196, 0.00, 45578.76, 0.00, 0.00, 0.00, 0.00, 0.00, 0.00, 0.01, 0.01, 1.02
197, 0.00, 45577.53, 0.00, 0.00, 0.00, 0.00, 0.00, 0.00, 0.01, 0.01, 1.02
198, 0.00, 45549.55, 0.00, 0.00, 0.00, 0.00, 0.00, 0.00, 0.01, 0.01, 1.02
199, 0.00, 45545.81, 0.00, 0.00, 0.00, 0.00, 0.00, 0.00, 0.01, 0.01, 1.02
200, 0.00, 45572.64, 0.00, 0.00, 0.00, 0.00, 0.00, 0.00, 0.01, 0.01, 1.02
201, 0.00, 45579.36, 0.00, 0.00, 0.00, 0.00, 0.00, 0.00, 0.01, 0.01, 1.02
202, 0.00, 45551.63, 0.00, 0.00, 0.00, 0.00, 0.00, 0.00, 0.01, 0.01, 1.02
203, 0.00, 45541.68, 0.00, 0.00, 0.00, 0.00, 0.00, 0.00, 0.01, 0.01, 1.01
204, 0.00, 45573.71, 0.00, 0.00, 0.00, 0.00, 0.00, 0.00, 0.01, 0.01, 1.01
205, 0.00, 45585.89, 0.00, 0.00, 0.00, 0.00, 0.00, 0.00, 0.01, 0.01, 1.01
206, 0.00, 45559.83, 0.00, 0.00, 0.00, 0.00, 0.00, 0.00, 0.01, 0.01, 1.01
207, 0.00, 45546.19, 0.00, 0.00, 0.00, 0.00, 0.00, 0.00, 0.01, 0.01, 1.01
208, 0.00, 45563.96, 0.00, 0.00, 0.00, 0.00, 0.00, 0.00, 0.02, 0.01, 1.01
209, 0.00, 45578.54, 0.00, 0.00, 0.00, 0.00, 0.00, 0.00, 0.02, 0.01, 1.01
210, 0.00, 45560.25, 0.00, 0.00, 0.00, 0.00, 0.00, 0.00, 0.02, 0.01, 1.01
211, 0.00, 45537.32, 0.00, 0.00, 0.00, 0.00, 0.00, 0.00, 0.02, 0.01, 1.01
212, 0.00, 45551.27, 0.00, 0.00, 0.00, 0.00, 0.00, 0.00, 0.02, 0.01, 1.01
213, 0.00, 45571.56, 0.00, 0.00, 0.00, 0.00, 0.00, 0.00, 0.01, 0.02, 1.02
214, 0.00, 45556.45, 0.00, 0.00, 0.00, 0.00, 0.00, 0.00, 0.01, 0.02, 1.02
215, 0.00, 45532.47, 0.00, 0.00, 0.00, 0.00, 0.00, 0.00, 0.01, 0.02, 1.02
216, 0.00, 45542.37, 0.00, 0.00, 0.00, 0.00, 0.00, 0.00, 0.01, 0.02, 1.02
217, 0.00, 45569.37, 0.00, 0.00, 0.00, 0.00, 0.00, 0.00, 0.01, 0.02, 1.02
218, 0.00, 45559.25, 0.00, 0.00, 0.00, 0.00, 0.00, 0.00, 0.01, 0.01, 1.02
219, 0.00, 45536.71, 0.00, 0.00, 0.00, 0.00, 0.00, 0.00, 0.01, 0.01, 1.02
220, 0.00, 45545.68, 0.00, 0.00, 0.00, 0.00, 0.00, 0.00, 0.01, 0.01, 1.02
221, 0.00, 45581.33, 0.00, 0.00, 0.00, 0.00, 0.00, 0.00, 0.01, 0.01, 1.02
222, 0.00, 45576.32, 0.00, 0.00, 0.00, 0.00, 0.00, 0.00, 0.01, 0.01, 1.02
223, 0.00, 45545.41, 0.00, 0.00, 0.00, 0.00, 0.00, 0.00, 0.01, 0.01, 1.02
224, 0.00, 45540.49, 0.00, 0.00, 0.00, 0.00, 0.00, 0.00, 0.01, 0.01, 1.02
225, 0.00, 45567.54, 0.00, 0.00, 0.00, 0.00, 0.00, 0.00, 0.01, 0.01, 1.02
226, 0.00, 45578.40, 0.00, 0.00, 0.00, 0.00, 0.00, 0.00, 0.01, 0.01, 1.02
227, 0.00, 45550.84, 0.00, 0.00, 0.00, 0.00, 0.00, 0.00, 0.01, 0.01, 1.02
228, 0.00, 45542.26, 0.00, 0.00, 0.00, 0.00, 0.00, 0.00, 0.01, 0.01, 1.01
229, 0.00, 45559.61, 0.00, 0.00, 0.00, 0.00, 0.00, 0.00, 0.01, 0.01, 1.01
230, 0.00, 45571.54, 0.00, 0.00, 0.00, 0.00, 0.00, 0.00, 0.01, 0.01, 1.01
231, 0.00, 45548.45, 0.00, 0.00, 0.00, 0.00, 0.00, 0.00, 0.01, 0.01, 1.01
232, 0.00, 45529.94, 0.00, 0.00, 0.00, 0.00, 0.00, 0.00, 0.01, 0.01, 1.01
233, 0.00, 45543.20, 0.00, 0.00, 0.00, 0.00, 0.00, 0.00, 0.01, 0.01, 1.01
234, 0.00, 45561.64, 0.00, 0.00, 0.00, 0.00, 0.00, 0.00, 0.01, 0.01, 1.01
235, 0.00, 45542.41, 0.00, 0.00, 0.00, 0.00, 0.00, 0.00, 0.01, 0.01, 1.01
236, 0.00, 45529.92, 0.00, 0.00, 0.00, 0.00, 0.00, 0.00, 0.01, 0.01, 1.01
237, 0.00, 45548.36, 0.00, 0.00, 0.00, 0.00, 0.00, 0.00, 0.01, 0.01, 1.01
238, 0.00, 45570.15, 0.00, 0.00, 0.00, 0.00, 0.00, 0.00, 0.01, 0.01, 1.02
239, 0.00, 45556.65, 0.00, 0.00, 0.00, 0.00, 0.00, 0.00, 0.01, 0.01, 1.02
240, 0.00, 45523.80, 0.00, 0.00, 0.00, 0.00, 0.00, 0.00, 0.01, 0.01, 1.02
241, 0.00, 45536.80, 0.00, 0.00, 0.00, 0.00, 0.00, 0.00, 0.01, 0.01, 1.02
242, 0.00, 45562.98, 0.00, 0.00, 0.00, 0.00, 0.00, 0.00, 0.01, 0.01, 1.02
243, 0.00, 45552.27, 0.00, 0.00, 0.00, 0.00, 0.00, 0.00, 0.01, 0.01, 1.02
244, 0.00, 45528.60, 0.00, 0.00, 0.00, 0.00, 0.00, 0.00, 0.01, 0.01, 1.02
245, 0.00, 45536.89, 0.00, 0.00, 0.00, 0.00, 0.00, 0.00, 0.01, 0.01, 1.02
246, 0.00, 45557.57, 0.00, 0.00, 0.00, 0.00, 0.00, 0.00, 0.01, 0.01, 1.02
247, 0.00, 45558.31, 0.00, 0.00, 0.00, 0.00, 0.00, 0.00, 0.01, 0.01, 1.02
248, 0.00, 45537.07, 0.00, 0.00, 0.00, 0.00, 0.00, 0.00, 0.01, 0.00, 1.01
249, 0.00, 45531.04, 0.00, 0.00, 0.00, 0.00, 0.00, 0.00, 0.01, 0.00, 1.01
250, 0.00, 45549.01, 0.00, 0.00, 0.00, 0.00, 0.00, 0.00, 0.01, 0.00, 1.01
251, 0.00, 45552.90, 0.00, 0.00, 0.00, 0.00, 0.00, 0.00, 0.01, 0.00, 1.01
252, 0.00, 45529.27, 0.00, 0.00, 0.00, 0.00, 0.00, 0.00, 0.01, 0.00, 1.01
253, 0.00, 45518.97, 0.00, 0.00, 0.00, 0.00, 0.00, 0.00, 0.01, 0.00, 1.02
254, 0.00, 45545.23, 0.00, 0.00, 0.00, 0.00, 0.00, 0.00, 0.01, 0.00, 1.02
255, 0.00, 45559.87, 0.00, 0.00, 0.00, 0.00, 0.00, 0.00, 0.01, 0.00, 1.02
0, 0.00, 45532.09, 0.00, 0.00, 0.00, 0.00, 0.00, 0.00, 0.01, 0.00, 1.02
1, 0.00, 45514.66, 0.00, 0.00, 0.00, 0.00, 0.00, 0.00, 0.01, 0.00, 1.02
2, 0.00, 45537.50, 0.00, 0.00, 0.00, 0.00, 0.00, 0.00, 0.01, 0.00, 1.02
3, 0.00, 45550.42, 0.00, 0.00, 0.00, 0.00, 0.00, 0.00, 0.01, 0.00, 1.02
4, 0.00, 45531.20, 0.00, 0.00, 0.00, 0.00, 0.00, 0.00, 0.01, 0.00, 1.02
5, 0.00, 45518.21, 0.00, 0.00, 0.00, 0.00, 0.00, 0.00, 0.01, 0.00, 1.02
6, 0.00, 45541.59, 0.00, 0.00, 0.00, 0.00, 0.00, 0.00, 0.01, 0.00, 1.02
7, 0.00, 45560.63, 0.00, 0.00, 0.00, 0.00, 0.00, 0.00, 0.00, 0.01, 1.02
8, 0.00, 45552.38, 0.00, 0.00, 0.00, 0.00, 0.00, 0.00, 0.00, 0.01, 1.02
9, 0.00, 45534.84, 0.00, 0.00, 0.00, 0.00, 0.00, 0.00, 0.00, 0.01, 1.02
10, 0.00, 45534.52, 0.00, 0.00, 0.00, 0.00, 0.00, 0.00, 0.00, 0.01, 1.02
11, 0.00, 45560.32, 0.00, 0.00, 0.00, 0.00, 0.00, 0.00, 0.00, 0.01, 1.02
12, 0.00, 45550.93, 0.00, 0.00, 0.00, 0.00, 0.00, 0.00, 0.01, 0.01, 1.02
13, 0.00, 45525.76, 0.00, 0.00, 0.00, 0.00, 0.00, 0.00, 0.01, 0.01, 1.02
14, 0.00, 45528.56, 0.00, 0.00, 0.00, 0.00, 0.00, 0.00, 0.01, 0.01, 1.02
15, 0.00, 45547.51, 0.00, 0.00, 0.00, 0.00, 0.00, 0.00, 0.01, 0.01, 1.02
16, 0.00, 45556.68, 0.00, 0.00, 0.00, 0.00, 0.00, 0.00, 0.01, 0.01, 1.02
17, 0.00, 45533.77, 0.00, 0.00, 0.00, 0.00, 0.00, 0.00, 0.00, 0.01, 1.02
18, 0.00, 45524.69, 0.00, 0.00, 0.00, 0.00, 0.00, 0.00, 0.00, 0.01, 1.02
19, 0.00, 45554.89, 0.00, 0.00, 0.00, 0.00, 0.00, 0.00, 0.00, 0.01, 1.02
20, 0.00, 45562.78, 0.00, 0.00, 0.00, 0.00, 0.00, 0.00, 0.00, 0.01, 1.02
21, 0.00, 45539.27, 0.00, 0.00, 0.00, 0.00, 0.00, 0.00, 0.00, 0.01, 1.02
22, 0.00, 45526.72, 0.00, 0.00, 0.00, 0.00, 0.00, 0.00, 0.01, 0.01, 1.01
23, 0.00, 45546.89, 0.00, 0.00, 0.00, 0.00, 0.00, 0.00, 0.01, 0.01, 1.01
24, 0.00, 45565.66, 0.00, 0.00, 0.00, 0.00, 0.00, 0.00, 0.01, 0.01, 1.01
25, 0.00, 45550.48, 0.00, 0.00, 0.00, 0.00, 0.00, 0.00, 0.01, 0.01, 1.01
26, 0.00, 45531.38, 0.00, 0.00, 0.00, 0.00, 0.00, 0.00, 0.01, 0.01, 1.01
27, 0.00, 45541.54, 0.00, 0.00, 0.00, 0.00, 0.00, 0.00, 0.01, 0.00, 1.01
28, 0.00, 45559.65, 0.00, 0.00, 0.00, 0.00, 0.00, 0.00, 0.01, 0.00, 1.01
29, 0.00, 45539.15, 0.00, 0.00, 0.00, 0.00, 0.00, 0.00, 0.01, 0.00, 1.01
30, 0.00, 45510.36, 0.00, 0.00, 0.00, 0.00, 0.00, 0.00, 0.01, 0.00, 1.01
31, 0.00, 45520.45, 0.00, 0.00, 0.00, 0.00, 0.00, 0.00, 0.01, 0.00, 1.01
32, 0.00, 45550.30, 0.00, 0.00, 0.00, 0.00, 0.00, 0.00, 0.01, 0.00, 1.02
33, 0.00, 45542.64, 0.00, 0.00, 0.00, 0.00, 0.00, 0.00, 0.01, 0.00, 1.02
34, 0.00, 45519.75, 0.00, 0.00, 0.00, 0.00, 0.00, 0.00, 0.01, 0.00, 1.02
35, 0.00, 45532.91, 0.00, 0.00, 0.00, 0.00, 0.00, 0.00, 0.01, 0.00, 1.02
36, 0.00, 45559.47, 0.00, 0.00, 0.00, 0.00, 0.00, 0.00, 0.01, 0.00, 1.02
37, 0.00, 45550.37, 0.00, 0.00, 0.00, 0.00, 0.00, 0.00, 0.01, 0.01, 1.02
38, 0.00, 45524.24, 0.00, 0.00, 0.00, 0.00, 0.00, 0.00, 0.01, 0.01, 1.02
39, 0.00, 45533.59, 0.00, 0.00, 0.00, 0.00, 0.00, 0.00, 0.01, 0.01, 1.02
40, 0.00, 45560.54, 0.00, 0.00, 0.00, 0.00, 0.00, 0.00, 0.01, 0.01, 1.02
41, 0.00, 45553.97, 0.00, 0.00, 0.00, 0.00, 0.00, 0.00, 0.01, 0.01, 1.02
42, 0.00, 45534.05, 0.00, 0.00, 0.00, 0.00, 0.00, 0.00, 0.01, 0.01, 1.02
43, 0.00, 45527.15, 0.00, 0.00, 0.00, 0.00, 0.00, 0.00, 0.01, 0.01, 1.02
44, 0.00, 45546.84, 0.00, 0.00, 0.00, 0.00, 0.00, 0.00, 0.01, 0.01, 1.02
45, 0.00, 45554.93, 0.00, 0.00, 0.00, 0.00, 0.00, 0.00, 0.01, 0.01, 1.02
46, 0.00, 45529.74, 0.00, 0.00, 0.00, 0.00, 0.00, 0.00, 0.01, 0.01, 1.02
47, 0.00, 45518.41, 0.00, 0.00, 0.00, 0.00, 0.00, 0.00, 0.01, 0.01, 1.02
48, 0.00, 45542.44, 0.00, 0.00, 0.00, 0.00, 0.00, 0.00, 0.01, 0.01, 1.02
49, 0.00, 45556.95, 0.00, 0.00, 0.00, 0.00, 0.00, 0.00, 0.01, 0.01, 1.02
50, 0.00, 45542.01, 0.00, 0.00, 0.00, 0.00, 0.00, 0.00, 0.01, 0.01, 1.02
51, 0.00, 45538.17, 0.00, 0.00, 0.00, 0.00, 0.00, 0.00, 0.01, 0.01, 1.02
52, 0.00, 45545.01, 0.00, 0.00, 0.00, 0.00, 0.00, 0.00, 0.01, 0.01, 1.02
53, 0.00, 45557.35, 0.00, 0.00, 0.00, 0.00, 0.00, 0.00, 0.01, 0.01, 1.02
54, 0.00, 45539.64, 0.00, 0.00, 0.00, 0.00, 0.00, 0.00, 0.01, 0.01, 1.02
55, 0.00, 45522.23, 0.00, 0.00, 0.00, 0.00, 0.00, 0.00, 0.01, 0.01, 1.02
56, 0.00, 45534.79, 0.00, 0.00, 0.00, 0.00, 0.00, 0.00, 0.01, 0.01, 1.02
57, 0.00, 45558.80, 0.00, 0.00, 0.00, 0.00, 0.00, 0.00, 0.01, 0.01, 1.01
58, 0.00, 45546.46, 0.00, 0.00, 0.00, 0.00, 0.00, 0.00, 0.01, 0.01, 1.01
59, 0.00, 45527.13, 0.00, 0.00, 0.00, 0.00, 0.00, 0.00, 0.01, 0.01, 1.01
60, 0.00, 45529.23, 0.00, 0.00, 0.00, 0.00, 0.00, 0.00, 0.01, 0.01, 1.01
61, 0.00, 45553.77, 0.00, 0.00, 0.00, 0.00, 0.00, 0.00, 0.01, 0.01, 1.01
62, 0.00, 45545.28, 0.00, 0.00, 0.00, 0.00, 0.00, 0.00, 0.01, 0.01, 1.02
63, 0.00, 45516.24, 0.00, 0.00, 0.00, 0.00, 0.00, 0.00, 0.01, 0.01, 1.02
64, 0.00, 45522.48, 0.00, 0.00, 0.00, 0.00, 0.00, 0.00, 0.01, 0.01, 1.02
65, 0.00, 45547.91, 0.00, 0.00, 0.00, 0.00, 0.00, 0.00, 0.01, 0.01, 1.02
66, 0.00, 45548.99, 0.00, 0.00, 0.00, 0.00, 0.00, 0.00, 0.01, 0.01, 1.02
67, 0.00, 45530.43, 0.00, 0.00, 0.00, 0.00, 0.00, 0.00, 0.01, 0.01, 1.02
68, 0.00, 45521.29, 0.00, 0.00, 0.00, 0.00, 0.00, 0.00, 0.01, 0.02, 1.02
69, 0.00, 45548.56, 0.00, 0.00, 0.00, 0.00, 0.00, 0.00, 0.01, 0.02, 1.02
70, 0.00, 45556.83, 0.00, 0.00, 0.00, 0.00, 0.00, 0.00, 0.01, 0.02, 1.02
71, 0.00, 45537.05, 0.00, 0.00, 0.00, 0.00, 0.00, 0.00, 0.01, 0.02, 1.02
72, 0.00, 45522.81, 0.00, 0.00, 0.00, 0.00, 0.00, 0.00, 0.01, 0.02, 1.02
73, 0.00, 45539.46, 0.00, 0.00, 0.00, 0.00, 0.00, 0.00, 0.01, 0.01, 1.01
74, 0.00, 45555.11, 0.00, 0.00, 0.00, 0.00, 0.00, 0.00, 0.01, 0.01, 1.01
75, 0.00, 45523.71, 0.00, 0.00, 0.00, 0.00, 0.00, 0.00, 0.01, 0.01, 1.01
76, 0.00, 45497.00, 0.00, 0.00, 0.00, 0.00, 0.00, 0.00, 0.01, 0.01, 1.01
77, 0.00, 45518.57, 0.00, 0.00, 0.00, 0.00, 0.00, 0.00, 0.01, 0.01, 1.01
78, 0.00, 45553.28, 0.00, 0.00, 0.00, 0.00, 0.00, 0.00, 0.01, 0.01, 1.02
79, 0.00, 45527.68, 0.00, 0.00, 0.00, 0.00, 0.00, 0.00, 0.01, 0.01, 1.02
80, 0.00, 45507.43, 0.00, 0.00, 0.00, 0.00, 0.00, 0.00, 0.01, 0.01, 1.02
81, 0.00, 45525.72, 0.00, 0.00, 0.00, 0.00, 0.00, 0.00, 0.01, 0.01, 1.02
82, 0.00, 45553.26, 0.00, 0.00, 0.00, 0.00, 0.00, 0.00, 0.01, 0.01, 1.02
83, 0.00, 45555.51, 0.00, 0.00, 0.00, 0.00, 0.00, 0.00, 0.01, 0.00, 1.02
84, 0.00, 45525.11, 0.00, 0.00, 0.00, 0.00, 0.00, 0.00, 0.01, 0.00, 1.02
85, 0.00, 45533.95, 0.00, 0.00, 0.00, 0.00, 0.00, 0.00, 0.01, 0.00, 1.02
86, 0.00, 45566.58, 0.00, 0.00, 0.00, 0.00, 0.00, 0.00, 0.01, 0.00, 1.02
87, 0.00, 45560.16, 0.00, 0.00, 0.00, 0.00, 0.00, 0.00, 0.01, 0.00, 1.02
88, 0.00, 45533.43, 0.00, 0.00, 0.00, 0.00, 0.00, 0.00, 0.01, 0.00, 1.02
89, 0.00, 45531.53, 0.00, 0.00, 0.00, 0.00, 0.00, 0.00, 0.01, 0.00, 1.02
90, 0.00, 45565.01, 0.00, 0.00, 0.00, 0.00, 0.00, 0.00, 0.01, 0.00, 1.02
91, 0.00, 45568.75, 0.00, 0.00, 0.00, 0.00, 0.00, 0.00, 0.01, 0.00, 1.02
92, 0.00, 45529.79, 0.00, 0.00, 0.00, 0.00, 0.00, 0.00, 0.01, 0.00, 1.02
93, 0.00, 45523.62, 0.00, 0.00, 0.00, 0.00, 0.00, 0.00, 0.02, 0.01, 1.02
94, 0.00, 45551.80, 0.00, 0.00, 0.00, 0.00, 0.00, 0.00, 0.02, 0.01, 1.02
95, 0.00, 45558.44, 0.00, 0.00, 0.00, 0.00, 0.00, 0.00, 0.02, 0.01, 1.02
96, 0.00, 45537.50, 0.00, 0.00, 0.00, 0.00, 0.00, 0.00, 0.02, 0.01, 1.02
97, 0.00, 45525.90, 0.00, 0.00, 0.00, 0.00, 0.00, 0.00, 0.02, 0.01, 1.02
98, 0.00, 45553.37, 0.00, 0.00, 0.00, 0.00, 0.00, 0.00, 0.01, 0.01, 1.03
99, 0.00, 45573.57, 0.00, 0.00, 0.00, 0.00, 0.00, 0.00, 0.01, 0.01, 1.03
100, 0.00, 45544.98, 0.00, 0.00, 0.00, 0.00, 0.00, 0.00, 0.01, 0.01, 1.03
101, 0.00, 45519.97, 0.00, 0.00, 0.00, 0.00, 0.00, 0.00, 0.01, 0.01, 1.03
102, 0.00, 45540.76, 0.00, 0.00, 0.00, 0.00, 0.00, 0.00, 0.01, 0.01, 1.03
103, 0.00, 45563.56, 0.00, 0.00, 0.00, 0.00, 0.00, 0.00, 0.02, 0.01, 1.02
104, 0.00, 45547.69, 0.00, 0.00, 0.00, 0.00, 0.00, 0.00, 0.02, 0.01, 1.02
105, 0.00, 45529.90, 0.00, 0.00, 0.00, 0.00, 0.00, 0.00, 0.02, 0.01, 1.02
106, 0.00, 45541.48, 0.00, 0.00, 0.00, 0.00, 0.00, 0.00, 0.02, 0.01, 1.02
107, 0.00, 45574.89, 0.00, 0.00, 0.00, 0.00, 0.00, 0.00, 0.02, 0.01, 1.02
108, 0.00, 45556.90, 0.00, 0.00, 0.00, 0.00, 0.00, 0.00, 0.02, 0.01, 1.03
109, 0.00, 45521.07, 0.00, 0.00, 0.00, 0.00, 0.00, 0.00, 0.02, 0.01, 1.03
110, 0.00, 45534.14, 0.00, 0.00, 0.00, 0.00, 0.00, 0.00, 0.02, 0.01, 1.03
111, 0.00, 45563.87, 0.00, 0.00, 0.00, 0.00, 0.00, 0.00, 0.02, 0.01, 1.03
112, 0.00, 45562.93, 0.00, 0.00, 0.00, 0.00, 0.00, 0.00, 0.02, 0.01, 1.03
113, 0.00, 45533.21, 0.00, 0.00, 0.00, 0.00, 0.00, 0.00, 0.01, 0.01, 1.02
114, 0.00, 45532.43, 0.00, 0.00, 0.00, 0.00, 0.00, 0.00, 0.01, 0.01, 1.02
115, 0.00, 45558.22, 0.00, 0.00, 0.00, 0.00, 0.00, 0.00, 0.01, 0.01, 1.02
116, 0.00, 45560.21, 0.00, 0.00, 0.00, 0.00, 0.00, 0.00, 0.01, 0.01, 1.02
117, 0.00, 45528.78, 0.00, 0.00, 0.00, 0.00, 0.00, 0.00, 0.01, 0.01, 1.02
118, 0.00, 45518.59, 0.00, 0.00, 0.00, 0.00, 0.00, 0.00, 0.01, 0.01, 1.03
119, 0.00, 45547.49, 0.00, 0.00, 0.00, 0.00, 0.00, 0.00, 0.01, 0.01, 1.03
120, 0.00, 45559.69, 0.00, 0.00, 0.00, 0.00, 0.00, 0.00, 0.01, 0.01, 1.03
121, 0.00, 45536.00, 0.00, 0.00, 0.00, 0.00, 0.00, 0.00, 0.01, 0.01, 1.03
122, 0.00, 45517.83, 0.00, 0.00, 0.00, 0.00, 0.00, 0.00, 0.01, 0.01, 1.03
123, 0.00, 45544.72, 0.00, 0.00, 0.00, 0.00, 0.00, 0.00, 0.01, 0.01, 1.02
124, 0.00, 45560.95, 0.00, 0.00, 0.00, 0.00, 0.00, 0.00, 0.01, 0.01, 1.02
125, 0.00, 45536.22, 0.00, 0.00, 0.00, 0.00, 0.00, 0.00, 0.01, 0.01, 1.02
126, 0.00, 45516.73, 0.00, 0.00, 0.00, 0.00, 0.00, 0.00, 0.01, 0.01, 1.02
127, 0.00, 45539.98, 0.00, 0.00, 0.00, 0.00, 0.00, 0.00, 0.01, 0.01, 1.02
128, 0.00, 45560.23, 0.00, 0.00, 0.00, 0.00, 0.00, 0.00, 0.01, 0.02, 1.02
129, 0.00, 45536.13, 0.00, 0.00, 0.00, 0.00, 0.00, 0.00, 0.01, 0.02, 1.02
130, 0.00, 45520.24, 0.00, 0.00, 0.00, 0.00, 0.00, 0.00, 0.01, 0.02, 1.02
131, 0.00, 45532.98, 0.00, 0.00, 0.00, 0.00, 0.00, 0.00, 0.01, 0.02, 1.02
132, 0.00, 45561.53, 0.00, 0.00, 0.00, 0.00, 0.00, 0.00, 0.01, 0.02, 1.02
133, 0.00, 45543.33, 0.00, 0.00, 0.00, 0.00, 0.00, 0.00, 0.01, 0.01, 1.02
134, 0.00, 45520.13, 0.00, 0.00, 0.00, 0.00, 0.00, 0.00, 0.01, 0.01, 1.02
135, 0.00, 45525.56, 0.00, 0.00, 0.00, 0.00, 0.00, 0.00, 0.01, 0.01, 1.02
136, 0.00, 45560.39, 0.00, 0.00, 0.00, 0.00, 0.00, 0.00, 0.01, 0.01, 1.02
137, 0.00, 45559.31, 0.00, 0.00, 0.00, 0.00, 0.00, 0.00, 0.01, 0.01, 1.02
138, 0.00, 45529.77, 0.00, 0.00, 0.00, 0.00, 0.00, 0.00, 0.01, 0.01, 1.02
139, 0.00, 45525.54, 0.00, 0.00, 0.00, 0.00, 0.00, 0.00, 0.01, 0.01, 1.02
140, 0.00, 45553.75, 0.00, 0.00, 0.00, 0.00, 0.00, 0.00, 0.01, 0.01, 1.02
141, 0.00, 45556.65, 0.00, 0.00, 0.00, 0.00, 0.00, 0.00, 0.01, 0.01, 1.02
142, 0.00, 45528.63, 0.00, 0.00, 0.00, 0.00, 0.00, 0.00, 0.01, 0.01, 1.02
143, 0.00, 45519.21, 0.00, 0.00, 0.00, 0.00, 0.00, 0.00, 0.01, 0.01, 1.03
144, 0.00, 45552.21, 0.00, 0.00, 0.00, 0.00, 0.00, 0.00, 0.01, 0.01, 1.03
145, 0.00, 45568.07, 0.00, 0.00, 0.00, 0.00, 0.00, 0.00, 0.01, 0.01, 1.03
146, 0.00, 45535.93, 0.00, 0.00, 0.00, 0.00, 0.00, 0.00, 0.01, 0.01, 1.03
147, 0.00, 45513.98, 0.00, 0.00, 0.00, 0.00, 0.00, 0.00, 0.01, 0.01, 1.03
148, 0.00, 45540.07, 0.00, 0.00, 0.00, 0.00, 0.00, 0.00, 0.01, 0.01, 1.03
149, 0.00, 45566.58, 0.00, 0.00, 0.00, 0.00, 0.00, 0.00, 0.01, 0.01, 1.03
150, 0.00, 45539.67, 0.00, 0.00, 0.00, 0.00, 0.00, 0.00, 0.01, 0.01, 1.03
151, 0.00, 45510.90, 0.00, 0.00, 0.00, 0.00, 0.00, 0.00, 0.01, 0.01, 1.03
152, 0.00, 45530.95, 0.00, 0.00, 0.00, 0.00, 0.00, 0.00, 0.01, 0.01, 1.03
153, 0.00, 45559.63, 0.00, 0.00, 0.00, 0.00, 0.00, 0.00, 0.01, 0.01, 1.02
154, 0.00, 45541.10, 0.00, 0.00, 0.00, 0.00, 0.00, 0.00, 0.01, 0.01, 1.02
155, 0.00, 45505.33, 0.00, 0.00, 0.00, 0.00, 0.00, 0.00, 0.01, 0.01, 1.02
156, 0.00, 45522.14, 0.00, 0.00, 0.00, 0.00, 0.00, 0.00, 0.01, 0.01, 1.02
157, 0.00, 45556.23, 0.00, 0.00, 0.00, 0.00, 0.00, 0.00, 0.01, 0.01, 1.02
158, 0.00, 45546.39, 0.00, 0.00, 0.00, 0.00, 0.00, 0.00, 0.01, 0.01, 1.03
159, 0.00, 45515.68, 0.00, 0.00, 0.00, 0.00, 0.00, 0.00, 0.01, 0.01, 1.03
160, 0.00, 45515.17, 0.00, 0.00, 0.00, 0.00, 0.00, 0.00, 0.01, 0.01, 1.03
161, 0.00, 45542.46, 0.00, 0.00, 0.00, 0.00, 0.00, 0.00, 0.01, 0.01, 1.03
162, 0.00, 45535.73, 0.00, 0.00, 0.00, 0.00, 0.00, 0.00, 0.01, 0.01, 1.03
163, 0.00, 45507.23, 0.00, 0.00, 0.00, 0.00, 0.00, 0.00, 0.01, 0.01, 1.03
164, 0.00, 45512.26, 0.00, 0.00, 0.00, 0.00, 0.00, 0.00, 0.01, 0.01, 1.03
165, 0.00, 45539.93, 0.00, 0.00, 0.00, 0.00, 0.00, 0.00, 0.01, 0.01, 1.03
166, 0.00, 45547.55, 0.00, 0.00, 0.00, 0.00, 0.00, 0.00, 0.01, 0.01, 1.03
167, 0.00, 45523.44, 0.00, 0.00, 0.00, 0.00, 0.00, 0.00, 0.01, 0.01, 1.03
168, 0.00, 45507.77, 0.00, 0.00, 0.00, 0.00, 0.00, 0.00, 0.01, 0.01, 1.03
169, 0.00, 45529.32, 0.00, 0.00, 0.00, 0.00, 0.00, 0.00, 0.01, 0.01, 1.03
170, 0.00, 45544.96, 0.00, 0.00, 0.00, 0.00, 0.00, 0.00, 0.01, 0.01, 1.03
171, 0.00, 45524.15, 0.00, 0.00, 0.00, 0.00, 0.00, 0.00, 0.01, 0.01, 1.03
172, 0.00, 45503.81, 0.00, 0.00, 0.00, 0.00, 0.00, 0.00, 0.01, 0.01, 1.03
173, 0.00, 45527.57, 0.00, 0.00, 0.00, 0.00, 0.00, 0.00, 0.01, 0.01, 1.02
174, 0.00, 45549.07, 0.00, 0.00, 0.00, 0.00, 0.00, 0.00, 0.01, 0.01, 1.02
175, 0.00, 45524.07, 0.00, 0.00, 0.00, 0.00, 0.00, 0.00, 0.01, 0.01, 1.02
176, 0.00, 45503.05, 0.00, 0.00, 0.00, 0.00, 0.00, 0.00, 0.01, 0.01, 1.02
177, 0.00, 45520.02, 0.00, 0.00, 0.00, 0.00, 0.00, 0.00, 0.01, 0.01, 1.02
178, 0.00, 45542.06, 0.00, 0.00, 0.00, 0.00, 0.00, 0.00, 0.01, 0.01, 1.02
179, 0.00, 45532.80, 0.00, 0.00, 0.00, 0.00, 0.00, 0.00, 0.01, 0.01, 1.02
180, 0.00, 45509.85, 0.00, 0.00, 0.00, 0.00, 0.00, 0.00, 0.01, 0.01, 1.02
181, 0.00, 45519.95, 0.00, 0.00, 0.00, 0.00, 0.00, 0.00, 0.01, 0.01, 1.02
182, 0.00, 45549.75, 0.00, 0.00, 0.00, 0.00, 0.00, 0.00, 0.01, 0.01, 1.02
183, 0.00, 45542.15, 0.00, 0.00, 0.00, 0.00, 0.00, 0.00, 0.01, 0.01, 1.01
184, 0.00, 45514.74, 0.00, 0.00, 0.00, 0.00, 0.00, 0.00, 0.01, 0.01, 1.01
185, 0.00, 45511.44, 0.00, 0.00, 0.00, 0.00, 0.00, 0.00, 0.01, 0.01, 1.01
186, 0.00, 45548.79, 0.00, 0.00, 0.00, 0.00, 0.00, 0.00, 0.01, 0.01, 1.01
187, 0.00, 45548.07, 0.00, 0.00, 0.00, 0.00, 0.00, 0.00, 0.01, 0.01, 1.01
188, 0.00, 45522.59, 0.00, 0.00, 0.00, 0.00, 0.00, 0.00, 0.01, 0.01, 1.02
189, 0.00, 45514.59, 0.00, 0.00, 0.00, 0.00, 0.00, 0.00, 0.01, 0.01, 1.02
190, 0.00, 45540.27, 0.00, 0.00, 0.00, 0.00, 0.00, 0.00, 0.01, 0.01, 1.02
191, 0.00, 45546.44, 0.00, 0.00, 0.00, 0.00, 0.00, 0.00, 0.01, 0.01, 1.02
192, 0.00, 45525.81, 0.00, 0.00, 0.00, 0.00, 0.00, 0.00, 0.01, 0.01, 1.02
193, 0.00, 45514.59, 0.00, 0.00, 0.00, 0.00, 0.00, 0.00, 0.01, 0.01, 1.02
194, 0.00, 45545.48, 0.00, 0.00, 0.00, 0.00, 0.00, 0.00, 0.01, 0.01, 1.02
195, 0.00, 45565.57, 0.00, 0.00, 0.00, 0.00, 0.00, 0.00, 0.01, 0.01, 1.02
196, 0.00, 45534.95, 0.00, 0.00, 0.00, 0.00, 0.00, 0.00, 0.01, 0.01, 1.02
197, 0.00, 45513.69, 0.00, 0.00, 0.00, 0.00, 0.00, 0.00, 0.01, 0.01, 1.02
198, 0.00, 45529.59, 0.00, 0.00, 0.00, 0.00, 0.00, 0.00, 0.01, 0.01, 1.02
199, 0.00, 45551.22, 0.00, 0.00, 0.00, 0.00, 0.00, 0.00, 0.01, 0.01, 1.02
200, 0.00, 45534.55, 0.00, 0.00, 0.00, 0.00, 0.00, 0.00, 0.01, 0.01, 1.02
201, 0.00, 45505.33, 0.00, 0.00, 0.00, 0.00, 0.00, 0.00, 0.01, 0.01, 1.02
202, 0.00, 45528.89, 0.00, 0.00, 0.00, 0.00, 0.00, 0.00, 0.01, 0.01, 1.02
203, 0.00, 45560.03, 0.00, 0.00, 0.00, 0.00, 0.00, 0.00, 0.01, 0.01, 1.02
204, 0.00, 45544.02, 0.00, 0.00, 0.00, 0.00, 0.00, 0.00, 0.01, 0.01, 1.02
205, 0.00, 45511.46, 0.00, 0.00, 0.00, 0.00, 0.00, 0.00, 0.01, 0.01, 1.02
206, 0.00, 45519.57, 0.00, 0.00, 0.00, 0.00, 0.00, 0.00, 0.01, 0.01, 1.02
207, 0.00, 45549.10, 0.00, 0.00, 0.00, 0.00, 0.00, 0.00, 0.01, 0.01, 1.02
208, 0.00, 45540.71, 0.00, 0.00, 0.00, 0.00, 0.00, 0.00, 0.01, 0.01, 1.01
209, 0.00, 45514.88, 0.00, 0.00, 0.00, 0.00, 0.00, 0.00, 0.01, 0.01, 1.01
210, 0.00, 45519.32, 0.00, 0.00, 0.00, 0.00, 0.00, 0.00, 0.01, 0.01, 1.01
211, 0.00, 45554.20, 0.00, 0.00, 0.00, 0.00, 0.00, 0.00, 0.01, 0.01, 1.01
212, 0.00, 45551.56, 0.00, 0.00, 0.00, 0.00, 0.00, 0.00, 0.01, 0.01, 1.01
213, 0.00, 45515.59, 0.00, 0.00, 0.00, 0.00, 0.00, 0.00, 0.01, 0.01, 1.02
214, 0.00, 45516.71, 0.00, 0.00, 0.00, 0.00, 0.00, 0.00, 0.01, 0.01, 1.02
215, 0.00, 45541.61, 0.00, 0.00, 0.00, 0.00, 0.00, 0.00, 0.01, 0.01, 1.02
216, 0.00, 45545.48, 0.00, 0.00, 0.00, 0.00, 0.00, 0.00, 0.01, 0.01, 1.02
217, 0.00, 45509.04, 0.00, 0.00, 0.00, 0.00, 0.00, 0.00, 0.01, 0.01, 1.02
218, 0.00, 45499.79, 0.00, 0.00, 0.00, 0.00, 0.00, 0.00, 0.01, 0.01, 1.02
219, 0.00, 45523.66, 0.00, 0.00, 0.00, 0.00, 0.00, 0.00, 0.01, 0.01, 1.02
220, 0.00, 45534.68, 0.00, 0.00, 0.00, 0.00, 0.00, 0.00, 0.01, 0.01, 1.02
221, 0.00, 45519.46, 0.00, 0.00, 0.00, 0.00, 0.00, 0.00, 0.01, 0.01, 1.02
222, 0.00, 45499.50, 0.00, 0.00, 0.00, 0.00, 0.00, 0.00, 0.01, 0.01, 1.02
223, 0.00, 45498.58, 0.00, 0.00, 0.00, 0.00, 0.00, 0.00, 0.01, 0.01, 1.02
224, 0.00, 45520.09, 0.00, 0.00, 0.00, 0.00, 0.00, 0.00, 0.01, 0.01, 1.02
225, 0.00, 45510.68, 0.00, 0.00, 0.00, 0.00, 0.00, 0.00, 0.01, 0.01, 1.02
226, 0.00, 45494.16, 0.00, 0.00, 0.00, 0.00, 0.00, 0.00, 0.01, 0.01, 1.02
227, 0.00, 45502.63, 0.00, 0.00, 0.00, 0.00, 0.00, 0.00, 0.01, 0.01, 1.02
228, 0.00, 45518.84, 0.00, 0.00, 0.00, 0.00, 0.00, 0.00, 0.01, 0.00, 1.03
229, 0.00, 45507.10, 0.00, 0.00, 0.00, 0.00, 0.00, 0.00, 0.01, 0.00, 1.03
230, 0.00, 45494.43, 0.00, 0.00, 0.00, 0.00, 0.00, 0.00, 0.01, 0.00, 1.03
231, 0.00, 45497.18, 0.00, 0.00, 0.00, 0.00, 0.00, 0.00, 0.01, 0.00, 1.03
232, 0.00, 45523.66, 0.00, 0.00, 0.00, 0.00, 0.00, 0.00, 0.01, 0.00, 1.03
233, 0.00, 45519.80, 0.00, 0.00, 0.00, 0.00, 0.00, 0.00, 0.01, 0.01, 1.03
234, 0.00, 45498.02, 0.00, 0.00, 0.00, 0.00, 0.00, 0.00, 0.01, 0.01, 1.03
235, 0.00, 45505.13, 0.00, 0.00, 0.00, 0.00, 0.00, 0.00, 0.01, 0.01, 1.03
236, 0.00, 45536.56, 0.00, 0.00, 0.00, 0.00, 0.00, 0.00, 0.01, 0.01, 1.03
237, 0.00, 45534.48, 0.00, 0.00, 0.00, 0.00, 0.00, 0.00, 0.01, 0.01, 1.03
238, 0.00, 45509.49, 0.00, 0.00, 0.00, 0.00, 0.00, 0.00, 0.00, 0.01, 1.02
239, 0.00, 45497.87, 0.00, 0.00, 0.00, 0.00, 0.00, 0.00, 0.00, 0.01, 1.02
240, 0.00, 45526.84, 0.00, 0.00, 0.00, 0.00, 0.00, 0.00, 0.00, 0.01, 1.02
241, 0.00, 45541.63, 0.00, 0.00, 0.00, 0.00, 0.00, 0.00, 0.00, 0.01, 1.02
242, 0.00, 45527.66, 0.00, 0.00, 0.00, 0.00, 0.00, 0.00, 0.00, 0.01, 1.02
243, 0.00, 45513.87, 0.00, 0.00, 0.00, 0.00, 0.00, 0.00, 0.01, 0.01, 1.02
244, 0.00, 45516.27, 0.00, 0.00, 0.00, 0.00, 0.00, 0.00, 0.01, 0.01, 1.02
245, 0.00, 45536.52, 0.00, 0.00, 0.00, 0.00, 0.00, 0.00, 0.01, 0.01, 1.02
246, 0.00, 45511.17, 0.00, 0.00, 0.00, 0.00, 0.00, 0.00, 0.01, 0.01, 1.02
247, 0.00, 45461.84, 0.00, 0.00, 0.00, 0.00, 0.00, 0.00, 0.01, 0.01, 1.02
248, 0.00, 45460.90, 0.00, 0.00, 0.00, 0.00, 0.00, 0.00, 0.01, 0.01, 1.01
249, 0.00, 45470.58, 0.00, 0.00, 0.00, 0.00, 0.00, 0.00, 0.01, 0.01, 1.01
250, 0.00, 45406.56, 0.00, 0.00, 0.00, 0.00, 0.00, 0.00, 0.01, 0.01, 1.01
251, 0.00, 45342.81, 0.00, 0.00, 0.00, 0.00, 0.00, 0.00, 0.01, 0.01, 1.01
252, 0.00, 45312.15, 0.00, 0.00, 0.00, 0.00, 0.00, 0.00, 0.01, 0.01, 1.01
253, 0.00, 45304.48, 0.00, 0.00, 0.00, 0.00, 0.00, 0.00, 0.01, 0.01, 1.02
254, 0.00, 45259.11, 0.00, 0.00, 0.00, 0.00, 0.00, 0.00, 0.01, 0.01, 1.02
255, 0.00, 45188.81, 0.00, 0.00, 0.00, 0.00, 0.00, 0.00, 0.01, 0.01, 1.02
0, 0.00, 45180.56, 0.00, 0.00, 0.00, 0.00, 0.00, 0.00, 0.01, 0.01, 1.02
1, 0.00, 45183.94, 0.00, 0.00, 0.00, 0.00, 0.00, 0.00, 0.01, 0.01, 1.02
2, 0.00, 45155.62, 0.00, 0.00, 0.00, 0.00, 0.00, 0.00, 0.01, 0.01, 1.02
3, 0.00, 45118.20, 0.00, 0.00, 0.00, 0.00, 0.00, 0.00, 0.01, 0.01, 1.02
4, 0.00, 45106.29, 0.00, 0.00, 0.00, 0.00, 0.00, 0.00, 0.01, 0.01, 1.02
5, 0.00, 45137.67, 0.00, 0.00, 0.00, 0.00, 0.00, 0.00, 0.01, 0.01, 1.02
6, 0.00, 45144.51, 0.00, 0.00, 0.00, 0.00, 0.00, 0.00, 0.01, 0.01, 1.02
7, 0.00, 45132.48, 0.00, 0.00, 0.00, 0.00, 0.00, 0.00, 0.01, 0.01, 1.02
8, 0.00, 45119.32, 0.00, 0.00, 0.00, 0.00, 0.00, 0.00, 0.01, 0.01, 1.02
9, 0.00, 45155.15, 0.00, 0.00, 0.00, 0.00, 0.00, 0.00, 0.01, 0.01, 1.02
10, 0.00, 45178.68, 0.00, 0.00, 0.00, 0.00, 0.00, 0.00, 0.01, 0.01, 1.02
11, 0.00, 45163.98, 0.00, 0.00, 0.00, 0.00, 0.00, 0.00, 0.01, 0.01, 1.02
12, 0.00, 45160.49, 0.00, 0.00, 0.00, 0.00, 0.00, 0.00, 0.01, 0.01, 1.02
13, 0.00, 45200.70, 0.00, 0.00, 0.00, 0.00, 0.00, 0.00, 0.01, 0.01, 1.02
14, 0.00, 45233.65, 0.00, 0.00, 0.00, 0.00, 0.00, 0.00, 0.01, 0.01, 1.02
15, 0.00, 45228.06, 0.00, 0.00, 0.00, 0.00, 0.00, 0.00, 0.01, 0.01, 1.02
16, 0.00, 45224.13, 0.00, 0.00, 0.00, 0.00, 0.00, 0.00, 0.01, 0.01, 1.02
17, 0.00, 45259.15, 0.00, 0.00, 0.00, 0.00, 0.00, 0.00, 0.01, 0.01, 1.02
18, 0.00, 45301.08, 0.00, 0.00, 0.00, 0.00, 0.00, 0.00, 0.01, 0.01, 1.02
19, 0.00, 45297.51, 0.00, 0.00, 0.00, 0.00, 0.00, 0.00, 0.01, 0.01, 1.02
20, 0.00, 45280.18, 0.00, 0.00, 0.00, 0.00, 0.00, 0.00, 0.01, 0.01, 1.02
21, 0.00, 45307.25, 0.00, 0.00, 0.00, 0.00, 0.00, 0.00, 0.01, 0.01, 1.02
22, 0.00, 45349.63, 0.00, 0.00, 0.00, 0.00, 0.00, 0.00, 0.01, 0.01, 1.02
23, 0.00, 45349.57, 0.00, 0.00, 0.00, 0.00, 0.00, 0.00, 0.01, 0.01, 1.02
24, 0.00, 45335.21, 0.00, 0.00, 0.00, 0.00, 0.00, 0.00, 0.01, 0.01, 1.02
25, 0.00, 45345.52, 0.00, 0.00, 0.00, 0.00, 0.00, 0.00, 0.01, 0.01, 1.02
26, 0.00, 45381.66, 0.00, 0.00, 0.00, 0.00, 0.00, 0.00, 0.01, 0.01, 1.02
27, 0.00, 45391.16, 0.00, 0.00, 0.00, 0.00, 0.00, 0.00, 0.01, 0.01, 1.02
28, 0.00, 45370.33, 0.00, 0.00, 0.00, 0.00, 0.00, 0.00, 0.01, 0.01, 1.02
29, 0.00, 45376.01, 0.00, 0.00, 0.00, 0.00, 0.00, 0.00, 0.01, 0.01, 1.02
30, 0.00, 45417.16, 0.00, 0.00, 0.00, 0.00, 0.00, 0.00, 0.01, 0.01, 1.02
31, 0.00, 45431.98, 0.00, 0.00, 0.00, 0.00, 0.00, 0.00, 0.01, 0.01, 1.02
32, 0.00, 45411.23, 0.00, 0.00, 0.00, 0.00, 0.00, 0.00, 0.01, 0.01, 1.02
33, 0.00, 45402.16, 0.00, 0.00, 0.00, 0.00, 0.00, 0.00, 0.01, 0.01, 1.02
34, 0.00, 45430.68, 0.00, 0.00, 0.00, 0.00, 0.00, 0.00, 0.01, 0.01, 1.02
35, 0.00, 45453.52, 0.00, 0.00, 0.00, 0.00, 0.00, 0.00, 0.01, 0.01, 1.02
36, 0.00, 45432.15, 0.00, 0.00, 0.00, 0.00, 0.00, 0.00, 0.01, 0.01, 1.02
37, 0.00, 45416.08, 0.00, 0.00, 0.00, 0.00, 0.00, 0.00, 0.01, 0.01, 1.01
38, 0.00, 45448.71, 0.00, 0.00, 0.00, 0.00, 0.00, 0.00, 0.01, 0.01, 1.01
39, 0.00, 45469.64, 0.00, 0.00, 0.00, 0.00, 0.00, 0.00, 0.01, 0.01, 1.01
40, 0.00, 45451.18, 0.00, 0.00, 0.00, 0.00, 0.00, 0.00, 0.01, 0.01, 1.01
41, 0.00, 45436.71, 0.00, 0.00, 0.00, 0.00, 0.00, 0.00, 0.01, 0.01, 1.01
42, 0.00, 45457.88, 0.00, 0.00, 0.00, 0.00, 0.00, 0.00, 0.01, 0.01, 1.00
43, 0.00, 45481.02, 0.00, 0.00, 0.00, 0.00, 0.00, 0.00, 0.01, 0.01, 1.00
44, 0.00, 45464.52, 0.00, 0.00, 0.00, 0.00, 0.00, 0.00, 0.01, 0.01, 1.00
45, 0.00, 45448.05, 0.00, 0.00, 0.00, 0.00, 0.00, 0.00, 0.01, 0.01, 1.00
46, 0.00, 45466.75, 0.00, 0.00, 0.00, 0.00, 0.00, 0.00, 0.01, 0.01, 1.00
47, 0.00, 45493.00, 0.00, 0.00, 0.00, 0.00, 0.00, 0.00, 0.01, 0.01, 1.01
48, 0.00, 45483.65, 0.00, 0.00, 0.00, 0.00, 0.00, 0.00, 0.01, 0.01, 1.01
49, 0.00, 45461.05, 0.00, 0.00, 0.00, 0.00, 0.00, 0.00, 0.01, 0.01, 1.01
50, 0.00, 45466.49, 0.00, 0.00, 0.00, 0.00, 0.00, 0.00, 0.01, 0.01, 1.01
51, 0.00, 45501.51, 0.00, 0.00, 0.00, 0.00, 0.00, 0.00, 0.01, 0.01, 1.01
52, 0.00, 45498.89, 0.00, 0.00, 0.00, 0.00, 0.00, 0.00, 0.01, 0.01, 1.01
53, 0.00, 45475.45, 0.00, 0.00, 0.00, 0.00, 0.00, 0.00, 0.01, 0.01, 1.02
54, 0.00, 45463.85, 0.00, 0.00, 0.00, 0.00, 0.00, 0.00, 0.01, 0.01, 1.02
55, 0.00, 45483.45, 0.00, 0.00, 0.00, 0.00, 0.00, 0.00, 0.01, 0.01, 1.02
56, 0.00, 45484.46, 0.00, 0.00, 0.00, 0.00, 0.00, 0.00, 0.01, 0.01, 1.02
57, 0.00, 45464.36, 0.00, 0.00, 0.00, 0.00, 0.00, 0.00, 0.01, 0.01, 1.02
58, 0.00, 45455.80, 0.00, 0.00, 0.00, 0.00, 0.00, 0.00, 0.01, 0.01, 1.01
59, 0.00, 45480.72, 0.00, 0.00, 0.00, 0.00, 0.00, 0.00, 0.01, 0.01, 1.01
60, 0.00, 45502.29, 0.00, 0.00, 0.00, 0.00, 0.00, 0.00, 0.01, 0.01, 1.01
61, 0.00, 45481.02, 0.00, 0.00, 0.00, 0.00, 0.00, 0.00, 0.01, 0.01, 1.01
62, 0.00, 45460.30, 0.00, 0.00, 0.00, 0.00, 0.00, 0.00, 0.01, 0.01, 1.01
63, 0.00, 45475.63, 0.00, 0.00, 0.00, 0.00, 0.00, 0.00, 0.00, 0.01, 1.01
64, 0.00, 45503.28, 0.00, 0.00, 0.00, 0.00, 0.00, 0.00, 0.00, 0.01, 1.01
65, 0.00, 45488.95, 0.00, 0.00, 0.00, 0.00, 0.00, 0.00, 0.00, 0.01, 1.01
66, 0.00, 45474.91, 0.00, 0.00, 0.00, 0.00, 0.00, 0.00, 0.00, 0.01, 1.01
67, 0.00, 45490.61, 0.00, 0.00, 0.00, 0.00, 0.00, 0.00, 0.00, 0.01, 1.01
68, 0.00, 45509.63, 0.00, 0.00, 0.00, 0.00, 0.00, 0.00, 0.00, 0.01, 1.01
69, 0.00, 45493.27, 0.00, 0.00, 0.00, 0.00, 0.00, 0.00, 0.00, 0.01, 1.01
70, 0.00, 45470.67, 0.00, 0.00, 0.00, 0.00, 0.00, 0.00, 0.00, 0.01, 1.01
71, 0.00, 45479.79, 0.00, 0.00, 0.00, 0.00, 0.00, 0.00, 0.00, 0.01, 1.01
72, 0.00, 45505.65, 0.00, 0.00, 0.00, 0.00, 0.00, 0.00, 0.00, 0.01, 1.01
73, 0.00, 45497.00, 0.00, 0.00, 0.00, 0.00, 0.00, 0.00, -0.00, 0.01, 1.02
74, 0.00, 45476.03, 0.00, 0.00, 0.00, 0.00, 0.00, 0.00, -0.00, 0.01, 1.02
75, 0.00, 45488.10, 0.00, 0.00, 0.00, 0.00, 0.00, 0.00, -0.00, 0.01, 1.02
76, 0.00, 45510.34, 0.00, 0.00, 0.00, 0.00, 0.00, 0.00, -0.00, 0.01, 1.02
77, 0.00, 45491.27, 0.00, 0.00, 0.00, 0.00, 0.00, 0.00, -0.00, 0.01, 1.02
78, 0.00, 45475.07, 0.00, 0.00, 0.00, 0.00, 0.00, 0.00, 0.01, 0.02, 1.02
79, 0.00, 45482.85, 0.00, 0.00, 0.00, 0.00, 0.00, 0.00, 0.01, 0.02, 1.02
80, 0.00, 45514.79, 0.00, 0.00, 0.00, 0.00, 0.00, 0.00, 0.01, 0.02, 1.02
81, 0.00, 45518.68, 0.00, 0.00, 0.00, 0.00, 0.00, 0.00, 0.01, 0.02, 1.02
82, 0.00, 45494.49, 0.00, 0.00, 0.00, 0.00, 0.00, 0.00, 0.01, 0.02, 1.02
83, 0.00, 45486.29, 0.00, 0.00, 0.00, 0.00, 0.00, 0.00, 0.01, 0.01, 1.02
84, 0.00, 45512.64, 0.00, 0.00, 0.00, 0.00, 0.00, 0.00, 0.01, 0.01, 1.02
85, 0.00, 45520.53, 0.00, 0.00, 0.00, 0.00, 0.00, 0.00, 0.01, 0.01, 1.02
86, 0.00, 45496.21, 0.00, 0.00, 0.00, 0.00, 0.00, 0.00, 0.01, 0.01, 1.02
87, 0.00, 45483.63, 0.00, 0.00, 0.00, 0.00, 0.00, 0.00, 0.01, 0.01, 1.02
88, 0.00, 45507.93, 0.00, 0.00, 0.00, 0.00, 0.00, 0.00, 0.01, 0.01, 1.02
89, 0.00, 45529.68, 0.00, 0.00, 0.00, 0.00, 0.00, 0.00, 0.01, 0.01, 1.02
90, 0.00, 45512.26, 0.00, 0.00, 0.00, 0.00, 0.00, 0.00, 0.01, 0.01, 1.02
91, 0.00, 45490.52, 0.00, 0.00, 0.00, 0.00, 0.00, 0.00, 0.01, 0.01, 1.02
92, 0.00, 45501.07, 0.00, 0.00, 0.00, 0.00, 0.00, 0.00, 0.01, 0.01, 1.02
93, 0.00, 45527.98, 0.00, 0.00, 0.00, 0.00, 0.00, 0.00, 0.01, 0.01, 1.02
94, 0.00, 45515.62, 0.00, 0.00, 0.00, 0.00, 0.00, 0.00, 0.01, 0.01, 1.02
95, 0.00, 45492.01, 0.00, 0.00, 0.00, 0.00, 0.00, 0.00, 0.01, 0.01, 1.02
96, 0.00, 45498.98, 0.00, 0.00, 0.00, 0.00, 0.00, 0.00, 0.01, 0.01, 1.02
97, 0.00, 45525.16, 0.00, 0.00, 0.00, 0.00, 0.00, 0.00, 0.01, 0.01, 1.02
98, 0.00, 45525.05, 0.00, 0.00, 0.00, 0.00, 0.00, 0.00, 0.01, 0.01, 1.03
99, 0.00, 45499.72, 0.00, 0.00, 0.00, 0.00, 0.00, 0.00, 0.01, 0.01, 1.03
100, 0.00, 45492.77, 0.00, 0.00, 0.00, 0.00, 0.00, 0.00, 0.01, 0.01, 1.03
101, 0.00, 45516.84, 0.00, 0.00, 0.00, 0.00, 0.00, 0.00, 0.01, 0.01, 1.03
102, 0.00, 45517.67, 0.00, 0.00, 0.00, 0.00, 0.00, 0.00, 0.01, 0.01, 1.03
103, 0.00, 45495.70, 0.00, 0.00, 0.00, 0.00, 0.00, 0.00, 0.00, 0.01, 1.02
104, 0.00, 45492.01, 0.00, 0.00, 0.00, 0.00, 0.00, 0.00, 0.00, 0.01, 1.02
105, 0.00, 45524.00, 0.00, 0.00, 0.00, 0.00, 0.00, 0.00, 0.00, 0.01, 1.02
106, 0.00, 45526.34, 0.00, 0.00, 0.00, 0.00, 0.00, 0.00, 0.00, 0.01, 1.02
107, 0.00, 45490.16, 0.00, 0.00, 0.00, 0.00, 0.00, 0.00, 0.00, 0.01, 1.02
108, 0.00, 45479.79, 0.00, 0.00, 0.00, 0.00, 0.00, 0.00, 0.00, 0.01, 1.02
109, 0.00, 45507.61, 0.00, 0.00, 0.00, 0.00, 0.00, 0.00, 0.00, 0.01, 1.02
110, 0.00, 45516.04, 0.00, 0.00, 0.00, 0.00, 0.00, 0.00, 0.00, 0.01, 1.02
111, 0.00, 45497.55, 0.00, 0.00, 0.00, 0.00, 0.00, 0.00, 0.00, 0.01, 1.02
112, 0.00, 45490.38, 0.00, 0.00, 0.00, 0.00, 0.00, 0.00, 0.00, 0.01, 1.02
113, 0.00, 45503.41, 0.00, 0.00, 0.00, 0.00, 0.00, 0.00, 0.01, 0.01, 1.03
114, 0.00, 45525.38, 0.00, 0.00, 0.00, 0.00, 0.00, 0.00, 0.01, 0.01, 1.03
115, 0.00, 45501.91, 0.00, 0.00, 0.00, 0.00, 0.00, 0.00, 0.01, 0.01, 1.03
116, 0.00, 45479.07, 0.00, 0.00, 0.00, 0.00, 0.00, 0.00, 0.01, 0.01, 1.03
117, 0.00, 45490.78, 0.00, 0.00, 0.00, 0.00, 0.00, 0.00, 0.01, 0.01, 1.03
118, 0.00, 45517.20, 0.00, 0.00, 0.00, 0.00, 0.00, 0.00, 0.01, 0.01, 1.02
119, 0.00, 45512.04, 0.00, 0.00, 0.00, 0.00, 0.00, 0.00, 0.01, 0.01, 1.02
120, 0.00, 45498.81, 0.00, 0.00, 0.00, 0.00, 0.00, 0.00, 0.01, 0.01, 1.02
121, 0.00, 45496.68, 0.00, 0.00, 0.00, 0.00, 0.00, 0.00, 0.01, 0.01, 1.02
122, 0.00, 45518.21, 0.00, 0.00, 0.00, 0.00, 0.00, 0.00, 0.01, 0.01, 1.02
123, 0.00, 45518.30, 0.00, 0.00, 0.00, 0.00, 0.00, 0.00, 0.01, 0.01, 1.02
124, 0.00, 45487.86, 0.00, 0.00, 0.00, 0.00, 0.00, 0.00, 0.01, 0.01, 1.02
125, 0.00, 45482.80, 0.00, 0.00, 0.00, 0.00, 0.00, 0.00, 0.01, 0.01, 1.02
126, 0.00, 45513.80, 0.00, 0.00, 0.00, 0.00, 0.00, 0.00, 0.01, 0.01, 1.02
127, 0.00, 45514.09, 0.00, 0.00, 0.00, 0.00, 0.00, 0.00, 0.01, 0.01, 1.02
128, 0.00, 45493.15, 0.00, 0.00, 0.00, 0.00, 0.00, 0.00, 0.00, 0.01, 1.03
129, 0.00, 45489.35, 0.00, 0.00, 0.00, 0.00, 0.00, 0.00, 0.00, 0.01, 1.03
130, 0.00, 45502.85, 0.00, 0.00, 0.00, 0.00, 0.00, 0.00, 0.00, 0.01, 1.03
131, 0.00, 45506.38, 0.00, 0.00, 0.00, 0.00, 0.00, 0.00, 0.00, 0.01, 1.03
132, 0.00, 45483.54, 0.00, 0.00, 0.00, 0.00, 0.00, 0.00, 0.00, 0.01, 1.03
133, 0.00, 45476.14, 0.00, 0.00, 0.00, 0.00, 0.00, 0.00, 0.01, 0.01, 1.02
134, 0.00, 45499.30, 0.00, 0.00, 0.00, 0.00, 0.00, 0.00, 0.01, 0.01, 1.02
135, 0.00, 45515.70, 0.00, 0.00, 0.00, 0.00, 0.00, 0.00, 0.01, 0.01, 1.02
136, 0.00, 45494.14, 0.00, 0.00, 0.00, 0.00, 0.00, 0.00, 0.01, 0.01, 1.02
137, 0.00, 45475.76, 0.00, 0.00, 0.00, 0.00, 0.00, 0.00, 0.01, 0.01, 1.02
138, 0.00, 45486.04, 0.00, 0.00, 0.00, 0.00, 0.00, 0.00, 0.01, 0.01, 1.02
139, 0.00, 45507.79, 0.00, 0.00, 0.00, 0.00, 0.00, 0.00, 0.01, 0.01, 1.02
140, 0.00, 45493.69, 0.00, 0.00, 0.00, 0.00, 0.00, 0.00, 0.01, 0.01, 1.02
141, 0.00, 45467.83, 0.00, 0.00, 0.00, 0.00, 0.00, 0.00, 0.01, 0.01, 1.02
142, 0.00, 45488.95, 0.00, 0.00, 0.00, 0.00, 0.00, 0.00, 0.01, 0.01, 1.02
143, 0.00, 45510.79, 0.00, 0.00, 0.00, 0.00, 0.00, 0.00, 0.01, 0.01, 1.02
144, 0.00, 45495.10, 0.00, 0.00, 0.00, 0.00, 0.00, 0.00, 0.01, 0.01, 1.02
145, 0.00, 45470.93, 0.00, 0.00, 0.00, 0.00, 0.00, 0.00, 0.01, 0.01, 1.02
146, 0.00, 45475.36, 0.00, 0.00, 0.00, 0.00, 0.00, 0.00, 0.01, 0.01, 1.02
147, 0.00, 45504.77, 0.00, 0.00, 0.00, 0.00, 0.00, 0.00, 0.01, 0.01, 1.02
148, 0.00, 45511.08, 0.00, 0.00, 0.00, 0.00, 0.00, 0.00, 0.02, 0.01, 1.02
149, 0.00, 45481.08, 0.00, 0.00, 0.00, 0.00, 0.00, 0.00, 0.02, 0.01, 1.02
150, 0.00, 45476.30, 0.00, 0.00, 0.00, 0.00, 0.00, 0.00, 0.02, 0.01, 1.02
151, 0.00, 45506.99, 0.00, 0.00, 0.00, 0.00, 0.00, 0.00, 0.02, 0.01, 1.02
152, 0.00, 45503.50, 0.00, 0.00, 0.00, 0.00, 0.00, 0.00, 0.02, 0.01, 1.02
153, 0.00, 45474.18, 0.00, 0.00, 0.00, 0.00, 0.00, 0.00, 0.02, 0.01, 1.02
154, 0.00, 45468.63, 0.00, 0.00, 0.00, 0.00, 0.00, 0.00, 0.02, 0.01, 1.02
155, 0.00, 45496.73, 0.00, 0.00, 0.00, 0.00, 0.00, 0.00, 0.02, 0.01, 1.02
156, 0.00, 45504.04, 0.00, 0.00, 0.00, 0.00, 0.00, 0.00, 0.02, 0.01, 1.02
157, 0.00, 45476.84, 0.00, 0.00, 0.00, 0.00, 0.00, 0.00, 0.02, 0.01, 1.02
158, 0.00, 45454.15, 0.00, 0.00, 0.00, 0.00, 0.00, 0.00, 0.01, 0.02, 1.02
159, 0.00, 45482.13, 0.00, 0.00, 0.00, 0.00, 0.00, 0.00, 0.01, 0.02, 1.02
160, 0.00, 45500.89, 0.00, 0.00, 0.00, 0.00, 0.00, 0.00, 0.01, 0.02, 1.02
161, 0.00, 45485.87, 0.00, 0.00, 0.00, 0.00, 0.00, 0.00, 0.01, 0.02, 1.02
162, 0.00, 45466.71, 0.00, 0.00, 0.00, 0.00, 0.00, 0.00, 0.01, 0.02, 1.02
163, 0.00, 45481.95, 0.00, 0.00, 0.00, 0.00, 0.00, 0.00, 0.00, 0.01, 1.02
164, 0.00, 45508.73, 0.00, 0.00, 0.00, 0.00, 0.00, 0.00, 0.00, 0.01, 1.02
165, 0.00, 45492.64, 0.00, 0.00, 0.00, 0.00, 0.00, 0.00, 0.00, 0.01, 1.02
166, 0.00, 45462.24, 0.00, 0.00, 0.00, 0.00, 0.00, 0.00, 0.00, 0.01, 1.02
167, 0.00, 45467.00, 0.00, 0.00, 0.00, 0.00, 0.00, 0.00, 0.00, 0.01, 1.02
168, 0.00, 45505.22, 0.00, 0.00, 0.00, 0.00, 0.00, 0.00, 0.01, 0.01, 1.03
169, 0.00, 45505.00, 0.00, 0.00, 0.00, 0.00, 0.00, 0.00, 0.01, 0.01, 1.03
170, 0.00, 45474.29, 0.00, 0.00, 0.00, 0.00, 0.00, 0.00, 0.01, 0.01, 1.03
171, 0.00, 45472.16, 0.00, 0.00, 0.00, 0.00, 0.00, 0.00, 0.01, 0.01, 1.03
172, 0.00, 45501.45, 0.00, 0.00, 0.00, 0.00, 0.00, 0.00, 0.01, 0.01, 1.03
173, 0.00, 45499.23, 0.00, 0.00, 0.00, 0.00, 0.00, 0.00, 0.01, 0.01, 1.02
174, 0.00, 45472.48, 0.00, 0.00, 0.00, 0.00, 0.00, 0.00, 0.01, 0.01, 1.02
175, 0.00, 45477.66, 0.00, 0.00, 0.00, 0.00, 0.00, 0.00, 0.01, 0.01, 1.02
176, 0.00, 45504.82, 0.00, 0.00, 0.00, 0.00, 0.00, 0.00, 0.01, 0.01, 1.02
177, 0.00, 45503.99, 0.00, 0.00, 0.00, 0.00, 0.00, 0.00, 0.01, 0.01, 1.02
178, 0.00, 45470.80, 0.00, 0.00, 0.00, 0.00, 0.00, 0.00, 0.01, 0.01, 1.02
179, 0.00, 45459.67, 0.00, 0.00, 0.00, 0.00, 0.00, 0.00, 0.01, 0.01, 1.02
180, 0.00, 45490.78, 0.00, 0.00, 0.00, 0.00, 0.00, 0.00, 0.01, 0.01, 1.02
181, 0.00, 45496.66, 0.00, 0.00, 0.00, 0.00, 0.00, 0.00, 0.01, 0.01, 1.02
182, 0.00, 45472.30, 0.00, 0.00, 0.00, 0.00, 0.00, 0.00, 0.01, 0.01, 1.02
183, 0.00, 45474.38, 0.00, 0.00, 0.00, 0.00, 0.00, 0.00, 0.01, 0.01, 1.02
184, 0.00, 45495.19, 0.00, 0.00, 0.00, 0.00, 0.00, 0.00, 0.01, 0.01, 1.02
185, 0.00, 45501.87, 0.00, 0.00, 0.00, 0.00, 0.00, 0.00, 0.01, 0.01, 1.02
186, 0.00, 45489.60, 0.00, 0.00, 0.00, 0.00, 0.00, 0.00, 0.01, 0.01, 1.02
187, 0.00, 45462.93, 0.00, 0.00, 0.00, 0.00, 0.00, 0.00, 0.01, 0.01, 1.02
188, 0.00, 45480.84, 0.00, 0.00, 0.00, 0.00, 0.00, 0.00, 0.01, 0.00, 1.03
189, 0.00, 45504.93, 0.00, 0.00, 0.00, 0.00, 0.00, 0.00, 0.01, 0.00, 1.03
190, 0.00, 45486.49, 0.00, 0.00, 0.00, 0.00, 0.00, 0.00, 0.01, 0.00, 1.03
191, 0.00, 45459.98, 0.00, 0.00, 0.00, 0.00, 0.00, 0.00, 0.01, 0.00, 1.03
192, 0.00, 45463.27, 0.00, 0.00, 0.00, 0.00, 0.00, 0.00, 0.01, 0.00, 1.03
193, 0.00, 45489.46, 0.00, 0.00, 0.00, 0.00, 0.00, 0.00, 0.00, 0.00, 1.01
194, 0.00, 45489.89, 0.00, 0.00, 0.00, 0.00, 0.00, 0.00, 0.00, 0.00, 1.01
195, 0.00, 45460.34, 0.00, 0.00, 0.00, 0.00, 0.00, 0.00, 0.00, 0.00, 1.01
196, 0.00, 45464.36, 0.00, 0.00, 0.00, 0.00, 0.00, 0.00, 0.00, 0.00, 1.01
197, 0.00, 45491.88, 0.00, 0.00, 0.00, 0.00, 0.00, 0.00, 0.00, 0.00, 1.01
198, 0.00, 45489.24, 0.00, 0.00, 0.00, 0.00, 0.00, 0.00, 0.01, 0.02, 1.01
199, 0.00, 45461.88, 0.00, 0.00, 0.00, 0.00, 0.00, 0.00, 0.01, 0.02, 1.01
200, 0.00, 45458.39, 0.00, 0.00, 0.00, 0.00, 0.00, 0.00, 0.01, 0.02, 1.01
201, 0.00, 45486.16, 0.00, 0.00, 0.00, 0.00, 0.00, 0.00, 0.01, 0.02, 1.01
202, 0.00, 45488.50, 0.00, 0.00, 0.00, 0.00, 0.00, 0.00, 0.01, 0.02, 1.01
203, 0.00, 45464.36, 0.00, 0.00, 0.00, 0.00, 0.00, 0.00, 0.01, 0.02, 1.01
204, 0.00, 45457.97, 0.00, 0.00, 0.00, 0.00, 0.00, 0.00, 0.01, 0.02, 1.01
205, 0.00, 45486.96, 0.00, 0.00, 0.00, 0.00, 0.00, 0.00, 0.01, 0.02, 1.01
206, 0.00, 45501.64, 0.00, 0.00, 0.00, 0.00, 0.00, 0.00, 0.01, 0.02, 1.01
207, 0.00, 45469.13, 0.00, 0.00, 0.00, 0.00, 0.00, 0.00, 0.01, 0.02, 1.01
208, 0.00, 45451.42, 0.00, 0.00, 0.00, 0.00, 0.00, 0.00, 0.01, 0.02, 1.02
209, 0.00, 45473.50, 0.00, 0.00, 0.00, 0.00, 0.00, 0.00, 0.01, 0.02, 1.02
210, 0.00, 45484.34, 0.00, 0.00, 0.00, 0.00, 0.00, 0.00, 0.01, 0.02, 1.02
211, 0.00, 45468.23, 0.00, 0.00, 0.00, 0.00, 0.00, 0.00, 0.01, 0.02, 1.02
212, 0.00, 45457.05, 0.00, 0.00, 0.00, 0.00, 0.00, 0.00, 0.01, 0.02, 1.02
213, 0.00, 45474.64, 0.00, 0.00, 0.00, 0.00, 0.00, 0.00, 0.01, 0.01, 1.02
214, 0.00, 45491.90, 0.00, 0.00, 0.00, 0.00, 0.00, 0.00, 0.01, 0.01, 1.02
215, 0.00, 45485.11, 0.00, 0.00, 0.00, 0.00, 0.00, 0.00, 0.01, 0.01, 1.02
216, 0.00, 45462.35, 0.00, 0.00, 0.00, 0.00, 0.00, 0.00, 0.01, 0.01, 1.02
217, 0.00, 45464.34, 0.00, 0.00, 0.00, 0.00, 0.00, 0.00, 0.01, 0.01, 1.02
218, 0.00, 45489.20, 0.00, 0.00, 0.00, 0.00, 0.00, 0.00, 0.01, 0.01, 1.02
219, 0.00, 45484.48, 0.00, 0.00, 0.00, 0.00, 0.00, 0.00, 0.01, 0.01, 1.02
220, 0.00, 45458.06, 0.00, 0.00, 0.00, 0.00, 0.00, 0.00, 0.01, 0.01, 1.02
221, 0.00, 45464.34, 0.00, 0.00, 0.00, 0.00, 0.00, 0.00, 0.01, 0.01, 1.02
222, 0.00, 45485.48, 0.00, 0.00, 0.00, 0.00, 0.00, 0.00, 0.01, 0.01, 1.02
223, 0.00, 45486.87, 0.00, 0.00, 0.00, 0.00, 0.00, 0.00, 0.00, 0.01, 1.02
224, 0.00, 45463.02, 0.00, 0.00, 0.00, 0.00, 0.00, 0.00, 0.00, 0.01, 1.02
225, 0.00, 45456.14, 0.00, 0.00, 0.00, 0.00, 0.00, 0.00, 0.00, 0.01, 1.02
226, 0.00, 45482.87, 0.00, 0.00, 0.00, 0.00, 0.00, 0.00, 0.00, 0.01, 1.02
227, 0.00, 45491.86, 0.00, 0.00, 0.00, 0.00, 0.00, 0.00, 0.00, 0.01, 1.02
228, 0.00, 45468.18, 0.00, 0.00, 0.00, 0.00, 0.00, 0.00, 0.01, 0.00, 1.02
229, 0.00, 45455.38, 0.00, 0.00, 0.00, 0.00, 0.00, 0.00, 0.01, 0.00, 1.02
230, 0.00, 45479.79, 0.00, 0.00, 0.00, 0.00, 0.00, 0.00, 0.01, 0.00, 1.02
231, 0.00, 45489.87, 0.00, 0.00, 0.00, 0.00, 0.00, 0.00, 0.01, 0.00, 1.02
232, 0.00, 45464.68, 0.00, 0.00, 0.00, 0.00, 0.00, 0.00, 0.01, 0.00, 1.02
233, 0.00, 45450.80, 0.00, 0.00, 0.00, 0.00, 0.00, 0.00, 0.01, 0.01, 1.02
234, 0.00, 45470.53, 0.00, 0.00, 0.00, 0.00, 0.00, 0.00, 0.01, 0.01, 1.02
235, 0.00, 45483.25, 0.00, 0.00, 0.00, 0.00, 0.00, 0.00, 0.01, 0.01, 1.02
236, 0.00, 45460.09, 0.00, 0.00, 0.00, 0.00, 0.00, 0.00, 0.01, 0.01, 1.02
237, 0.00, 45446.46, 0.00, 0.00, 0.00, 0.00, 0.00, 0.00, 0.01, 0.01, 1.02
238, 0.00, 45468.54, 0.00, 0.00, 0.00, 0.00, 0.00, 0.00, 0.01, 0.01, 1.02
239, 0.00, 45485.24, 0.00, 0.00, 0.00, 0.00, 0.00, 0.00, 0.01, 0.01, 1.02
240, 0.00, 45476.19, 0.00, 0.00, 0.00, 0.00, 0.00, 0.00, 0.01, 0.01, 1.02
241, 0.00, 45457.50, 0.00, 0.00, 0.00, 0.00, 0.00, 0.00, 0.01, 0.01, 1.02
242, 0.00, 45463.20, 0.00, 0.00, 0.00, 0.00, 0.00, 0.00, 0.01, 0.01, 1.02
243, 0.00, 45483.43, 0.00, 0.00, 0.00, 0.00, 0.00, 0.00, 0.01, 0.00, 1.02
244, 0.00, 45472.86, 0.00, 0.00, 0.00, 0.00, 0.00, 0.00, 0.01, 0.00, 1.02
245, 0.00, 45458.15, 0.00, 0.00, 0.00, 0.00, 0.00, 0.00, 0.01, 0.00, 1.02
246, 0.00, 45457.77, 0.00, 0.00, 0.00, 0.00, 0.00, 0.00, 0.01, 0.00, 1.02
247, 0.00, 45474.42, 0.00, 0.00, 0.00, 0.00, 0.00, 0.00, 0.01, 0.00, 1.02
248, 0.00, 45473.39, 0.00, 0.00, 0.00, 0.00, 0.00, 0.00, 0.01, 0.00, 1.02
249, 0.00, 45457.08, 0.00, 0.00, 0.00, 0.00, 0.00, 0.00, 0.01, 0.00, 1.02
250, 0.00, 45446.82, 0.00, 0.00, 0.00, 0.00, 0.00, 0.00, 0.01, 0.00, 1.02
251, 0.00, 45472.61, 0.00, 0.00, 0.00, 0.00, 0.00, 0.00, 0.01, 0.00, 1.02
252, 0.00, 45481.55, 0.00, 0.00, 0.00, 0.00, 0.00, 0.00, 0.01, 0.00, 1.02
253, 0.00, 45463.80, 0.00, 0.00, 0.00, 0.00, 0.00, 0.00, 0.01, 0.01, 1.02
254, 0.00, 45456.43, 0.00, 0.00, 0.00, 0.00, 0.00, 0.00, 0.01, 0.01, 1.02
255, 0.00, 45471.56, 0.00, 0.00, 0.00, 0.00, 0.00, 0.00, 0.01, 0.01, 1.02
0, 0.00, 45485.17, 0.00, 0.00, 0.00, 0.00, 0.00, 0.00, 0.01, 0.01, 1.02
1, 0.00, 45466.11, 0.00, 0.00, 0.00, 0.00, 0.00, 0.00, 0.01, 0.01, 1.02
2, 0.00, 45449.43, 0.00, 0.00, 0.00, 0.00, 0.00, 0.00, 0.01, 0.00, 1.02
3, 0.00, 45475.79, 0.00, 0.00, 0.00, 0.00, 0.00, 0.00, 0.01, 0.00, 1.02
4, 0.00, 45497.73, 0.00, 0.00, 0.00, 0.00, 0.00, 0.00, 0.01, 0.00, 1.02
5, 0.00, 45474.36, 0.00, 0.00, 0.00, 0.00, 0.00, 0.00, 0.01, 0.00, 1.02
6, 0.00, 45448.27, 0.00, 0.00, 0.00, 0.00, 0.00, 0.00, 0.01, 0.00, 1.02
7, 0.00, 45461.70, 0.00, 0.00, 0.00, 0.00, 0.00, 0.00, 0.01, 0.01, 1.02
8, 0.00, 45487.70, 0.00, 0.00, 0.00, 0.00, 0.00, 0.00, 0.01, 0.01, 1.02
9, 0.00, 45475.90, 0.00, 0.00, 0.00, 0.00, 0.00, 0.00, 0.01, 0.01, 1.02
10, 0.00, 45448.89, 0.00, 0.00, 0.00, 0.00, 0.00, 0.00, 0.01, 0.01, 1.02
11, 0.00, 45462.84, 0.00, 0.00, 0.00, 0.00, 0.00, 0.00, 0.01, 0.01, 1.02
12, 0.00, 45487.95, 0.00, 0.00, 0.00, 0.00, 0.00, 0.00, 0.00, 0.00, 1.02
13, 0.00, 45475.94, 0.00, 0.00, 0.00, 0.00, 0.00, 0.00, 0.00, 0.00, 1.02
14, 0.00, 45451.62, 0.00, 0.00, 0.00, 0.00, 0.00, 0.00, 0.00, 0.00, 1.02
15, 0.00, 45451.67, 0.00, 0.00, 0.00, 0.00, 0.00, 0.00, 0.00, 0.00, 1.02
16, 0.00, 45476.84, 0.00, 0.00, 0.00, 0.00, 0.00, 0.00, 0.00, 0.00, 1.02
17, 0.00, 45478.11, 0.00, 0.00, 0.00, 0.00, 0.00, 0.00, 0.01, -0.00, 1.02
18, 0.00, 45456.47, 0.00, 0.00, 0.00, 0.00, 0.00, 0.00, 0.01, -0.00, 1.02
19, 0.00, 45453.95, 0.00, 0.00, 0.00, 0.00, 0.00, 0.00, 0.01, -0.00, 1.02
20, 0.00, 45464.59, 0.00, 0.00, 0.00, 0.00, 0.00, 0.00, 0.01, -0.00, 1.02
21, 0.00, 45476.54, 0.00, 0.00, 0.00, 0.00, 0.00, 0.00, 0.01, -0.00, 1.02
22, 0.00, 45456.52, 0.00, 0.00, 0.00, 0.00, 0.00, 0.00, 0.02, 0.00, 1.01
23, 0.00, 45442.30, 0.00, 0.00, 0.00, 0.00, 0.00, 0.00, 0.02, 0.00, 1.01
24, 0.00, 45462.17, 0.00, 0.00, 0.00, 0.00, 0.00, 0.00, 0.02, 0.00, 1.01
25, 0.00, 45483.77, 0.00, 0.00, 0.00, 0.00, 0.00, 0.00, 0.02, 0.00, 1.01
26, 0.00, 45463.04, 0.00, 0.00, 0.00, 0.00, 0.00, 0.00, 0.02, 0.00, 1.01
27, 0.00, 45432.36, 0.00, 0.00, 0.00, 0.00, 0.00, 0.00, 0.02, 0.01, 1.00
28, 0.00, 45450.06, 0.00, 0.00, 0.00, 0.00, 0.00, 0.00, 0.02, 0.01, 1.00
29, 0.00, 45469.79, 0.00, 0.00, 0.00, 0.00, 0.00, 0.00, 0.02, 0.01, 1.00
30, 0.00, 45453.93, 0.00, 0.00, 0.00, 0.00, 0.00, 0.00, 0.02, 0.01, 1.00
31, 0.00, 45428.20, 0.00, 0.00, 0.00, 0.00, 0.00, 0.00, 0.02, 0.01, 1.00
32, 0.00, 45443.49, 0.00, 0.00, 0.00, 0.00, 0.00, 0.00, 0.02, 0.01, 1.00
33, 0.00, 45468.14, 0.00, 0.00, 0.00, 0.00, 0.00, 0.00, 0.01, 0.01, 1.01
34, 0.00, 45457.93, 0.00, 0.00, 0.00, 0.00, 0.00, 0.00, 0.01, 0.01, 1.01
35, 0.00, 45443.46, 0.00, 0.00, 0.00, 0.00, 0.00, 0.00, 0.01, 0.01, 1.01
36, 0.00, 45445.32, 0.00, 0.00, 0.00, 0.00, 0.00, 0.00, 0.01, 0.01, 1.01
37, 0.00, 45465.55, 0.00, 0.00, 0.00, 0.00, 0.00, 0.00, 0.01, 0.01, 1.01
38, 0.00, 45456.09, 0.00, 0.00, 0.00, 0.00, 0.00, 0.00, 0.01, 0.01, 1.02
39, 0.00, 45435.04, 0.00, 0.00, 0.00, 0.00, 0.00, 0.00, 0.01, 0.01, 1.02
40, 0.00, 45439.84, 0.00, 0.00, 0.00, 0.00, 0.00, 0.00, 0.01, 0.01, 1.02
41, 0.00, 45462.26, 0.00, 0.00, 0.00, 0.00, 0.00, 0.00, 0.01, 0.01, 1.02
42, 0.00, 45461.50, 0.00, 0.00, 0.00, 0.00, 0.00, 0.00, 0.01, 0.01, 1.02
43, 0.00, 45438.91, 0.00, 0.00, 0.00, 0.00, 0.00, 0.00, 0.00, 0.01, 1.02
44, 0.00, 45433.68, 0.00, 0.00, 0.00, 0.00, 0.00, 0.00, 0.00, 0.01, 1.02
45, 0.00, 45441.14, 0.00, 0.00, 0.00, 0.00, 0.00, 0.00, 0.00, 0.01, 1.02
46, 0.00, 45453.97, 0.00, 0.00, 0.00, 0.00, 0.00, 0.00, 0.00, 0.01, 1.02
47, 0.00, 45436.89, 0.00, 0.00, 0.00, 0.00, 0.00, 0.00, 0.00, 0.01, 1.02
48, 0.00, 45429.36, 0.00, 0.00, 0.00, 0.00, 0.00, 0.00, 0.00, 0.01, 1.02
49, 0.00, 45450.80, 0.00, 0.00, 0.00, 0.00, 0.00, 0.00, 0.00, 0.01, 1.02
50, 0.00, 45464.88, 0.00, 0.00, 0.00, 0.00, 0.00, 0.00, 0.00, 0.01, 1.02
51, 0.00, 45444.52, 0.00, 0.00, 0.00, 0.00, 0.00, 0.00, 0.00, 0.01, 1.02
52, 0.00, 45433.18, 0.00, 0.00, 0.00, 0.00, 0.00, 0.00, 0.00, 0.01, 1.02
53, 0.00, 45442.23, 0.00, 0.00, 0.00, 0.00, 0.00, 0.00, 0.01, 0.01, 1.01
54, 0.00, 45459.42, 0.00, 0.00, 0.00, 0.00, 0.00, 0.00, 0.01, 0.01, 1.01
55, 0.00, 45439.62, 0.00, 0.00, 0.00, 0.00, 0.00, 0.00, 0.01, 0.01, 1.01
56, 0.00, 45422.61, 0.00, 0.00, 0.00, 0.00, 0.00, 0.00, 0.01, 0.01, 1.01
57, 0.00, 45436.16, 0.00, 0.00, 0.00, 0.00, 0.00, 0.00, 0.01, 0.01, 1.01
58, 0.00, 45453.63, 0.00, 0.00, 0.00, 0.00, 0.00, 0.00, 0.01, 0.01, 1.01
59, 0.00, 45447.62, 0.00, 0.00, 0.00, 0.00, 0.00, 0.00, 0.01, 0.01, 1.01
60, 0.00, 45421.02, 0.00, 0.00, 0.00, 0.00, 0.00, 0.00, 0.01, 0.01, 1.01
61, 0.00, 45433.12, 0.00, 0.00, 0.00, 0.00, 0.00, 0.00, 0.01, 0.01, 1.01
62, 0.00, 45458.37, 0.00, 0.00, 0.00, 0.00, 0.00, 0.00, 0.01, 0.01, 1.01
63, 0.00, 45455.76, 0.00, 0.00, 0.00, 0.00, 0.00, 0.00, 0.01, 0.01, 1.01
64, 0.00, 45434.14, 0.00, 0.00, 0.00, 0.00, 0.00, 0.00, 0.01, 0.01, 1.01
65, 0.00, 45432.11, 0.00, 0.00, 0.00, 0.00, 0.00, 0.00, 0.01, 0.01, 1.01
66, 0.00, 45454.82, 0.00, 0.00, 0.00, 0.00, 0.00, 0.00, 0.01, 0.01, 1.01
67, 0.00, 45457.34, 0.00, 0.00, 0.00, 0.00, 0.00, 0.00, 0.01, 0.01, 1.01
68, 0.00, 45437.88, 0.00, 0.00, 0.00, 0.00, 0.00, 0.00, 0.01, 0.01, 1.01
69, 0.00, 45422.12, 0.00, 0.00, 0.00, 0.00, 0.00, 0.00, 0.01, 0.01, 1.01
70, 0.00, 45445.99, 0.00, 0.00, 0.00, 0.00, 0.00, 0.00, 0.01, 0.01, 1.01
71, 0.00, 45460.63, 0.00, 0.00, 0.00, 0.00, 0.00, 0.00, 0.01, 0.01, 1.01
72, 0.00, 45433.74, 0.00, 0.00, 0.00, 0.00, 0.00, 0.00, 0.01, 0.01, 1.01
73, 0.00, 45424.27, 0.00, 0.00, 0.00, 0.00, 0.00, 0.00, 0.01, 0.02, 1.01
74, 0.00, 45443.80, 0.00, 0.00, 0.00, 0.00, 0.00, 0.00, 0.01, 0.02, 1.01
75, 0.00, 45454.73, 0.00, 0.00, 0.00, 0.00, 0.00, 0.00, 0.01, 0.02, 1.01
76, 0.00, 45438.88, 0.00, 0.00, 0.00, 0.00, 0.00, 0.00, 0.01, 0.02, 1.01
77, 0.00, 45418.07, 0.00, 0.00, 0.00, 0.00, 0.00, 0.00, 0.01, 0.02, 1.01
78, 0.00, 45430.28, 0.00, 0.00, 0.00, 0.00, 0.00, 0.00, 0.01, 0.01, 1.02
79, 0.00, 45453.05, 0.00, 0.00, 0.00, 0.00, 0.00, 0.00, 0.01, 0.01, 1.02
80, 0.00, 45437.05, 0.00, 0.00, 0.00, 0.00, 0.00, 0.00, 0.01, 0.01, 1.02
81, 0.00, 45419.84, 0.00, 0.00, 0.00, 0.00, 0.00, 0.00, 0.01, 0.01, 1.02
82, 0.00, 45436.69, 0.00, 0.00, 0.00, 0.00, 0.00, 0.00, 0.01, 0.01, 1.02
83, 0.00, 45457.03, 0.00, 0.00, 0.00, 0.00, 0.00, 0.00, 0.01, 0.01, 1.01
84, 0.00, 45453.84, 0.00, 0.00, 0.00, 0.00, 0.00, 0.00, 0.01, 0.01, 1.01
85, 0.00, 45430.63, 0.00, 0.00, 0.00, 0.00, 0.00, 0.00, 0.01, 0.01, 1.01
86, 0.00, 45425.25, 0.00, 0.00, 0.00, 0.00, 0.00, 0.00, 0.01, 0.01, 1.01
87, 0.00, 45451.98, 0.00, 0.00, 0.00, 0.00, 0.00, 0.00, 0.01, 0.01, 1.01
88, 0.00, 45443.46, 0.00, 0.00, 0.00, 0.00, 0.00, 0.00, 0.01, 0.01, 1.01
89, 0.00, 45416.26, 0.00, 0.00, 0.00, 0.00, 0.00, 0.00, 0.01, 0.01, 1.01
90, 0.00, 45418.72, 0.00, 0.00, 0.00, 0.00, 0.00, 0.00, 0.01, 0.01, 1.01
91, 0.00, 45443.91, 0.00, 0.00, 0.00, 0.00, 0.00, 0.00, 0.01, 0.01, 1.01
92, 0.00, 45450.44, 0.00, 0.00, 0.00, 0.00, 0.00, 0.00, 0.01, 0.01, 1.01
