%OpenBCI Raw EEG Data
%
%Sample Rate = 250.0 Hz
%First Column = SampleIndex
%Other Columns = EEG data in microvolts followed by Accel Data (in G) interleaved with Aux Data
0, 0.00, -162224.53, 0.00, 0.00, 0.00, 0.00, 0.00, 0.00, 0.00, 0.05, -0.94
1, 0.00, -161630.67, 0.00, 0.00, 0.00, 0.00, 0.00, 0.00, 0.00, 0.05, -0.94
2, 0.00, -162892.78, 0.00, 0.00, 0.00, 0.00, 0.00, 0.00, 0.01, 0.02, -0.95
3, 0.00, -163636.47, 0.00, 0.00, 0.00, 0.00, 0.00, 0.00, 0.01, 0.02, -0.95
4, 0.00, -162527.39, 0.00, 0.00, 0.00, 0.00, 0.00, 0.00, 0.01, 0.02, -0.95
5, 0.00, -161618.47, 0.00, 0.00, 0.00, 0.00, 0.00, 0.00, 0.01, 0.02, -0.95
6, 0.00, -162667.75, 0.00, 0.00, 0.00, 0.00, 0.00, 0.00, 0.01, 0.02, -0.95
7, 0.00, -163685.81, 0.00, 0.00, 0.00, 0.00, 0.00, 0.00, 0.01, 0.02, -0.94
8, 0.00, -162823.89, 0.00, 0.00, 0.00, 0.00, 0.00, 0.00, 0.01, 0.02, -0.94
9, 0.00, -161659.92, 0.00, 0.00, 0.00, 0.00, 0.00, 0.00, 0.01, 0.02, -0.94
10, 0.00, -162424.69, 0.00, 0.00, 0.00, 0.00, 0.00, 0.00, 0.01, 0.02, -0.94
11, 0.00, -163657.92, 0.00, 0.00, 0.00, 0.00, 0.00, 0.00, 0.01, 0.02, -0.94
12, 0.00, -163113.69, 0.00, 0.00, 0.00, 0.00, 0.00, 0.00, 0.01, 0.02, -0.93
13, 0.00, -161788.14, 0.00, 0.00, 0.00, 0.00, 0.00, 0.00, 0.01, 0.02, -0.93
14, 0.00, -162196.52, 0.00, 0.00, 0.00, 0.00, 0.00, 0.00, 0.01, 0.02, -0.93
15, 0.00, -163563.89, 0.00, 0.00, 0.00, 0.00, 0.00, 0.00, 0.01, 0.02, -0.93
16, 0.00, -163356.47, 0.00, 0.00, 0.00, 0.00, 0.00, 0.00, 0.01, 0.02, -0.93
17, 0.00, -161957.06, 0.00, 0.00, 0.00, 0.00, 0.00, 0.00, 0.00, 0.02, -0.94
18, 0.00, -162000.94, 0.00, 0.00, 0.00, 0.00, 0.00, 0.00, 0.00, 0.02, -0.94
19, 0.00, -163410.47, 0.00, 0.00, 0.00, 0.00, 0.00, 0.00, 0.00, 0.02, -0.94
20, 0.00, -163572.81, 0.00, 0.00, 0.00, 0.00, 0.00, 0.00, 0.00, 0.02, -0.94
21, 0.00, -162197.08, 0.00, 0.00, 0.00, 0.00, 0.00, 0.00, 0.00, 0.02, -0.94
22, 0.00, -161862.80, 0.00, 0.00, 0.00, 0.00, 0.00, 0.00, 0.01, 0.02, -0.94
23, 0.00, -163219.23, 0.00, 0.00, 0.00, 0.00, 0.00, 0.00, 0.01, 0.02, -0.94
24, 0.00, -163717.42, 0.00, 0.00, 0.00, 0.00, 0.00, 0.00, 0.01, 0.02, -0.94
25, 0.00, -162462.52, 0.00, 0.00, 0.00, 0.00, 0.00, 0.00, 0.01, 0.02, -0.94
26, 0.00, -161773.16, 0.00, 0.00, 0.00, 0.00, 0.00, 0.00, 0.01, 0.02, -0.94
27, 0.00, -162981.52, 0.00, 0.00, 0.00, 0.00, 0.00, 0.00, 0.00, 0.02, -0.94
28, 0.00, -163805.25, 0.00, 0.00, 0.00, 0.00, 0.00, 0.00, 0.00, 0.02, -0.94
29, 0.00, -162752.81, 0.00, 0.00, 0.00, 0.00, 0.00, 0.00, 0.00, 0.02, -0.94
30, 0.00, -161762.41, 0.00, 0.00, 0.00, 0.00, 0.00, 0.00, 0.00, 0.02, -0.94
31, 0.00, -162723.91, 0.00, 0.00, 0.00, 0.00, 0.00, 0.00, 0.00, 0.02, -0.94
32, 0.00, -163813.41, 0.00, 0.00, 0.00, 0.00, 0.00, 0.00, 0.01, 0.02, -0.94
33, 0.00, -163034.61, 0.00, 0.00, 0.00, 0.00, 0.00, 0.00, 0.01, 0.02, -0.94
34, 0.00, -161819.47, 0.00, 0.00, 0.00, 0.00, 0.00, 0.00, 0.01, 0.02, -0.94
35, 0.00, -162490.06, 0.00, 0.00, 0.00, 0.00, 0.00, 0.00, 0.01, 0.02, -0.94
36, 0.00, -163772.03, 0.00, 0.00, 0.00, 0.00, 0.00, 0.00, 0.01, 0.02, -0.94
37, 0.00, -163318.92, 0.00, 0.00, 0.00, 0.00, 0.00, 0.00, 0.01, 0.03, -0.95
38, 0.00, -161958.20, 0.00, 0.00, 0.00, 0.00, 0.00, 0.00, 0.01, 0.03, -0.95
39, 0.00, -162276.03, 0.00, 0.00, 0.00, 0.00, 0.00, 0.00, 0.01, 0.03, -0.95
40, 0.00, -163656.16, 0.00, 0.00, 0.00, 0.00, 0.00, 0.00, 0.01, 0.03, -0.95
41, 0.00, -163548.72, 0.00, 0.00, 0.00, 0.00, 0.00, 0.00, 0.01, 0.03, -0.95
42, 0.00, -162144.75, 0.00, 0.00, 0.00, 0.00, 0.00, 0.00, 0.01, 0.03, -0.94
43, 0.00, -162081.86, 0.00, 0.00, 0.00, 0.00, 0.00, 0.00, 0.01, 0.03, -0.94
44, 0.00, -163490.80, 0.00, 0.00, 0.00, 0.00, 0.00, 0.00, 0.01, 0.03, -0.94
45, 0.00, -163745.19, 0.00, 0.00, 0.00, 0.00, 0.00, 0.00, 0.01, 0.03, -0.94
46, 0.00, -162392.89, 0.00, 0.00, 0.00, 0.00, 0.00, 0.00, 0.01, 0.03, -0.94
47, 0.00, -161956.28, 0.00, 0.00, 0.00, 0.00, 0.00, 0.00, 0.01, 0.03, -0.95
48, 0.00, -163274.30, 0.00, 0.00, 0.00, 0.00, 0.00, 0.00, 0.01, 0.03, -0.95
49, 0.00, -163874.14, 0.00, 0.00, 0.00, 0.00, 0.00, 0.00, 0.01, 0.03, -0.95
50, 0.00, -162667.47, 0.00, 0.00, 0.00, 0.00, 0.00, 0.00, 0.01, 0.03, -0.95
51, 0.00, -161897.14, 0.00, 0.00, 0.00, 0.00, 0.00, 0.00, 0.01, 0.03, -0.95
52, 0.00, -163056.16, 0.00, 0.00, 0.00, 0.00, 0.00, 0.00, 0.01, 0.03, -0.94
53, 0.00, -163953.89, 0.00, 0.00, 0.00, 0.00, 0.00, 0.00, 0.01, 0.03, -0.94
54, 0.00, -162967.38, 0.00, 0.00, 0.00, 0.00, 0.00, 0.00, 0.01, 0.03, -0.94
55, 0.00, -161904.00, 0.00, 0.00, 0.00, 0.00, 0.00, 0.00, 0.01, 0.03, -0.94
56, 0.00, -162799.38, 0.00, 0.00, 0.00, 0.00, 0.00, 0.00, 0.01, 0.03, -0.94
57, 0.00, -163939.13, 0.00, 0.00, 0.00, 0.00, 0.00, 0.00, 0.02, 0.03, -0.94
58, 0.00, -163241.88, 0.00, 0.00, 0.00, 0.00, 0.00, 0.00, 0.02, 0.03, -0.94
59, 0.00, -161972.80, 0.00, 0.00, 0.00, 0.00, 0.00, 0.00, 0.02, 0.03, -0.94
60, 0.00, -162553.55, 0.00, 0.00, 0.00, 0.00, 0.00, 0.00, 0.02, 0.03, -0.94
61, 0.00, -163871.25, 0.00, 0.00, 0.00, 0.00, 0.00, 0.00, 0.02, 0.03, -0.94
62, 0.00, -163506.69, 0.00, 0.00, 0.00, 0.00, 0.00, 0.00, 0.01, 0.03, -0.94
63, 0.00, -162123.13, 0.00, 0.00, 0.00, 0.00, 0.00, 0.00, 0.01, 0.03, -0.94
64, 0.00, -162326.55, 0.00, 0.00, 0.00, 0.00, 0.00, 0.00, 0.01, 0.03, -0.94
65, 0.00, -163726.45, 0.00, 0.00, 0.00, 0.00, 0.00, 0.00, 0.01, 0.03, -0.94
66, 0.00, -163720.98, 0.00, 0.00, 0.00, 0.00, 0.00, 0.00, 0.01, 0.03, -0.94
67, 0.00, -162320.42, 0.00, 0.00, 0.00, 0.00, 0.00, 0.00, 0.01, 0.03, -0.94
68, 0.00, -162165.19, 0.00, 0.00, 0.00, 0.00, 0.00, 0.00, 0.01, 0.03, -0.94
69, 0.00, -163564.31, 0.00, 0.00, 0.00, 0.00, 0.00, 0.00, 0.01, 0.03, -0.94
70, 0.00, -163916.27, 0.00, 0.00, 0.00, 0.00, 0.00, 0.00, 0.01, 0.03, -0.94
71, 0.00, -162595.23, 0.00, 0.00, 0.00, 0.00, 0.00, 0.00, 0.01, 0.03, -0.94
72, 0.00, -162061.50, 0.00, 0.00, 0.00, 0.00, 0.00, 0.00, 0.01, 0.03, -0.94
73, 0.00, -163355.39, 0.00, 0.00, 0.00, 0.00, 0.00, 0.00, 0.01, 0.03, -0.94
74, 0.00, -164043.98, 0.00, 0.00, 0.00, 0.00, 0.00, 0.00, 0.01, 0.03, -0.94
75, 0.00, -162899.55, 0.00, 0.00, 0.00, 0.00, 0.00, 0.00, 0.01, 0.03, -0.94
76, 0.00, -162052.02, 0.00, 0.00, 0.00, 0.00, 0.00, 0.00, 0.01, 0.03, -0.94
77, 0.00, -163146.25, 0.00, 0.00, 0.00, 0.00, 0.00, 0.00, 0.01, 0.03, -0.94
78, 0.00, -164139.83, 0.00, 0.00, 0.00, 0.00, 0.00, 0.00, 0.01, 0.03, -0.94
79, 0.00, -163229.08, 0.00, 0.00, 0.00, 0.00, 0.00, 0.00, 0.01, 0.03, -0.94
80, 0.00, -162085.33, 0.00, 0.00, 0.00, 0.00, 0.00, 0.00, 0.01, 0.03, -0.94
81, 0.00, -162881.20, 0.00, 0.00, 0.00, 0.00, 0.00, 0.00, 0.01, 0.03, -0.94
82, 0.00, -164072.08, 0.00, 0.00, 0.00, 0.00, 0.00, 0.00, 0.01, 0.03, -0.94
83, 0.00, -163460.73, 0.00, 0.00, 0.00, 0.00, 0.00, 0.00, 0.01, 0.03, -0.94
84, 0.00, -162150.09, 0.00, 0.00, 0.00, 0.00, 0.00, 0.00, 0.01, 0.03, -0.94
85, 0.00, -162630.14, 0.00, 0.00, 0.00, 0.00, 0.00, 0.00, 0.01, 0.03, -0.94
86, 0.00, -163974.77, 0.00, 0.00, 0.00, 0.00, 0.00, 0.00, 0.01, 0.03, -0.94
87, 0.00, -163698.61, 0.00, 0.00, 0.00, 0.00, 0.00, 0.00, 0.01, 0.02, -0.94
88, 0.00, -162280.72, 0.00, 0.00, 0.00, 0.00, 0.00, 0.00, 0.01, 0.02, -0.94
89, 0.00, -162381.06, 0.00, 0.00, 0.00, 0.00, 0.00, 0.00, 0.01, 0.02, -0.94
90, 0.00, -163785.17, 0.00, 0.00, 0.00, 0.00, 0.00, 0.00, 0.01, 0.02, -0.94
91, 0.00, -163869.44, 0.00, 0.00, 0.00, 0.00, 0.00, 0.00, 0.01, 0.02, -0.94
92, 0.00, -162467.47, 0.00, 0.00, 0.00, 0.00, 0.00, 0.00, 0.01, 0.02, -0.94
93, 0.00, -162179.48, 0.00, 0.00, 0.00, 0.00, 0.00, 0.00, 0.01, 0.02, -0.94
94, 0.00, -163544.89, 0.00, 0.00, 0.00, 0.00, 0.00, 0.00, 0.01, 0.02, -0.94
95, 0.00, -163986.86, 0.00, 0.00, 0.00, 0.00, 0.00, 0.00, 0.01, 0.02, -0.94
96, 0.00, -162680.17, 0.00, 0.00, 0.00, 0.00, 0.00, 0.00, 0.01, 0.02, -0.94
97, 0.00, -162035.03, 0.00, 0.00, 0.00, 0.00, 0.00, 0.00, 0.01, 0.02, -0.94
98, 0.00, -163271.70, 0.00, 0.00, 0.00, 0.00, 0.00, 0.00, 0.01, 0.02, -0.94
99, 0.00, -164041.19, 0.00, 0.00, 0.00, 0.00, 0.00, 0.00, 0.01, 0.02, -0.94
100, 0.00, -162936.81, 0.00, 0.00, 0.00, 0.00, 0.00, 0.00, 0.01, 0.02, -0.94
101, 0.00, -161976.31, 0.00, 0.00, 0.00, 0.00, 0.00, 0.00, 0.01, 0.02, -0.94
102, 0.00, -162994.70, 0.00, 0.00, 0.00, 0.00, 0.00, 0.00, 0.00, 0.02, -0.94
103, 0.00, -164031.56, 0.00, 0.00, 0.00, 0.00, 0.00, 0.00, 0.00, 0.02, -0.94
104, 0.00, -163175.27, 0.00, 0.00, 0.00, 0.00, 0.00, 0.00, 0.00, 0.02, -0.94
105, 0.00, -161968.47, 0.00, 0.00, 0.00, 0.00, 0.00, 0.00, 0.00, 0.02, -0.94
106, 0.00, -162687.30, 0.00, 0.00, 0.00, 0.00, 0.00, 0.00, 0.00, 0.02, -0.94
107, 0.00, -163951.97, 0.00, 0.00, 0.00, 0.00, 0.00, 0.00, 0.00, 0.02, -0.94
108, 0.00, -163441.97, 0.00, 0.00, 0.00, 0.00, 0.00, 0.00, 0.00, 0.02, -0.94
109, 0.00, -162109.63, 0.00, 0.00, 0.00, 0.00, 0.00, 0.00, 0.00, 0.02, -0.94
110, 0.00, -162500.80, 0.00, 0.00, 0.00, 0.00, 0.00, 0.00, 0.00, 0.02, -0.94
111, 0.00, -163913.52, 0.00, 0.00, 0.00, 0.00, 0.00, 0.00, 0.00, 0.02, -0.94
112, 0.00, -163777.11, 0.00, 0.00, 0.00, 0.00, 0.00, 0.00, 0.01, 0.02, -0.94
113, 0.00, -162388.84, 0.00, 0.00, 0.00, 0.00, 0.00, 0.00, 0.01, 0.02, -0.94
114, 0.00, -162413.48, 0.00, 0.00, 0.00, 0.00, 0.00, 0.00, 0.01, 0.02, -0.94
115, 0.00, -163846.97, 0.00, 0.00, 0.00, 0.00, 0.00, 0.00, 0.01, 0.02, -0.94
116, 0.00, -164053.58, 0.00, 0.00, 0.00, 0.00, 0.00, 0.00, 0.01, 0.02, -0.94
117, 0.00, -162677.53, 0.00, 0.00, 0.00, 0.00, 0.00, 0.00, 0.01, 0.02, -0.95
118, 0.00, -162298.06, 0.00, 0.00, 0.00, 0.00, 0.00, 0.00, 0.01, 0.02, -0.95
119, 0.00, -163646.14, 0.00, 0.00, 0.00, 0.00, 0.00, 0.00, 0.01, 0.02, -0.95
120, 0.00, -164178.88, 0.00, 0.00, 0.00, 0.00, 0.00, 0.00, 0.01, 0.02, -0.95
121, 0.00, -162922.23, 0.00, 0.00, 0.00, 0.00, 0.00, 0.00, 0.01, 0.02, -0.95
122, 0.00, -162182.05, 0.00, 0.00, 0.00, 0.00, 0.00, 0.00, 0.01, 0.02, -0.94
123, 0.00, -163364.69, 0.00, 0.00, 0.00, 0.00, 0.00, 0.00, 0.01, 0.02, -0.94
124, 0.00, -164231.19, 0.00, 0.00, 0.00, 0.00, 0.00, 0.00, 0.01, 0.02, -0.94
125, 0.00, -163184.73, 0.00, 0.00, 0.00, 0.00, 0.00, 0.00, 0.01, 0.02, -0.94
126, 0.00, -162149.92, 0.00, 0.00, 0.00, 0.00, 0.00, 0.00, 0.01, 0.02, -0.94
127, 0.00, -163087.31, 0.00, 0.00, 0.00, 0.00, 0.00, 0.00, 0.01, 0.02, -0.94
128, 0.00, -164199.91, 0.00, 0.00, 0.00, 0.00, 0.00, 0.00, 0.01, 0.02, -0.94
129, 0.00, -163432.19, 0.00, 0.00, 0.00, 0.00, 0.00, 0.00, 0.01, 0.02, -0.94
130, 0.00, -162160.83, 0.00, 0.00, 0.00, 0.00, 0.00, 0.00, 0.01, 0.02, -0.94
131, 0.00, -162788.91, 0.00, 0.00, 0.00, 0.00, 0.00, 0.00, 0.01, 0.02, -0.94
132, 0.00, -164086.75, 0.00, 0.00, 0.00, 0.00, 0.00, 0.00, 0.01, 0.03, -0.94
133, 0.00, -163650.13, 0.00, 0.00, 0.00, 0.00, 0.00, 0.00, 0.01, 0.03, -0.94
134, 0.00, -162248.00, 0.00, 0.00, 0.00, 0.00, 0.00, 0.00, 0.01, 0.03, -0.94
135, 0.00, -162513.92, 0.00, 0.00, 0.00, 0.00, 0.00, 0.00, 0.01, 0.03, -0.94
136, 0.00, -163917.50, 0.00, 0.00, 0.00, 0.00, 0.00, 0.00, 0.01, 0.03, -0.94
137, 0.00, -163847.56, 0.00, 0.00, 0.00, 0.00, 0.00, 0.00, 0.01, 0.03, -0.94
138, 0.00, -162422.88, 0.00, 0.00, 0.00, 0.00, 0.00, 0.00, 0.01, 0.03, -0.93
139, 0.00, -162314.50, 0.00, 0.00, 0.00, 0.00, 0.00, 0.00, 0.01, 0.03, -0.93
140, 0.00, -163740.30, 0.00, 0.00, 0.00, 0.00, 0.00, 0.00, 0.01, 0.03, -0.93
141, 0.00, -164048.25, 0.00, 0.00, 0.00, 0.00, 0.00, 0.00, 0.01, 0.03, -0.93
142, 0.00, -162697.69, 0.00, 0.00, 0.00, 0.00, 0.00, 0.00, 0.01, 0.03, -0.93
143, 0.00, -162222.52, 0.00, 0.00, 0.00, 0.00, 0.00, 0.00, 0.01, 0.03, -0.94
144, 0.00, -163546.41, 0.00, 0.00, 0.00, 0.00, 0.00, 0.00, 0.01, 0.03, -0.94
145, 0.00, -164185.05, 0.00, 0.00, 0.00, 0.00, 0.00, 0.00, 0.01, 0.03, -0.94
146, 0.00, -162983.30, 0.00, 0.00, 0.00, 0.00, 0.00, 0.00, 0.01, 0.03, -0.94
147, 0.00, -162163.06, 0.00, 0.00, 0.00, 0.00, 0.00, 0.00, 0.01, 0.03, -0.94
148, 0.00, -163314.67, 0.00, 0.00, 0.00, 0.00, 0.00, 0.00, 0.01, 0.03, -0.94
149, 0.00, -164258.53, 0.00, 0.00, 0.00, 0.00, 0.00, 0.00, 0.01, 0.03, -0.94
150, 0.00, -163296.30, 0.00, 0.00, 0.00, 0.00, 0.00, 0.00, 0.01, 0.03, -0.94
151, 0.00, -162196.02, 0.00, 0.00, 0.00, 0.00, 0.00, 0.00, 0.01, 0.03, -0.94
152, 0.00, -163073.53, 0.00, 0.00, 0.00, 0.00, 0.00, 0.00, 0.01, 0.03, -0.94
153, 0.00, -164261.72, 0.00, 0.00, 0.00, 0.00, 0.00, 0.00, 0.01, 0.02, -0.94
154, 0.00, -163606.25, 0.00, 0.00, 0.00, 0.00, 0.00, 0.00, 0.01, 0.02, -0.94
155, 0.00, -162318.92, 0.00, 0.00, 0.00, 0.00, 0.00, 0.00, 0.01, 0.02, -0.94
156, 0.00, -162880.27, 0.00, 0.00, 0.00, 0.00, 0.00, 0.00, 0.01, 0.02, -0.94
157, 0.00, -164239.19, 0.00, 0.00, 0.00, 0.00, 0.00, 0.00, 0.01, 0.02, -0.94
158, 0.00, -163922.03, 0.00, 0.00, 0.00, 0.00, 0.00, 0.00, 0.02, 0.02, -0.93
159, 0.00, -162522.75, 0.00, 0.00, 0.00, 0.00, 0.00, 0.00, 0.02, 0.02, -0.93
160, 0.00, -162701.20, 0.00, 0.00, 0.00, 0.00, 0.00, 0.00, 0.02, 0.02, -0.93
161, 0.00, -164134.83, 0.00, 0.00, 0.00, 0.00, 0.00, 0.00, 0.02, 0.02, -0.93
162, 0.00, -164181.00, 0.00, 0.00, 0.00, 0.00, 0.00, 0.00, 0.02, 0.02, -0.93
163, 0.00, -162775.92, 0.00, 0.00, 0.00, 0.00, 0.00, 0.00, 0.01, 0.03, -0.93
164, 0.00, -162579.72, 0.00, 0.00, 0.00, 0.00, 0.00, 0.00, 0.01, 0.03, -0.93
165, 0.00, -163994.13, 0.00, 0.00, 0.00, 0.00, 0.00, 0.00, 0.01, 0.03, -0.93
166, 0.00, -164397.44, 0.00, 0.00, 0.00, 0.00, 0.00, 0.00, 0.01, 0.03, -0.93
167, 0.00, -163076.88, 0.00, 0.00, 0.00, 0.00, 0.00, 0.00, 0.01, 0.03, -0.93
168, 0.00, -162496.22, 0.00, 0.00, 0.00, 0.00, 0.00, 0.00, 0.01, 0.03, -0.94
169, 0.00, -163789.86, 0.00, 0.00, 0.00, 0.00, 0.00, 0.00, 0.01, 0.03, -0.94
170, 0.00, -164524.19, 0.00, 0.00, 0.00, 0.00, 0.00, 0.00, 0.01, 0.03, -0.94
171, 0.00, -163381.02, 0.00, 0.00, 0.00, 0.00, 0.00, 0.00, 0.01, 0.03, -0.94
172, 0.00, -162481.34, 0.00, 0.00, 0.00, 0.00, 0.00, 0.00, 0.01, 0.03, -0.94
173, 0.00, -163560.78, 0.00, 0.00, 0.00, 0.00, 0.00, 0.00, 0.02, 0.02, -0.94
174, 0.00, -164585.30, 0.00, 0.00, 0.00, 0.00, 0.00, 0.00, 0.02, 0.02, -0.94
175, 0.00, -163694.47, 0.00, 0.00, 0.00, 0.00, 0.00, 0.00, 0.02, 0.02, -0.94
176, 0.00, -162528.78, 0.00, 0.00, 0.00, 0.00, 0.00, 0.00, 0.02, 0.02, -0.94
177, 0.00, -163320.09, 0.00, 0.00, 0.00, 0.00, 0.00, 0.00, 0.02, 0.02, -0.94
178, 0.00, -164564.38, 0.00, 0.00, 0.00, 0.00, 0.00, 0.00, 0.02, 0.02, -0.94
179, 0.00, -163993.31, 0.00, 0.00, 0.00, 0.00, 0.00, 0.00, 0.02, 0.02, -0.94
180, 0.00, -162660.80, 0.00, 0.00, 0.00, 0.00, 0.00, 0.00, 0.02, 0.02, -0.94
181, 0.00, -163117.48, 0.00, 0.00, 0.00, 0.00, 0.00, 0.00, 0.02, 0.02, -0.94
182, 0.00, -164499.17, 0.00, 0.00, 0.00, 0.00, 0.00, 0.00, 0.02, 0.02, -0.94
183, 0.00, -164274.98, 0.00, 0.00, 0.00, 0.00, 0.00, 0.00, 0.01, 0.02, -0.94
184, 0.00, -162854.95, 0.00, 0.00, 0.00, 0.00, 0.00, 0.00, 0.01, 0.02, -0.94
185, 0.00, -162930.08, 0.00, 0.00, 0.00, 0.00, 0.00, 0.00, 0.01, 0.02, -0.94
186, 0.00, -164366.55, 0.00, 0.00, 0.00, 0.00, 0.00, 0.00, 0.01, 0.02, -0.94
187, 0.00, -164509.27, 0.00, 0.00, 0.00, 0.00, 0.00, 0.00, 0.01, 0.02, -0.94
188, 0.00, -163121.70, 0.00, 0.00, 0.00, 0.00, 0.00, 0.00, 0.01, 0.02, -0.94
189, 0.00, -162809.91, 0.00, 0.00, 0.00, 0.00, 0.00, 0.00, 0.01, 0.02, -0.94
190, 0.00, -164194.59, 0.00, 0.00, 0.00, 0.00, 0.00, 0.00, 0.01, 0.02, -0.94
191, 0.00, -164691.48, 0.00, 0.00, 0.00, 0.00, 0.00, 0.00, 0.01, 0.02, -0.94
192, 0.00, -163403.52, 0.00, 0.00, 0.00, 0.00, 0.00, 0.00, 0.01, 0.02, -0.94
193, 0.00, -162730.28, 0.00, 0.00, 0.00, 0.00, 0.00, 0.00, 0.01, 0.02, -0.94
194, 0.00, -163970.41, 0.00, 0.00, 0.00, 0.00, 0.00, 0.00, 0.01, 0.02, -0.94
195, 0.00, -164785.64, 0.00, 0.00, 0.00, 0.00, 0.00, 0.00, 0.01, 0.02, -0.94
196, 0.00, -163704.86, 0.00, 0.00, 0.00, 0.00, 0.00, 0.00, 0.01, 0.02, -0.94
197, 0.00, -162713.88, 0.00, 0.00, 0.00, 0.00, 0.00, 0.00, 0.01, 0.02, -0.94
198, 0.00, -163720.47, 0.00, 0.00, 0.00, 0.00, 0.00, 0.00, 0.01, 0.02, -0.94
199, 0.00, -164803.11, 0.00, 0.00, 0.00, 0.00, 0.00, 0.00, 0.01, 0.02, -0.94
200, 0.00, -163983.98, 0.00, 0.00, 0.00, 0.00, 0.00, 0.00, 0.01, 0.02, -0.94
201, 0.00, -162753.27, 0.00, 0.00, 0.00, 0.00, 0.00, 0.00, 0.01, 0.02, -0.94
202, 0.00, -163441.52, 0.00, 0.00, 0.00, 0.00, 0.00, 0.00, 0.01, 0.02, -0.94
203, 0.00, -164740.05, 0.00, 0.00, 0.00, 0.00, 0.00, 0.00, 0.01, 0.02, -0.94
204, 0.00, -164256.81, 0.00, 0.00, 0.00, 0.00, 0.00, 0.00, 0.01, 0.02, -0.94
205, 0.00, -162885.31, 0.00, 0.00, 0.00, 0.00, 0.00, 0.00, 0.01, 0.02, -0.94
206, 0.00, -163227.52, 0.00, 0.00, 0.00, 0.00, 0.00, 0.00, 0.01, 0.02, -0.94
207, 0.00, -164635.28, 0.00, 0.00, 0.00, 0.00, 0.00, 0.00, 0.01, 0.02, -0.94
208, 0.00, -164505.30, 0.00, 0.00, 0.00, 0.00, 0.00, 0.00, 0.02, 0.02, -0.93
209, 0.00, -163078.52, 0.00, 0.00, 0.00, 0.00, 0.00, 0.00, 0.02, 0.02, -0.93
210, 0.00, -163042.25, 0.00, 0.00, 0.00, 0.00, 0.00, 0.00, 0.02, 0.02, -0.93
211, 0.00, -164472.05, 0.00, 0.00, 0.00, 0.00, 0.00, 0.00, 0.02, 0.02, -0.93
212, 0.00, -164710.42, 0.00, 0.00, 0.00, 0.00, 0.00, 0.00, 0.02, 0.02, -0.93
213, 0.00, -163335.20, 0.00, 0.00, 0.00, 0.00, 0.00, 0.00, 0.01, 0.02, -0.94
214, 0.00, -162916.45, 0.00, 0.00, 0.00, 0.00, 0.00, 0.00, 0.01, 0.02, -0.94
215, 0.00, -164268.47, 0.00, 0.00, 0.00, 0.00, 0.00, 0.00, 0.01, 0.02, -0.94
216, 0.00, -164851.19, 0.00, 0.00, 0.00, 0.00, 0.00, 0.00, 0.01, 0.02, -0.94
217, 0.00, -163614.25, 0.00, 0.00, 0.00, 0.00, 0.00, 0.00, 0.01, 0.02, -0.94
218, 0.00, -162849.58, 0.00, 0.00, 0.00, 0.00, 0.00, 0.00, 0.01, 0.03, -0.94
219, 0.00, -164028.05, 0.00, 0.00, 0.00, 0.00, 0.00, 0.00, 0.01, 0.03, -0.94
220, 0.00, -164946.91, 0.00, 0.00, 0.00, 0.00, 0.00, 0.00, 0.01, 0.03, -0.94
221, 0.00, -163938.73, 0.00, 0.00, 0.00, 0.00, 0.00, 0.00, 0.01, 0.03, -0.94
222, 0.00, -162885.84, 0.00, 0.00, 0.00, 0.00, 0.00, 0.00, 0.01, 0.03, -0.94
223, 0.00, -163816.48, 0.00, 0.00, 0.00, 0.00, 0.00, 0.00, 0.02, 0.03, -0.94
224, 0.00, -164965.13, 0.00, 0.00, 0.00, 0.00, 0.00, 0.00, 0.02, 0.03, -0.94
225, 0.00, -164243.61, 0.00, 0.00, 0.00, 0.00, 0.00, 0.00, 0.02, 0.03, -0.94
226, 0.00, -162971.28, 0.00, 0.00, 0.00, 0.00, 0.00, 0.00, 0.02, 0.03, -0.94
227, 0.00, -163583.73, 0.00, 0.00, 0.00, 0.00, 0.00, 0.00, 0.02, 0.03, -0.94
228, 0.00, -164918.86, 0.00, 0.00, 0.00, 0.00, 0.00, 0.00, 0.02, 0.02, -0.94
229, 0.00, -164533.58, 0.00, 0.00, 0.00, 0.00, 0.00, 0.00, 0.02, 0.02, -0.94
230, 0.00, -163140.30, 0.00, 0.00, 0.00, 0.00, 0.00, 0.00, 0.02, 0.02, -0.94
231, 0.00, -163373.95, 0.00, 0.00, 0.00, 0.00, 0.00, 0.00, 0.02, 0.02, -0.94
232, 0.00, -164797.48, 0.00, 0.00, 0.00, 0.00, 0.00, 0.00, 0.02, 0.02, -0.94
233, 0.00, -164773.45, 0.00, 0.00, 0.00, 0.00, 0.00, 0.00, 0.02, 0.02, -0.94
234, 0.00, -163359.42, 0.00, 0.00, 0.00, 0.00, 0.00, 0.00, 0.02, 0.02, -0.94
235, 0.00, -163215.78, 0.00, 0.00, 0.00, 0.00, 0.00, 0.00, 0.02, 0.02, -0.94
236, 0.00, -164643.17, 0.00, 0.00, 0.00, 0.00, 0.00, 0.00, 0.02, 0.02, -0.94
237, 0.00, -164994.22, 0.00, 0.00, 0.00, 0.00, 0.00, 0.00, 0.02, 0.02, -0.94
238, 0.00, -163651.16, 0.00, 0.00, 0.00, 0.00, 0.00, 0.00, 0.02, 0.03, -0.94
239, 0.00, -163141.31, 0.00, 0.00, 0.00, 0.00, 0.00, 0.00, 0.02, 0.03, -0.94
240, 0.00, -164463.44, 0.00, 0.00, 0.00, 0.00, 0.00, 0.00, 0.02, 0.03, -0.94
241, 0.00, -165144.83, 0.00, 0.00, 0.00, 0.00, 0.00, 0.00, 0.02, 0.03, -0.94
242, 0.00, -163967.52, 0.00, 0.00, 0.00, 0.00, 0.00, 0.00, 0.02, 0.03, -0.94
243, 0.00, -163122.59, 0.00, 0.00, 0.00, 0.00, 0.00, 0.00, 0.02, 0.03, -0.94
244, 0.00, -164261.20, 0.00, 0.00, 0.00, 0.00, 0.00, 0.00, 0.02, 0.03, -0.94
245, 0.00, -165242.66, 0.00, 0.00, 0.00, 0.00, 0.00, 0.00, 0.02, 0.03, -0.94
246, 0.00, -164310.84, 0.00, 0.00, 0.00, 0.00, 0.00, 0.00, 0.02, 0.03, -0.94
247, 0.00, -163197.17, 0.00, 0.00, 0.00, 0.00, 0.00, 0.00, 0.02, 0.03, -0.94
248, 0.00, -164044.75, 0.00, 0.00, 0.00, 0.00, 0.00, 0.00, 0.01, 0.03, -0.94
249, 0.00, -165266.30, 0.00, 0.00, 0.00, 0.00, 0.00, 0.00, 0.01, 0.03, -0.94
250, 0.00, -164642.47, 0.00, 0.00, 0.00, 0.00, 0.00, 0.00, 0.01, 0.03, -0.94
251, 0.00, -163344.17, 0.00, 0.00, 0.00, 0.00, 0.00, 0.00, 0.01, 0.03, -0.94
252, 0.00, -163880.45, 0.00, 0.00, 0.00, 0.00, 0.00, 0.00, 0.01, 0.03, -0.94
253, 0.00, -165253.80, 0.00, 0.00, 0.00, 0.00, 0.00, 0.00, 0.01, 0.03, -0.94
254, 0.00, -164975.42, 0.00, 0.00, 0.00, 0.00, 0.00, 0.00, 0.01, 0.03, -0.94
255, 0.00, -163575.38, 0.00, 0.00, 0.00, 0.00, 0.00, 0.00, 0.01, 0.03, -0.94
0, 0.00, -163727.06, 0.00, 0.00, 0.00, 0.00, 0.00, 0.00, 0.01, 0.03, -0.94
1, 0.00, -165166.41, 0.00, 0.00, 0.00, 0.00, 0.00, 0.00, 0.01, 0.03, -0.94
2, 0.00, -165250.38, 0.00, 0.00, 0.00, 0.00, 0.00, 0.00, 0.02, 0.03, -0.94
3, 0.00, -163860.92, 0.00, 0.00, 0.00, 0.00, 0.00, 0.00, 0.02, 0.03, -0.94
4, 0.00, -163644.09, 0.00, 0.00, 0.00, 0.00, 0.00, 0.00, 0.02, 0.03, -0.94
5, 0.00, -165059.45, 0.00, 0.00, 0.00, 0.00, 0.00, 0.00, 0.02, 0.03, -0.94
6, 0.00, -165501.50, 0.00, 0.00, 0.00, 0.00, 0.00, 0.00, 0.02, 0.03, -0.94
7, 0.00, -164213.61, 0.00, 0.00, 0.00, 0.00, 0.00, 0.00, 0.01, 0.02, -0.94
8, 0.00, -163622.78, 0.00, 0.00, 0.00, 0.00, 0.00, 0.00, 0.01, 0.02, -0.94
9, 0.00, -164909.44, 0.00, 0.00, 0.00, 0.00, 0.00, 0.00, 0.01, 0.02, -0.94
10, 0.00, -165680.67, 0.00, 0.00, 0.00, 0.00, 0.00, 0.00, 0.01, 0.02, -0.94
11, 0.00, -164580.20, 0.00, 0.00, 0.00, 0.00, 0.00, 0.00, 0.01, 0.02, -0.94
12, 0.00, -163669.95, 0.00, 0.00, 0.00, 0.00, 0.00, 0.00, 0.01, 0.03, -0.95
13, 0.00, -164731.02, 0.00, 0.00, 0.00, 0.00, 0.00, 0.00, 0.01, 0.03, -0.95
14, 0.00, -165769.03, 0.00, 0.00, 0.00, 0.00, 0.00, 0.00, 0.01, 0.03, -0.95
15, 0.00, -164908.28, 0.00, 0.00, 0.00, 0.00, 0.00, 0.00, 0.01, 0.03, -0.95
16, 0.00, -163718.78, 0.00, 0.00, 0.00, 0.00, 0.00, 0.00, 0.01, 0.03, -0.95
17, 0.00, -164468.17, 0.00, 0.00, 0.00, 0.00, 0.00, 0.00, 0.01, 0.03, -0.95
18, 0.00, -165701.39, 0.00, 0.00, 0.00, 0.00, 0.00, 0.00, 0.01, 0.03, -0.95
19, 0.00, -165153.39, 0.00, 0.00, 0.00, 0.00, 0.00, 0.00, 0.01, 0.03, -0.95
20, 0.00, -163817.30, 0.00, 0.00, 0.00, 0.00, 0.00, 0.00, 0.01, 0.03, -0.95
21, 0.00, -164244.69, 0.00, 0.00, 0.00, 0.00, 0.00, 0.00, 0.01, 0.03, -0.95
22, 0.00, -165638.20, 0.00, 0.00, 0.00, 0.00, 0.00, 0.00, 0.01, 0.03, -0.94
23, 0.00, -165461.91, 0.00, 0.00, 0.00, 0.00, 0.00, 0.00, 0.01, 0.03, -0.94
24, 0.00, -164067.19, 0.00, 0.00, 0.00, 0.00, 0.00, 0.00, 0.01, 0.03, -0.94
25, 0.00, -164122.95, 0.00, 0.00, 0.00, 0.00, 0.00, 0.00, 0.01, 0.03, -0.94
26, 0.00, -165554.05, 0.00, 0.00, 0.00, 0.00, 0.00, 0.00, 0.01, 0.03, -0.94
27, 0.00, -165731.03, 0.00, 0.00, 0.00, 0.00, 0.00, 0.00, 0.01, 0.03, -0.95
28, 0.00, -164364.64, 0.00, 0.00, 0.00, 0.00, 0.00, 0.00, 0.01, 0.03, -0.95
29, 0.00, -164029.19, 0.00, 0.00, 0.00, 0.00, 0.00, 0.00, 0.01, 0.03, -0.95
30, 0.00, -165387.92, 0.00, 0.00, 0.00, 0.00, 0.00, 0.00, 0.01, 0.03, -0.95
31, 0.00, -165895.33, 0.00, 0.00, 0.00, 0.00, 0.00, 0.00, 0.01, 0.03, -0.95
32, 0.00, -164629.67, 0.00, 0.00, 0.00, 0.00, 0.00, 0.00, 0.01, 0.03, -0.94
33, 0.00, -163926.81, 0.00, 0.00, 0.00, 0.00, 0.00, 0.00, 0.01, 0.03, -0.94
34, 0.00, -165125.20, 0.00, 0.00, 0.00, 0.00, 0.00, 0.00, 0.01, 0.03, -0.94
35, 0.00, -165942.00, 0.00, 0.00, 0.00, 0.00, 0.00, 0.00, 0.01, 0.03, -0.94
36, 0.00, -164887.88, 0.00, 0.00, 0.00, 0.00, 0.00, 0.00, 0.01, 0.03, -0.94
37, 0.00, -163881.39, 0.00, 0.00, 0.00, 0.00, 0.00, 0.00, 0.01, 0.03, -0.94
38, 0.00, -164830.78, 0.00, 0.00, 0.00, 0.00, 0.00, 0.00, 0.01, 0.03, -0.94
39, 0.00, -165904.95, 0.00, 0.00, 0.00, 0.00, 0.00, 0.00, 0.01, 0.03, -0.94
40, 0.00, -165105.72, 0.00, 0.00, 0.00, 0.00, 0.00, 0.00, 0.01, 0.03, -0.94
41, 0.00, -163866.28, 0.00, 0.00, 0.00, 0.00, 0.00, 0.00, 0.01, 0.03, -0.94
42, 0.00, -164512.14, 0.00, 0.00, 0.00, 0.00, 0.00, 0.00, 0.01, 0.03, -0.93
43, 0.00, -165774.77, 0.00, 0.00, 0.00, 0.00, 0.00, 0.00, 0.01, 0.03, -0.93
44, 0.00, -165306.66, 0.00, 0.00, 0.00, 0.00, 0.00, 0.00, 0.01, 0.03, -0.93
45, 0.00, -163921.56, 0.00, 0.00, 0.00, 0.00, 0.00, 0.00, 0.01, 0.03, -0.93
46, 0.00, -164204.92, 0.00, 0.00, 0.00, 0.00, 0.00, 0.00, 0.01, 0.03, -0.93
47, 0.00, -165559.28, 0.00, 0.00, 0.00, 0.00, 0.00, 0.00, 0.01, 0.03, -0.94
48, 0.00, -165418.86, 0.00, 0.00, 0.00, 0.00, 0.00, 0.00, 0.01, 0.03, -0.94
49, 0.00, -163975.31, 0.00, 0.00, 0.00, 0.00, 0.00, 0.00, 0.01, 0.03, -0.94
50, 0.00, -163869.38, 0.00, 0.00, 0.00, 0.00, 0.00, 0.00, 0.01, 0.03, -0.94
51, 0.00, -165236.58, 0.00, 0.00, 0.00, 0.00, 0.00, 0.00, 0.01, 0.03, -0.94
52, 0.00, -165478.91, 0.00, 0.00, 0.00, 0.00, 0.00, 0.00, 0.01, 0.02, -0.94
53, 0.00, -164128.39, 0.00, 0.00, 0.00, 0.00, 0.00, 0.00, 0.01, 0.02, -0.94
54, 0.00, -163689.95, 0.00, 0.00, 0.00, 0.00, 0.00, 0.00, 0.01, 0.02, -0.94
55, 0.00, -165008.75, 0.00, 0.00, 0.00, 0.00, 0.00, 0.00, 0.01, 0.02, -0.94
56, 0.00, -165621.91, 0.00, 0.00, 0.00, 0.00, 0.00, 0.00, 0.01, 0.02, -0.94
57, 0.00, -164436.33, 0.00, 0.00, 0.00, 0.00, 0.00, 0.00, 0.01, 0.03, -0.94
58, 0.00, -163667.41, 0.00, 0.00, 0.00, 0.00, 0.00, 0.00, 0.01, 0.03, -0.94
59, 0.00, -164807.25, 0.00, 0.00, 0.00, 0.00, 0.00, 0.00, 0.01, 0.03, -0.94
60, 0.00, -165715.92, 0.00, 0.00, 0.00, 0.00, 0.00, 0.00, 0.01, 0.03, -0.94
61, 0.00, -164757.30, 0.00, 0.00, 0.00, 0.00, 0.00, 0.00, 0.01, 0.03, -0.94
62, 0.00, -163710.73, 0.00, 0.00, 0.00, 0.00, 0.00, 0.00, 0.01, 0.02, -0.94
63, 0.00, -164588.31, 0.00, 0.00, 0.00, 0.00, 0.00, 0.00, 0.01, 0.02, -0.94
64, 0.00, -165717.59, 0.00, 0.00, 0.00, 0.00, 0.00, 0.00, 0.01, 0.02, -0.94
65, 0.00, -165050.69, 0.00, 0.00, 0.00, 0.00, 0.00, 0.00, 0.01, 0.02, -0.94
66, 0.00, -163809.16, 0.00, 0.00, 0.00, 0.00, 0.00, 0.00, 0.01, 0.02, -0.94
67, 0.00, -164360.66, 0.00, 0.00, 0.00, 0.00, 0.00, 0.00, 0.01, 0.03, -0.94
68, 0.00, -165648.70, 0.00, 0.00, 0.00, 0.00, 0.00, 0.00, 0.01, 0.03, -0.94
69, 0.00, -165296.16, 0.00, 0.00, 0.00, 0.00, 0.00, 0.00, 0.01, 0.03, -0.94
70, 0.00, -163944.77, 0.00, 0.00, 0.00, 0.00, 0.00, 0.00, 0.01, 0.03, -0.94
71, 0.00, -164119.75, 0.00, 0.00, 0.00, 0.00, 0.00, 0.00, 0.01, 0.03, -0.94
72, 0.00, -165455.23, 0.00, 0.00, 0.00, 0.00, 0.00, 0.00, 0.01, 0.03, -0.94
73, 0.00, -165446.78, 0.00, 0.00, 0.00, 0.00, 0.00, 0.00, 0.01, 0.02, -0.94
74, 0.00, -164086.41, 0.00, 0.00, 0.00, 0.00, 0.00, 0.00, 0.01, 0.02, -0.94
75, 0.00, -163897.00, 0.00, 0.00, 0.00, 0.00, 0.00, 0.00, 0.01, 0.02, -0.94
76, 0.00, -165204.39, 0.00, 0.00, 0.00, 0.00, 0.00, 0.00, 0.01, 0.02, -0.94
77, 0.00, -165527.00, 0.00, 0.00, 0.00, 0.00, 0.00, 0.00, 0.01, 0.02, -0.94
78, 0.00, -164250.41, 0.00, 0.00, 0.00, 0.00, 0.00, 0.00, 0.01, 0.02, -0.94
79, 0.00, -163699.39, 0.00, 0.00, 0.00, 0.00, 0.00, 0.00, 0.01, 0.02, -0.94
80, 0.00, -164853.55, 0.00, 0.00, 0.00, 0.00, 0.00, 0.00, 0.01, 0.02, -0.94
81, 0.00, -165456.81, 0.00, 0.00, 0.00, 0.00, 0.00, 0.00, 0.01, 0.02, -0.94
82, 0.00, -164342.14, 0.00, 0.00, 0.00, 0.00, 0.00, 0.00, 0.01, 0.02, -0.94
83, 0.00, -163479.09, 0.00, 0.00, 0.00, 0.00, 0.00, 0.00, 0.02, 0.02, -0.93
84, 0.00, -164413.81, 0.00, 0.00, 0.00, 0.00, 0.00, 0.00, 0.02, 0.02, -0.93
85, 0.00, -165256.44, 0.00, 0.00, 0.00, 0.00, 0.00, 0.00, 0.02, 0.02, -0.93
86, 0.00, -164358.97, 0.00, 0.00, 0.00, 0.00, 0.00, 0.00, 0.02, 0.02, -0.93
87, 0.00, -163232.28, 0.00, 0.00, 0.00, 0.00, 0.00, 0.00, 0.02, 0.02, -0.93
88, 0.00, -163831.63, 0.00, 0.00, 0.00, 0.00, 0.00, 0.00, 0.01, 0.03, -0.95
89, 0.00, -164831.70, 0.00, 0.00, 0.00, 0.00, 0.00, 0.00, 0.01, 0.03, -0.95
90, 0.00, -164204.53, 0.00, 0.00, 0.00, 0.00, 0.00, 0.00, 0.01, 0.03, -0.95
91, 0.00, -162922.91, 0.00, 0.00, 0.00, 0.00, 0.00, 0.00, 0.01, 0.03, -0.95
92, 0.00, -163204.77, 0.00, 0.00, 0.00, 0.00, 0.00, 0.00, 0.01, 0.03, -0.95
93, 0.00, -164252.75, 0.00, 0.00, 0.00, 0.00, 0.00, 0.00, 0.01, 0.03, -0.95
94, 0.00, -163886.11, 0.00, 0.00, 0.00, 0.00, 0.00, 0.00, 0.01, 0.03, -0.95
95, 0.00, -162519.89, 0.00, 0.00, 0.00, 0.00, 0.00, 0.00, 0.01, 0.03, -0.95
96, 0.00, -162439.16, 0.00, 0.00, 0.00, 0.00, 0.00, 0.00, 0.01, 0.03, -0.95
97, 0.00, -163497.13, 0.00, 0.00, 0.00, 0.00, 0.00, 0.00, 0.01, 0.03, -0.95
98, 0.00, -163448.78, 0.00, 0.00, 0.00, 0.00, 0.00, 0.00, 0.01, 0.04, -0.94
99, 0.00, -162142.36, 0.00, 0.00, 0.00, 0.00, 0.00, 0.00, 0.01, 0.04, -0.94
100, 0.00, -161791.64, 0.00, 0.00, 0.00, 0.00, 0.00, 0.00, 0.01, 0.04, -0.94
101, 0.00, -162877.80, 0.00, 0.00, 0.00, 0.00, 0.00, 0.00, 0.01, 0.04, -0.94
102, 0.00, -163218.94, 0.00, 0.00, 0.00, 0.00, 0.00, 0.00, 0.01, 0.04, -0.94
103, 0.00, -162059.42, 0.00, 0.00, 0.00, 0.00, 0.00, 0.00, 0.02, 0.03, -0.93
104, 0.00, -161426.02, 0.00, 0.00, 0.00, 0.00, 0.00, 0.00, 0.02, 0.03, -0.93
105, 0.00, -162430.08, 0.00, 0.00, 0.00, 0.00, 0.00, 0.00, 0.02, 0.03, -0.93
106, 0.00, -163043.05, 0.00, 0.00, 0.00, 0.00, 0.00, 0.00, 0.02, 0.03, -0.93
107, 0.00, -161927.14, 0.00, 0.00, 0.00, 0.00, 0.00, 0.00, 0.02, 0.03, -0.93
108, 0.00, -160947.06, 0.00, 0.00, 0.00, 0.00, 0.00, 0.00, -0.03, 0.00, -1.06
109, 0.00, -161861.41, 0.00, 0.00, 0.00, 0.00, 0.00, 0.00, -0.03, 0.00, -1.06
110, 0.00, -162854.17, 0.00, 0.00, 0.00, 0.00, 0.00, 0.00, -0.03, 0.00, -1.06
111, 0.00, -162025.05, 0.00, 0.00, 0.00, 0.00, 0.00, 0.00, -0.03, 0.00, -1.06
112, 0.00, -160783.73, 0.00, 0.00, 0.00, 0.00, 0.00, 0.00, -0.03, 0.00, -1.06
113, 0.00, -161553.58, 0.00, 0.00, 0.00, 0.00, 0.00, 0.00, -0.02, -0.03, -0.97
114, 0.00, -163029.39, 0.00, 0.00, 0.00, 0.00, 0.00, 0.00, -0.02, -0.03, -0.97
115, 0.00, -162672.23, 0.00, 0.00, 0.00, 0.00, 0.00, 0.00, -0.02, -0.03, -0.97
116, 0.00, -161774.97, 0.00, 0.00, 0.00, 0.00, 0.00, 0.00, -0.02, -0.03, -0.97
117, 0.00, -164742.86, 0.00, 0.00, 0.00, 0.00, 0.00, 0.00, -0.02, -0.03, -0.97
118, 0.00, -169886.13, 0.00, 0.00, 0.00, 0.00, 0.00, 0.00, -0.01, -0.09, -0.89
119, 0.00, -172241.22, 0.00, 0.00, 0.00, 0.00, 0.00, 0.00, -0.01, -0.09, -0.89
120, 0.00, -171515.72, 0.00, 0.00, 0.00, 0.00, 0.00, 0.00, -0.01, -0.09, -0.89
121, 0.00, -172091.81, 0.00, 0.00, 0.00, 0.00, 0.00, 0.00, -0.01, -0.09, -0.89
122, 0.00, -175146.59, 0.00, 0.00, 0.00, 0.00, 0.00, 0.00, -0.01, -0.09, -0.89
123, 0.00, -176495.52, 0.00, 0.00, 0.00, 0.00, 0.00, 0.00, -0.03, 0.04, -0.83
124, 0.00, -174555.31, 0.00, 0.00, 0.00, 0.00, 0.00, 0.00, -0.03, 0.04, -0.83
125, 0.00, -173478.19, 0.00, 0.00, 0.00, 0.00, 0.00, 0.00, -0.03, 0.04, -0.83
126, 0.00, -175647.56, 0.00, 0.00, 0.00, 0.00, 0.00, 0.00, -0.03, 0.04, -0.83
127, 0.00, -177192.02, 0.00, 0.00, 0.00, 0.00, 0.00, 0.00, -0.03, 0.04, -0.83
128, 0.00, -175518.30, 0.00, 0.00, 0.00, 0.00, 0.00, 0.00, 0.01, 0.05, -0.91
129, 0.00, -173896.14, 0.00, 0.00, 0.00, 0.00, 0.00, 0.00, 0.01, 0.05, -0.91
130, 0.00, -175669.97, 0.00, 0.00, 0.00, 0.00, 0.00, 0.00, 0.01, 0.05, -0.91
131, 0.00, -177747.48, 0.00, 0.00, 0.00, 0.00, 0.00, 0.00, 0.01, 0.05, -0.91
132, 0.00, -176740.20, 0.00, 0.00, 0.00, 0.00, 0.00, 0.00, 0.01, 0.05, -0.91
133, 0.00, -174971.33, 0.00, 0.00, 0.00, 0.00, 0.00, 0.00, 0.01, 0.11, -0.87
134, 0.00, -176338.66, 0.00, 0.00, 0.00, 0.00, 0.00, 0.00, 0.01, 0.11, -0.87
135, 0.00, -178683.19, 0.00, 0.00, 0.00, 0.00, 0.00, 0.00, 0.01, 0.11, -0.87
136, 0.00, -178247.20, 0.00, 0.00, 0.00, 0.00, 0.00, 0.00, 0.01, 0.11, -0.87
137, 0.00, -176389.80, 0.00, 0.00, 0.00, 0.00, 0.00, 0.00, 0.01, 0.11, -0.87
138, 0.00, -177048.14, 0.00, 0.00, 0.00, 0.00, 0.00, 0.00, 0.01, 0.06, -0.89
139, 0.00, -179243.55, 0.00, 0.00, 0.00, 0.00, 0.00, 0.00, 0.01, 0.06, -0.89
140, 0.00, -179250.33, 0.00, 0.00, 0.00, 0.00, 0.00, 0.00, 0.01, 0.06, -0.89
141, 0.00, -177355.25, 0.00, 0.00, 0.00, 0.00, 0.00, 0.00, 0.01, 0.06, -0.89
142, 0.00, -177498.03, 0.00, 0.00, 0.00, 0.00, 0.00, 0.00, 0.01, 0.06, -0.89
143, 0.00, -179736.11, 0.00, 0.00, 0.00, 0.00, 0.00, 0.00, 0.01, 0.04, -0.91
144, 0.00, -180272.98, 0.00, 0.00, 0.00, 0.00, 0.00, 0.00, 0.01, 0.04, -0.91
145, 0.00, -178524.61, 0.00, 0.00, 0.00, 0.00, 0.00, 0.00, 0.01, 0.04, -0.91
146, 0.00, -178167.02, 0.00, 0.00, 0.00, 0.00, 0.00, 0.00, 0.01, 0.04, -0.91
147, 0.00, -180202.81, 0.00, 0.00, 0.00, 0.00, 0.00, 0.00, 0.01, 0.04, -0.91
148, 0.00, -181059.94, 0.00, 0.00, 0.00, 0.00, 0.00, 0.00, 0.00, 0.04, -0.93
149, 0.00, -179492.64, 0.00, 0.00, 0.00, 0.00, 0.00, 0.00, 0.00, 0.04, -0.93
150, 0.00, -178762.45, 0.00, 0.00, 0.00, 0.00, 0.00, 0.00, 0.00, 0.04, -0.93
151, 0.00, -180235.61, 0.00, 0.00, 0.00, 0.00, 0.00, 0.00, 0.00, 0.04, -0.93
152, 0.00, -180682.58, 0.00, 0.00, 0.00, 0.00, 0.00, 0.00, 0.00, 0.04, -0.93
153, 0.00, -178962.86, 0.00, 0.00, 0.00, 0.00, 0.00, 0.00, -0.00, 0.05, -0.93
154, 0.00, -177717.23, 0.00, 0.00, 0.00, 0.00, 0.00, 0.00, -0.00, 0.05, -0.93
155, 0.00, -178635.36, 0.00, 0.00, 0.00, 0.00, 0.00, 0.00, -0.00, 0.05, -0.93
156, 0.00, -179384.25, 0.00, 0.00, 0.00, 0.00, 0.00, 0.00, -0.00, 0.05, -0.93
157, 0.00, -178171.81, 0.00, 0.00, 0.00, 0.00, 0.00, 0.00, -0.00, 0.05, -0.93
158, 0.00, -176849.88, 0.00, 0.00, 0.00, 0.00, 0.00, 0.00, 0.01, 0.05, -0.94
159, 0.00, -177574.81, 0.00, 0.00, 0.00, 0.00, 0.00, 0.00, 0.01, 0.05, -0.94
160, 0.00, -178671.80, 0.00, 0.00, 0.00, 0.00, 0.00, 0.00, 0.01, 0.05, -0.94
161, 0.00, -177953.27, 0.00, 0.00, 0.00, 0.00, 0.00, 0.00, 0.01, 0.05, -0.94
162, 0.00, -176605.38, 0.00, 0.00, 0.00, 0.00, 0.00, 0.00, 0.01, 0.05, -0.94
163, 0.00, -177073.00, 0.00, 0.00, 0.00, 0.00, 0.00, 0.00, 0.02, 0.02, -0.93
164, 0.00, -178315.44, 0.00, 0.00, 0.00, 0.00, 0.00, 0.00, 0.02, 0.02, -0.93
165, 0.00, -177899.66, 0.00, 0.00, 0.00, 0.00, 0.00, 0.00, 0.02, 0.02, -0.93
166, 0.00, -176395.22, 0.00, 0.00, 0.00, 0.00, 0.00, 0.00, 0.02, 0.02, -0.93
167, 0.00, -176374.75, 0.00, 0.00, 0.00, 0.00, 0.00, 0.00, 0.02, 0.02, -0.93
168, 0.00, -177555.75, 0.00, 0.00, 0.00, 0.00, 0.00, 0.00, 0.02, 0.02, -0.93
169, 0.00, -177377.56, 0.00, 0.00, 0.00, 0.00, 0.00, 0.00, 0.02, 0.02, -0.93
170, 0.00, -175795.09, 0.00, 0.00, 0.00, 0.00, 0.00, 0.00, 0.02, 0.02, -0.93
171, 0.00, -175407.95, 0.00, 0.00, 0.00, 0.00, 0.00, 0.00, 0.02, 0.02, -0.93
172, 0.00, -176612.19, 0.00, 0.00, 0.00, 0.00, 0.00, 0.00, 0.02, 0.02, -0.93
173, 0.00, -176838.08, 0.00, 0.00, 0.00, 0.00, 0.00, 0.00, 0.02, 0.01, -0.93
174, 0.00, -175406.47, 0.00, 0.00, 0.00, 0.00, 0.00, 0.00, 0.02, 0.01, -0.93
175, 0.00, -174729.77, 0.00, 0.00, 0.00, 0.00, 0.00, 0.00, 0.02, 0.01, -0.93
176, 0.00, -175879.28, 0.00, 0.00, 0.00, 0.00, 0.00, 0.00, 0.02, 0.01, -0.93
177, 0.00, -176523.59, 0.00, 0.00, 0.00, 0.00, 0.00, 0.00, 0.02, 0.01, -0.93
178, 0.00, -175370.47, 0.00, 0.00, 0.00, 0.00, 0.00, 0.00, 0.01, 0.01, -0.93
179, 0.00, -174469.42, 0.00, 0.00, 0.00, 0.00, 0.00, 0.00, 0.01, 0.01, -0.93
180, 0.00, -175527.11, 0.00, 0.00, 0.00, 0.00, 0.00, 0.00, 0.01, 0.01, -0.93
181, 0.00, -176516.02, 0.00, 0.00, 0.00, 0.00, 0.00, 0.00, 0.01, 0.01, -0.93
182, 0.00, -175584.72, 0.00, 0.00, 0.00, 0.00, 0.00, 0.00, 0.01, 0.01, -0.93
183, 0.00, -174330.06, 0.00, 0.00, 0.00, 0.00, 0.00, 0.00, 0.02, 0.01, -0.94
184, 0.00, -175004.00, 0.00, 0.00, 0.00, 0.00, 0.00, 0.00, 0.02, 0.01, -0.94
185, 0.00, -176127.66, 0.00, 0.00, 0.00, 0.00, 0.00, 0.00, 0.02, 0.01, -0.94
186, 0.00, -175474.70, 0.00, 0.00, 0.00, 0.00, 0.00, 0.00, 0.02, 0.01, -0.94
187, 0.00, -174080.19, 0.00, 0.00, 0.00, 0.00, 0.00, 0.00, 0.02, 0.01, -0.94
188, 0.00, -174424.67, 0.00, 0.00, 0.00, 0.00, 0.00, 0.00, 0.02, 0.01, -0.94
189, 0.00, -175691.56, 0.00, 0.00, 0.00, 0.00, 0.00, 0.00, 0.02, 0.01, -0.94
190, 0.00, -175391.09, 0.00, 0.00, 0.00, 0.00, 0.00, 0.00, 0.02, 0.01, -0.94
191, 0.00, -173938.98, 0.00, 0.00, 0.00, 0.00, 0.00, 0.00, 0.02, 0.01, -0.94
192, 0.00, -173922.03, 0.00, 0.00, 0.00, 0.00, 0.00, 0.00, 0.02, 0.01, -0.94
193, 0.00, -175219.28, 0.00, 0.00, 0.00, 0.00, 0.00, 0.00, 0.03, 0.01, -0.93
194, 0.00, -175272.41, 0.00, 0.00, 0.00, 0.00, 0.00, 0.00, 0.03, 0.01, -0.93
195, 0.00, -173849.94, 0.00, 0.00, 0.00, 0.00, 0.00, 0.00, 0.03, 0.01, -0.93
196, 0.00, -173473.53, 0.00, 0.00, 0.00, 0.00, 0.00, 0.00, 0.03, 0.01, -0.93
197, 0.00, -174710.53, 0.00, 0.00, 0.00, 0.00, 0.00, 0.00, 0.03, 0.01, -0.93
198, 0.00, -175087.02, 0.00, 0.00, 0.00, 0.00, 0.00, 0.00, 0.02, 0.01, -0.93
199, 0.00, -173774.56, 0.00, 0.00, 0.00, 0.00, 0.00, 0.00, 0.02, 0.01, -0.93
200, 0.00, -173045.44, 0.00, 0.00, 0.00, 0.00, 0.00, 0.00, 0.02, 0.01, -0.93
201, 0.00, -174130.72, 0.00, 0.00, 0.00, 0.00, 0.00, 0.00, 0.02, 0.01, -0.93
202, 0.00, -174812.36, 0.00, 0.00, 0.00, 0.00, 0.00, 0.00, 0.02, 0.01, -0.93
203, 0.00, -173695.53, 0.00, 0.00, 0.00, 0.00, 0.00, 0.00, 0.02, 0.02, -0.94
204, 0.00, -172687.69, 0.00, 0.00, 0.00, 0.00, 0.00, 0.00, 0.02, 0.02, -0.94
205, 0.00, -173550.31, 0.00, 0.00, 0.00, 0.00, 0.00, 0.00, 0.02, 0.02, -0.94
206, 0.00, -174516.09, 0.00, 0.00, 0.00, 0.00, 0.00, 0.00, 0.02, 0.02, -0.94
207, 0.00, -173684.02, 0.00, 0.00, 0.00, 0.00, 0.00, 0.00, 0.02, 0.02, -0.94
208, 0.00, -172447.53, 0.00, 0.00, 0.00, 0.00, 0.00, 0.00, 0.02, 0.01, -0.93
209, 0.00, -173031.47, 0.00, 0.00, 0.00, 0.00, 0.00, 0.00, 0.02, 0.01, -0.93
210, 0.00, -174180.95, 0.00, 0.00, 0.00, 0.00, 0.00, 0.00, 0.02, 0.01, -0.93
211, 0.00, -173665.94, 0.00, 0.00, 0.00, 0.00, 0.00, 0.00, 0.02, 0.01, -0.93
212, 0.00, -172299.56, 0.00, 0.00, 0.00, 0.00, 0.00, 0.00, 0.02, 0.01, -0.93
213, 0.00, -172536.34, 0.00, 0.00, 0.00, 0.00, 0.00, 0.00, 0.02, 0.02, -0.93
214, 0.00, -173788.77, 0.00, 0.00, 0.00, 0.00, 0.00, 0.00, 0.02, 0.02, -0.93
215, 0.00, -173611.33, 0.00, 0.00, 0.00, 0.00, 0.00, 0.00, 0.02, 0.02, -0.93
216, 0.00, -172192.88, 0.00, 0.00, 0.00, 0.00, 0.00, 0.00, 0.02, 0.02, -0.93
217, 0.00, -172046.33, 0.00, 0.00, 0.00, 0.00, 0.00, 0.00, 0.02, 0.02, -0.93
218, 0.00, -173292.83, 0.00, 0.00, 0.00, 0.00, 0.00, 0.00, 0.02, 0.01, -0.93
219, 0.00, -173450.45, 0.00, 0.00, 0.00, 0.00, 0.00, 0.00, 0.02, 0.01, -0.93
220, 0.00, -172084.22, 0.00, 0.00, 0.00, 0.00, 0.00, 0.00, 0.02, 0.01, -0.93
221, 0.00, -171584.48, 0.00, 0.00, 0.00, 0.00, 0.00, 0.00, 0.02, 0.01, -0.93
222, 0.00, -172752.06, 0.00, 0.00, 0.00, 0.00, 0.00, 0.00, 0.02, 0.01, -0.93
223, 0.00, -173255.98, 0.00, 0.00, 0.00, 0.00, 0.00, 0.00, 0.02, 0.01, -0.94
224, 0.00, -172050.78, 0.00, 0.00, 0.00, 0.00, 0.00, 0.00, 0.02, 0.01, -0.94
225, 0.00, -171261.50, 0.00, 0.00, 0.00, 0.00, 0.00, 0.00, 0.02, 0.01, -0.94
226, 0.00, -172279.55, 0.00, 0.00, 0.00, 0.00, 0.00, 0.00, 0.02, 0.01, -0.94
227, 0.00, -173073.17, 0.00, 0.00, 0.00, 0.00, 0.00, 0.00, 0.02, 0.01, -0.94
228, 0.00, -172110.80, 0.00, 0.00, 0.00, 0.00, 0.00, 0.00, 0.02, 0.02, -0.94
229, 0.00, -171068.44, 0.00, 0.00, 0.00, 0.00, 0.00, 0.00, 0.02, 0.02, -0.94
230, 0.00, -171854.47, 0.00, 0.00, 0.00, 0.00, 0.00, 0.00, 0.02, 0.02, -0.94
231, 0.00, -172869.08, 0.00, 0.00, 0.00, 0.00, 0.00, 0.00, 0.02, 0.02, -0.94
232, 0.00, -172173.17, 0.00, 0.00, 0.00, 0.00, 0.00, 0.00, 0.02, 0.02, -0.94
233, 0.00, -170981.92, 0.00, 0.00, 0.00, 0.00, 0.00, 0.00, 0.02, 0.02, -0.94
234, 0.00, -171510.50, 0.00, 0.00, 0.00, 0.00, 0.00, 0.00, 0.02, 0.02, -0.94
235, 0.00, -172722.50, 0.00, 0.00, 0.00, 0.00, 0.00, 0.00, 0.02, 0.02, -0.94
236, 0.00, -172383.11, 0.00, 0.00, 0.00, 0.00, 0.00, 0.00, 0.02, 0.02, -0.94
237, 0.00, -171114.42, 0.00, 0.00, 0.00, 0.00, 0.00, 0.00, 0.02, 0.02, -0.94
238, 0.00, -171341.30, 0.00, 0.00, 0.00, 0.00, 0.00, 0.00, 0.01, 0.02, -0.94
239, 0.00, -172654.64, 0.00, 0.00, 0.00, 0.00, 0.00, 0.00, 0.01, 0.02, -0.94
240, 0.00, -172638.75, 0.00, 0.00, 0.00, 0.00, 0.00, 0.00, 0.01, 0.02, -0.94
241, 0.00, -171337.27, 0.00, 0.00, 0.00, 0.00, 0.00, 0.00, 0.01, 0.02, -0.94
242, 0.00, -171197.69, 0.00, 0.00, 0.00, 0.00, 0.00, 0.00, 0.01, 0.02, -0.94
243, 0.00, -172499.67, 0.00, 0.00, 0.00, 0.00, 0.00, 0.00, 0.01, 0.02, -0.95
244, 0.00, -172817.31, 0.00, 0.00, 0.00, 0.00, 0.00, 0.00, 0.01, 0.02, -0.95
245, 0.00, -171570.63, 0.00, 0.00, 0.00, 0.00, 0.00, 0.00, 0.01, 0.02, -0.95
246, 0.00, -171082.95, 0.00, 0.00, 0.00, 0.00, 0.00, 0.00, 0.01, 0.02, -0.95
247, 0.00, -172300.61, 0.00, 0.00, 0.00, 0.00, 0.00, 0.00, 0.01, 0.02, -0.95
248, 0.00, -172937.81, 0.00, 0.00, 0.00, 0.00, 0.00, 0.00, 0.02, 0.02, -0.95
249, 0.00, -171852.36, 0.00, 0.00, 0.00, 0.00, 0.00, 0.00, 0.02, 0.02, -0.95
250, 0.00, -171062.08, 0.00, 0.00, 0.00, 0.00, 0.00, 0.00, 0.02, 0.02, -0.95
251, 0.00, -172112.25, 0.00, 0.00, 0.00, 0.00, 0.00, 0.00, 0.02, 0.02, -0.95
252, 0.00, -173041.81, 0.00, 0.00, 0.00, 0.00, 0.00, 0.00, 0.02, 0.02, -0.95
253, 0.00, -172188.00, 0.00, 0.00, 0.00, 0.00, 0.00, 0.00, 0.02, 0.02, -0.94
254, 0.00, -171149.42, 0.00, 0.00, 0.00, 0.00, 0.00, 0.00, 0.02, 0.02, -0.94
255, 0.00, -171939.30, 0.00, 0.00, 0.00, 0.00, 0.00, 0.00, 0.02, 0.02, -0.94
0, 0.00, -173081.73, 0.00, 0.00, 0.00, 0.00, 0.00, 0.00, 0.02, 0.02, -0.94
1, 0.00, -172506.98, 0.00, 0.00, 0.00, 0.00, 0.00, 0.00, 0.02, 0.02, -0.94
2, 0.00, -171292.05, 0.00, 0.00, 0.00, 0.00, 0.00, 0.00, 0.02, 0.02, -0.94
3, 0.00, -171776.70, 0.00, 0.00, 0.00, 0.00, 0.00, 0.00, 0.02, 0.01, -0.93
4, 0.00, -173081.08, 0.00, 0.00, 0.00, 0.00, 0.00, 0.00, 0.02, 0.01, -0.93
5, 0.00, -172826.23, 0.00, 0.00, 0.00, 0.00, 0.00, 0.00, 0.02, 0.01, -0.93
6, 0.00, -171504.08, 0.00, 0.00, 0.00, 0.00, 0.00, 0.00, 0.02, 0.01, -0.93
7, 0.00, -171635.13, 0.00, 0.00, 0.00, 0.00, 0.00, 0.00, 0.02, 0.01, -0.93
8, 0.00, -172992.27, 0.00, 0.00, 0.00, 0.00, 0.00, 0.00, 0.01, 0.02, -0.94
9, 0.00, -173074.48, 0.00, 0.00, 0.00, 0.00, 0.00, 0.00, 0.01, 0.02, -0.94
10, 0.00, -171741.39, 0.00, 0.00, 0.00, 0.00, 0.00, 0.00, 0.01, 0.02, -0.94
11, 0.00, -171505.28, 0.00, 0.00, 0.00, 0.00, 0.00, 0.00, 0.01, 0.02, -0.94
12, 0.00, -172853.41, 0.00, 0.00, 0.00, 0.00, 0.00, 0.00, 0.01, 0.02, -0.94
13, 0.00, -173286.61, 0.00, 0.00, 0.00, 0.00, 0.00, 0.00, 0.01, 0.01, -0.93
14, 0.00, -172052.92, 0.00, 0.00, 0.00, 0.00, 0.00, 0.00, 0.01, 0.01, -0.93
15, 0.00, -171471.31, 0.00, 0.00, 0.00, 0.00, 0.00, 0.00, 0.01, 0.01, -0.93
16, 0.00, -172698.33, 0.00, 0.00, 0.00, 0.00, 0.00, 0.00, 0.01, 0.01, -0.93
17, 0.00, -173464.44, 0.00, 0.00, 0.00, 0.00, 0.00, 0.00, 0.01, 0.01, -0.93
18, 0.00, -172408.19, 0.00, 0.00, 0.00, 0.00, 0.00, 0.00, 0.01, 0.02, -0.94
19, 0.00, -171518.16, 0.00, 0.00, 0.00, 0.00, 0.00, 0.00, 0.01, 0.02, -0.94
20, 0.00, -172548.95, 0.00, 0.00, 0.00, 0.00, 0.00, 0.00, 0.01, 0.02, -0.94
21, 0.00, -173585.08, 0.00, 0.00, 0.00, 0.00, 0.00, 0.00, 0.01, 0.02, -0.94
22, 0.00, -172760.89, 0.00, 0.00, 0.00, 0.00, 0.00, 0.00, 0.01, 0.02, -0.94
23, 0.00, -171604.27, 0.00, 0.00, 0.00, 0.00, 0.00, 0.00, 0.01, 0.02, -0.94
24, 0.00, -172350.63, 0.00, 0.00, 0.00, 0.00, 0.00, 0.00, 0.01, 0.02, -0.94
25, 0.00, -173616.16, 0.00, 0.00, 0.00, 0.00, 0.00, 0.00, 0.01, 0.02, -0.94
26, 0.00, -173120.20, 0.00, 0.00, 0.00, 0.00, 0.00, 0.00, 0.01, 0.02, -0.94
27, 0.00, -171813.66, 0.00, 0.00, 0.00, 0.00, 0.00, 0.00, 0.01, 0.02, -0.94
28, 0.00, -172250.83, 0.00, 0.00, 0.00, 0.00, 0.00, 0.00, 0.01, 0.02, -0.93
29, 0.00, -173669.06, 0.00, 0.00, 0.00, 0.00, 0.00, 0.00, 0.01, 0.02, -0.93
30, 0.00, -173513.84, 0.00, 0.00, 0.00, 0.00, 0.00, 0.00, 0.01, 0.02, -0.93
31, 0.00, -172120.05, 0.00, 0.00, 0.00, 0.00, 0.00, 0.00, 0.01, 0.02, -0.93
32, 0.00, -172153.23, 0.00, 0.00, 0.00, 0.00, 0.00, 0.00, 0.01, 0.02, -0.93
33, 0.00, -173600.09, 0.00, 0.00, 0.00, 0.00, 0.00, 0.00, 0.02, 0.02, -0.93
34, 0.00, -173802.84, 0.00, 0.00, 0.00, 0.00, 0.00, 0.00, 0.02, 0.02, -0.93
35, 0.00, -172433.55, 0.00, 0.00, 0.00, 0.00, 0.00, 0.00, 0.02, 0.02, -0.93
36, 0.00, -172107.00, 0.00, 0.00, 0.00, 0.00, 0.00, 0.00, 0.02, 0.02, -0.93
37, 0.00, -173524.00, 0.00, 0.00, 0.00, 0.00, 0.00, 0.00, 0.02, 0.02, -0.93
38, 0.00, -174115.70, 0.00, 0.00, 0.00, 0.00, 0.00, 0.00, 0.01, 0.02, -0.94
39, 0.00, -172907.41, 0.00, 0.00, 0.00, 0.00, 0.00, 0.00, 0.01, 0.02, -0.94
40, 0.00, -172251.80, 0.00, 0.00, 0.00, 0.00, 0.00, 0.00, 0.01, 0.02, -0.94
41, 0.00, -173554.09, 0.00, 0.00, 0.00, 0.00, 0.00, 0.00, 0.01, 0.02, -0.94
42, 0.00, -174490.78, 0.00, 0.00, 0.00, 0.00, 0.00, 0.00, 0.01, 0.02, -0.94
43, 0.00, -173512.20, 0.00, 0.00, 0.00, 0.00, 0.00, 0.00, 0.01, 0.02, -0.94
44, 0.00, -172581.86, 0.00, 0.00, 0.00, 0.00, 0.00, 0.00, 0.01, 0.02, -0.94
45, 0.00, -173672.16, 0.00, 0.00, 0.00, 0.00, 0.00, 0.00, 0.01, 0.02, -0.94
46, 0.00, -174918.17, 0.00, 0.00, 0.00, 0.00, 0.00, 0.00, 0.01, 0.02, -0.94
47, 0.00, -174250.58, 0.00, 0.00, 0.00, 0.00, 0.00, 0.00, 0.01, 0.02, -0.94
48, 0.00, -173112.36, 0.00, 0.00, 0.00, 0.00, 0.00, 0.00, 0.01, 0.01, -0.94
49, 0.00, -173908.61, 0.00, 0.00, 0.00, 0.00, 0.00, 0.00, 0.01, 0.01, -0.94
50, 0.00, -175387.97, 0.00, 0.00, 0.00, 0.00, 0.00, 0.00, 0.01, 0.01, -0.94
51, 0.00, -175088.66, 0.00, 0.00, 0.00, 0.00, 0.00, 0.00, 0.01, 0.01, -0.94
52, 0.00, -173823.94, 0.00, 0.00, 0.00, 0.00, 0.00, 0.00, 0.01, 0.01, -0.94
53, 0.00, -174273.23, 0.00, 0.00, 0.00, 0.00, 0.00, 0.00, 0.01, 0.01, -0.94
54, 0.00, -175851.77, 0.00, 0.00, 0.00, 0.00, 0.00, 0.00, 0.01, 0.01, -0.94
55, 0.00, -175899.48, 0.00, 0.00, 0.00, 0.00, 0.00, 0.00, 0.01, 0.01, -0.94
56, 0.00, -174568.03, 0.00, 0.00, 0.00, 0.00, 0.00, 0.00, 0.01, 0.01, -0.94
57, 0.00, -174607.66, 0.00, 0.00, 0.00, 0.00, 0.00, 0.00, 0.01, 0.01, -0.94
58, 0.00, -176185.83, 0.00, 0.00, 0.00, 0.00, 0.00, 0.00, 0.02, 0.01, -0.94
59, 0.00, -176589.58, 0.00, 0.00, 0.00, 0.00, 0.00, 0.00, 0.02, 0.01, -0.94
60, 0.00, -175311.72, 0.00, 0.00, 0.00, 0.00, 0.00, 0.00, 0.02, 0.01, -0.94
61, 0.00, -174942.09, 0.00, 0.00, 0.00, 0.00, 0.00, 0.00, 0.02, 0.01, -0.94
62, 0.00, -176415.89, 0.00, 0.00, 0.00, 0.00, 0.00, 0.00, 0.02, 0.01, -0.94
63, 0.00, -177185.02, 0.00, 0.00, 0.00, 0.00, 0.00, 0.00, 0.02, 0.01, -0.93
64, 0.00, -176058.45, 0.00, 0.00, 0.00, 0.00, 0.00, 0.00, 0.02, 0.01, -0.93
65, 0.00, -175345.94, 0.00, 0.00, 0.00, 0.00, 0.00, 0.00, 0.02, 0.01, -0.93
66, 0.00, -176627.38, 0.00, 0.00, 0.00, 0.00, 0.00, 0.00, 0.02, 0.01, -0.93
67, 0.00, -177705.77, 0.00, 0.00, 0.00, 0.00, 0.00, 0.00, 0.02, 0.01, -0.93
68, 0.00, -176813.61, 0.00, 0.00, 0.00, 0.00, 0.00, 0.00, 0.01, 0.02, -0.94
69, 0.00, -175794.16, 0.00, 0.00, 0.00, 0.00, 0.00, 0.00, 0.01, 0.02, -0.94
70, 0.00, -176797.02, 0.00, 0.00, 0.00, 0.00, 0.00, 0.00, 0.01, 0.02, -0.94
71, 0.00, -178087.72, 0.00, 0.00, 0.00, 0.00, 0.00, 0.00, 0.01, 0.02, -0.94
72, 0.00, -177468.38, 0.00, 0.00, 0.00, 0.00, 0.00, 0.00, 0.01, 0.02, -0.94
73, 0.00, -176218.47, 0.00, 0.00, 0.00, 0.00, 0.00, 0.00, 0.02, 0.02, -0.94
74, 0.00, -176866.94, 0.00, 0.00, 0.00, 0.00, 0.00, 0.00, 0.02, 0.02, -0.94
75, 0.00, -178316.11, 0.00, 0.00, 0.00, 0.00, 0.00, 0.00, 0.02, 0.02, -0.94
76, 0.00, -178035.34, 0.00, 0.00, 0.00, 0.00, 0.00, 0.00, 0.02, 0.02, -0.94
77, 0.00, -176657.36, 0.00, 0.00, 0.00, 0.00, 0.00, 0.00, 0.02, 0.02, -0.94
78, 0.00, -176893.88, 0.00, 0.00, 0.00, 0.00, 0.00, 0.00, 0.02, 0.02, -0.94
79, 0.00, -178410.05, 0.00, 0.00, 0.00, 0.00, 0.00, 0.00, 0.02, 0.02, -0.94
80, 0.00, -178485.33, 0.00, 0.00, 0.00, 0.00, 0.00, 0.00, 0.02, 0.02, -0.94
81, 0.00, -177086.63, 0.00, 0.00, 0.00, 0.00, 0.00, 0.00, 0.02, 0.02, -0.94
82, 0.00, -176926.81, 0.00, 0.00, 0.00, 0.00, 0.00, 0.00, 0.02, 0.02, -0.94
83, 0.00, -178407.91, 0.00, 0.00, 0.00, 0.00, 0.00, 0.00, 0.01, 0.02, -0.94
84, 0.00, -178846.00, 0.00, 0.00, 0.00, 0.00, 0.00, 0.00, 0.01, 0.02, -0.94
85, 0.00, -177506.48, 0.00, 0.00, 0.00, 0.00, 0.00, 0.00, 0.01, 0.02, -0.94
86, 0.00, -176945.56, 0.00, 0.00, 0.00, 0.00, 0.00, 0.00, 0.01, 0.02, -0.94
87, 0.00, -178289.89, 0.00, 0.00, 0.00, 0.00, 0.00, 0.00, 0.01, 0.02, -0.94
88, 0.00, -179037.33, 0.00, 0.00, 0.00, 0.00, 0.00, 0.00, 0.01, 0.02, -0.95
89, 0.00, -177872.73, 0.00, 0.00, 0.00, 0.00, 0.00, 0.00, 0.01, 0.02, -0.95
90, 0.00, -176970.64, 0.00, 0.00, 0.00, 0.00, 0.00, 0.00, 0.01, 0.02, -0.95
91, 0.00, -178095.23, 0.00, 0.00, 0.00, 0.00, 0.00, 0.00, 0.01, 0.02, -0.95
92, 0.00, -179146.52, 0.00, 0.00, 0.00, 0.00, 0.00, 0.00, 0.01, 0.02, -0.95
93, 0.00, -178228.73, 0.00, 0.00, 0.00, 0.00, 0.00, 0.00, 0.01, 0.01, -0.94
94, 0.00, -177036.52, 0.00, 0.00, 0.00, 0.00, 0.00, 0.00, 0.01, 0.01, -0.94
95, 0.00, -177834.42, 0.00, 0.00, 0.00, 0.00, 0.00, 0.00, 0.01, 0.01, -0.94
96, 0.00, -179106.44, 0.00, 0.00, 0.00, 0.00, 0.00, 0.00, 0.01, 0.01, -0.94
97, 0.00, -178509.08, 0.00, 0.00, 0.00, 0.00, 0.00, 0.00, 0.01, 0.01, -0.94
98, 0.00, -177136.61, 0.00, 0.00, 0.00, 0.00, 0.00, 0.00, 0.01, 0.01, -0.94
99, 0.00, -177606.03, 0.00, 0.00, 0.00, 0.00, 0.00, 0.00, 0.01, 0.01, -0.94
100, 0.00, -179028.28, 0.00, 0.00, 0.00, 0.00, 0.00, 0.00, 0.01, 0.01, -0.94
101, 0.00, -178797.98, 0.00, 0.00, 0.00, 0.00, 0.00, 0.00, 0.01, 0.01, -0.94
102, 0.00, -177352.56, 0.00, 0.00, 0.00, 0.00, 0.00, 0.00, 0.01, 0.01, -0.94
103, 0.00, -177450.31, 0.00, 0.00, 0.00, 0.00, 0.00, 0.00, 0.01, 0.01, -0.93
104, 0.00, -178931.14, 0.00, 0.00, 0.00, 0.00, 0.00, 0.00, 0.01, 0.01, -0.93
105, 0.00, -179078.30, 0.00, 0.00, 0.00, 0.00, 0.00, 0.00, 0.01, 0.01, -0.93
106, 0.00, -177659.75, 0.00, 0.00, 0.00, 0.00, 0.00, 0.00, 0.01, 0.01, -0.93
107, 0.00, -177368.66, 0.00, 0.00, 0.00, 0.00, 0.00, 0.00, 0.01, 0.01, -0.93
108, 0.00, -178818.83, 0.00, 0.00, 0.00, 0.00, 0.00, 0.00, 0.01, 0.02, -0.94
109, 0.00, -179340.88, 0.00, 0.00, 0.00, 0.00, 0.00, 0.00, 0.01, 0.02, -0.94
110, 0.00, -178037.83, 0.00, 0.00, 0.00, 0.00, 0.00, 0.00, 0.01, 0.02, -0.94
111, 0.00, -177370.09, 0.00, 0.00, 0.00, 0.00, 0.00, 0.00, 0.01, 0.02, -0.94
112, 0.00, -178658.58, 0.00, 0.00, 0.00, 0.00, 0.00, 0.00, 0.01, 0.02, -0.94
113, 0.00, -179503.03, 0.00, 0.00, 0.00, 0.00, 0.00, 0.00, 0.01, 0.02, -0.95
114, 0.00, -178404.91, 0.00, 0.00, 0.00, 0.00, 0.00, 0.00, 0.01, 0.02, -0.95
115, 0.00, -177412.81, 0.00, 0.00, 0.00, 0.00, 0.00, 0.00, 0.01, 0.02, -0.95
116, 0.00, -178469.05, 0.00, 0.00, 0.00, 0.00, 0.00, 0.00, 0.01, 0.02, -0.95
117, 0.00, -179593.63, 0.00, 0.00, 0.00, 0.00, 0.00, 0.00, 0.01, 0.02, -0.95
118, 0.00, -178770.19, 0.00, 0.00, 0.00, 0.00, 0.00, 0.00, 0.02, 0.02, -0.94
119, 0.00, -177527.66, 0.00, 0.00, 0.00, 0.00, 0.00, 0.00, 0.02, 0.02, -0.94
120, 0.00, -178260.09, 0.00, 0.00, 0.00, 0.00, 0.00, 0.00, 0.02, 0.02, -0.94
121, 0.00, -179586.83, 0.00, 0.00, 0.00, 0.00, 0.00, 0.00, 0.02, 0.02, -0.94
122, 0.00, -179092.09, 0.00, 0.00, 0.00, 0.00, 0.00, 0.00, 0.02, 0.02, -0.94
123, 0.00, -177697.02, 0.00, 0.00, 0.00, 0.00, 0.00, 0.00, 0.02, 0.02, -0.94
124, 0.00, -178071.52, 0.00, 0.00, 0.00, 0.00, 0.00, 0.00, 0.02, 0.02, -0.94
125, 0.00, -179517.67, 0.00, 0.00, 0.00, 0.00, 0.00, 0.00, 0.02, 0.02, -0.94
126, 0.00, -179385.91, 0.00, 0.00, 0.00, 0.00, 0.00, 0.00, 0.02, 0.02, -0.94
127, 0.00, -177938.25, 0.00, 0.00, 0.00, 0.00, 0.00, 0.00, 0.02, 0.02, -0.94
128, 0.00, -177912.92, 0.00, 0.00, 0.00, 0.00, 0.00, 0.00, 0.01, 0.02, -0.95
129, 0.00, -179380.41, 0.00, 0.00, 0.00, 0.00, 0.00, 0.00, 0.01, 0.02, -0.95
130, 0.00, -179621.19, 0.00, 0.00, 0.00, 0.00, 0.00, 0.00, 0.01, 0.02, -0.95
131, 0.00, -178216.22, 0.00, 0.00, 0.00, 0.00, 0.00, 0.00, 0.01, 0.02, -0.95
132, 0.00, -177809.50, 0.00, 0.00, 0.00, 0.00, 0.00, 0.00, 0.01, 0.02, -0.95
133, 0.00, -179203.92, 0.00, 0.00, 0.00, 0.00, 0.00, 0.00, 0.01, 0.01, -0.94
134, 0.00, -179802.61, 0.00, 0.00, 0.00, 0.00, 0.00, 0.00, 0.01, 0.01, -0.94
135, 0.00, -178536.86, 0.00, 0.00, 0.00, 0.00, 0.00, 0.00, 0.01, 0.01, -0.94
136, 0.00, -177764.95, 0.00, 0.00, 0.00, 0.00, 0.00, 0.00, 0.01, 0.01, -0.94
137, 0.00, -178994.03, 0.00, 0.00, 0.00, 0.00, 0.00, 0.00, 0.01, 0.01, -0.94
138, 0.00, -179917.61, 0.00, 0.00, 0.00, 0.00, 0.00, 0.00, 0.01, 0.01, -0.95
139, 0.00, -178889.00, 0.00, 0.00, 0.00, 0.00, 0.00, 0.00, 0.01, 0.01, -0.95
140, 0.00, -177823.47, 0.00, 0.00, 0.00, 0.00, 0.00, 0.00, 0.01, 0.01, -0.95
141, 0.00, -178789.16, 0.00, 0.00, 0.00, 0.00, 0.00, 0.00, 0.01, 0.01, -0.95
142, 0.00, -179968.53, 0.00, 0.00, 0.00, 0.00, 0.00, 0.00, 0.01, 0.01, -0.95
143, 0.00, -179219.64, 0.00, 0.00, 0.00, 0.00, 0.00, 0.00, 0.02, 0.01, -0.94
144, 0.00, -177913.02, 0.00, 0.00, 0.00, 0.00, 0.00, 0.00, 0.02, 0.01, -0.94
145, 0.00, -178535.58, 0.00, 0.00, 0.00, 0.00, 0.00, 0.00, 0.02, 0.01, -0.94
146, 0.00, -179897.55, 0.00, 0.00, 0.00, 0.00, 0.00, 0.00, 0.02, 0.01, -0.94
147, 0.00, -179488.17, 0.00, 0.00, 0.00, 0.00, 0.00, 0.00, 0.02, 0.01, -0.94
148, 0.00, -178059.63, 0.00, 0.00, 0.00, 0.00, 0.00, 0.00, 0.02, 0.02, -0.94
149, 0.00, -178315.22, 0.00, 0.00, 0.00, 0.00, 0.00, 0.00, 0.02, 0.02, -0.94
150, 0.00, -179766.78, 0.00, 0.00, 0.00, 0.00, 0.00, 0.00, 0.02, 0.02, -0.94
151, 0.00, -179723.48, 0.00, 0.00, 0.00, 0.00, 0.00, 0.00, 0.02, 0.02, -0.94
152, 0.00, -178250.95, 0.00, 0.00, 0.00, 0.00, 0.00, 0.00, 0.02, 0.02, -0.94
153, 0.00, -178105.05, 0.00, 0.00, 0.00, 0.00, 0.00, 0.00, 0.01, 0.02, -0.95
154, 0.00, -179556.08, 0.00, 0.00, 0.00, 0.00, 0.00, 0.00, 0.01, 0.02, -0.95
155, 0.00, -179884.58, 0.00, 0.00, 0.00, 0.00, 0.00, 0.00, 0.01, 0.02, -0.95
156, 0.00, -178498.30, 0.00, 0.00, 0.00, 0.00, 0.00, 0.00, 0.01, 0.02, -0.95
157, 0.00, -177969.39, 0.00, 0.00, 0.00, 0.00, 0.00, 0.00, 0.01, 0.02, -0.95
158, 0.00, -179311.64, 0.00, 0.00, 0.00, 0.00, 0.00, 0.00, 0.02, 0.03, -0.94
159, 0.00, -179996.72, 0.00, 0.00, 0.00, 0.00, 0.00, 0.00, 0.02, 0.03, -0.94
160, 0.00, -178768.64, 0.00, 0.00, 0.00, 0.00, 0.00, 0.00, 0.02, 0.03, -0.94
161, 0.00, -177900.08, 0.00, 0.00, 0.00, 0.00, 0.00, 0.00, 0.02, 0.03, -0.94
162, 0.00, -179049.97, 0.00, 0.00, 0.00, 0.00, 0.00, 0.00, 0.02, 0.03, -0.94
163, 0.00, -180041.47, 0.00, 0.00, 0.00, 0.00, 0.00, 0.00, 0.02, 0.02, -0.93
164, 0.00, -179074.38, 0.00, 0.00, 0.00, 0.00, 0.00, 0.00, 0.02, 0.02, -0.93
165, 0.00, -177923.14, 0.00, 0.00, 0.00, 0.00, 0.00, 0.00, 0.02, 0.02, -0.93
166, 0.00, -178797.23, 0.00, 0.00, 0.00, 0.00, 0.00, 0.00, 0.02, 0.02, -0.93
167, 0.00, -180024.88, 0.00, 0.00, 0.00, 0.00, 0.00, 0.00, 0.02, 0.02, -0.93
168, 0.00, -179358.34, 0.00, 0.00, 0.00, 0.00, 0.00, 0.00, 0.01, 0.02, -0.93
169, 0.00, -178007.75, 0.00, 0.00, 0.00, 0.00, 0.00, 0.00, 0.01, 0.02, -0.93
170, 0.00, -178530.39, 0.00, 0.00, 0.00, 0.00, 0.00, 0.00, 0.01, 0.02, -0.93
171, 0.00, -179923.31, 0.00, 0.00, 0.00, 0.00, 0.00, 0.00, 0.01, 0.02, -0.93
172, 0.00, -179613.31, 0.00, 0.00, 0.00, 0.00, 0.00, 0.00, 0.01, 0.02, -0.93
173, 0.00, -178167.58, 0.00, 0.00, 0.00, 0.00, 0.00, 0.00, 0.01, 0.02, -0.93
174, 0.00, -178299.34, 0.00, 0.00, 0.00, 0.00, 0.00, 0.00, 0.01, 0.02, -0.93
175, 0.00, -179760.48, 0.00, 0.00, 0.00, 0.00, 0.00, 0.00, 0.01, 0.02, -0.93
176, 0.00, -179820.36, 0.00, 0.00, 0.00, 0.00, 0.00, 0.00, 0.01, 0.02, -0.93
177, 0.00, -178363.25, 0.00, 0.00, 0.00, 0.00, 0.00, 0.00, 0.01, 0.02, -0.93
178, 0.00, -178108.14, 0.00, 0.00, 0.00, 0.00, 0.00, 0.00, 0.02, 0.02, -0.93
179, 0.00, -179529.86, 0.00, 0.00, 0.00, 0.00, 0.00, 0.00, 0.02, 0.02, -0.93
180, 0.00, -179951.45, 0.00, 0.00, 0.00, 0.00, 0.00, 0.00, 0.02, 0.02, -0.93
181, 0.00, -178583.69, 0.00, 0.00, 0.00, 0.00, 0.00, 0.00, 0.02, 0.02, -0.93
182, 0.00, -177943.34, 0.00, 0.00, 0.00, 0.00, 0.00, 0.00, 0.02, 0.02, -0.93
183, 0.00, -179231.30, 0.00, 0.00, 0.00, 0.00, 0.00, 0.00, 0.02, 0.02, -0.94
184, 0.00, -179976.70, 0.00, 0.00, 0.00, 0.00, 0.00, 0.00, 0.02, 0.02, -0.94
185, 0.00, -178795.98, 0.00, 0.00, 0.00, 0.00, 0.00, 0.00, 0.02, 0.02, -0.94
186, 0.00, -177819.34, 0.00, 0.00, 0.00, 0.00, 0.00, 0.00, 0.02, 0.02, -0.94
187, 0.00, -178872.42, 0.00, 0.00, 0.00, 0.00, 0.00, 0.00, 0.02, 0.02, -0.94
188, 0.00, -179926.19, 0.00, 0.00, 0.00, 0.00, 0.00, 0.00, 0.02, 0.02, -0.94
189, 0.00, -179010.17, 0.00, 0.00, 0.00, 0.00, 0.00, 0.00, 0.02, 0.02, -0.94
190, 0.00, -177781.88, 0.00, 0.00, 0.00, 0.00, 0.00, 0.00, 0.02, 0.02, -0.94
191, 0.00, -178538.89, 0.00, 0.00, 0.00, 0.00, 0.00, 0.00, 0.02, 0.02, -0.94
192, 0.00, -179801.98, 0.00, 0.00, 0.00, 0.00, 0.00, 0.00, 0.02, 0.02, -0.94
193, 0.00, -179209.55, 0.00, 0.00, 0.00, 0.00, 0.00, 0.00, 0.02, 0.02, -0.94
194, 0.00, -177798.94, 0.00, 0.00, 0.00, 0.00, 0.00, 0.00, 0.02, 0.01, -0.93
195, 0.00, -178210.47, 0.00, 0.00, 0.00, 0.00, 0.00, 0.00, 0.02, 0.01, -0.93
196, 0.00, -179607.91, 0.00, 0.00, 0.00, 0.00, 0.00, 0.00, 0.02, 0.01, -0.93
197, 0.00, -179372.55, 0.00, 0.00, 0.00, 0.00, 0.00, 0.00, 0.02, 0.01, -0.93
198, 0.00, -177885.44, 0.00, 0.00, 0.00, 0.00, 0.00, 0.00, 0.02, 0.01, -0.93
199, 0.00, -177892.98, 0.00, 0.00, 0.00, 0.00, 0.00, 0.00, 0.02, 0.01, -0.93
200, 0.00, -179319.05, 0.00, 0.00, 0.00, 0.00, 0.00, 0.00, 0.02, 0.01, -0.93
201, 0.00, -179450.11, 0.00, 0.00, 0.00, 0.00, 0.00, 0.00, 0.02, 0.01, -0.93
202, 0.00, -177987.05, 0.00, 0.00, 0.00, 0.00, 0.00, 0.00, 0.02, 0.01, -0.93
203, 0.00, -177595.72, 0.00, 0.00, 0.00, 0.00, 0.00, 0.00, 0.02, 0.01, -0.93
204, 0.00, -178972.31, 0.00, 0.00, 0.00, 0.00, 0.00, 0.00, 0.02, 0.02, -0.93
205, 0.00, -179471.69, 0.00, 0.00, 0.00, 0.00, 0.00, 0.00, 0.02, 0.02, -0.93
206, 0.00, -178129.78, 0.00, 0.00, 0.00, 0.00, 0.00, 0.00, 0.02, 0.02, -0.93
207, 0.00, -177378.08, 0.00, 0.00, 0.00, 0.00, 0.00, 0.00, 0.02, 0.02, -0.93
208, 0.00, -178583.08, 0.00, 0.00, 0.00, 0.00, 0.00, 0.00, 0.02, 0.02, -0.93
209, 0.00, -179420.89, 0.00, 0.00, 0.00, 0.00, 0.00, 0.00, 0.02, 0.02, -0.94
210, 0.00, -178295.28, 0.00, 0.00, 0.00, 0.00, 0.00, 0.00, 0.02, 0.02, -0.94
211, 0.00, -177233.34, 0.00, 0.00, 0.00, 0.00, 0.00, 0.00, 0.02, 0.02, -0.94
212, 0.00, -178220.98, 0.00, 0.00, 0.00, 0.00, 0.00, 0.00, 0.02, 0.02, -0.94
213, 0.00, -179319.69, 0.00, 0.00, 0.00, 0.00, 0.00, 0.00, 0.02, 0.02, -0.94
214, 0.00, -178478.70, 0.00, 0.00, 0.00, 0.00, 0.00, 0.00, 0.02, 0.01, -0.94
215, 0.00, -177174.63, 0.00, 0.00, 0.00, 0.00, 0.00, 0.00, 0.02, 0.01, -0.94
216, 0.00, -177834.08, 0.00, 0.00, 0.00, 0.00, 0.00, 0.00, 0.02, 0.01, -0.94
217, 0.00, -179133.59, 0.00, 0.00, 0.00, 0.00, 0.00, 0.00, 0.02, 0.01, -0.94
218, 0.00, -178630.31, 0.00, 0.00, 0.00, 0.00, 0.00, 0.00, 0.02, 0.01, -0.94
219, 0.00, -177186.36, 0.00, 0.00, 0.00, 0.00, 0.00, 0.00, 0.02, 0.02, -0.94
220, 0.00, -177479.97, 0.00, 0.00, 0.00, 0.00, 0.00, 0.00, 0.02, 0.02, -0.94
221, 0.00, -178903.89, 0.00, 0.00, 0.00, 0.00, 0.00, 0.00, 0.02, 0.02, -0.94
222, 0.00, -178769.92, 0.00, 0.00, 0.00, 0.00, 0.00, 0.00, 0.02, 0.02, -0.94
223, 0.00, -177281.88, 0.00, 0.00, 0.00, 0.00, 0.00, 0.00, 0.02, 0.02, -0.94
224, 0.00, -177181.28, 0.00, 0.00, 0.00, 0.00, 0.00, 0.00, 0.02, 0.01, -0.93
225, 0.00, -178611.17, 0.00, 0.00, 0.00, 0.00, 0.00, 0.00, 0.02, 0.01, -0.93
226, 0.00, -178852.48, 0.00, 0.00, 0.00, 0.00, 0.00, 0.00, 0.02, 0.01, -0.93
227, 0.00, -177414.33, 0.00, 0.00, 0.00, 0.00, 0.00, 0.00, 0.02, 0.01, -0.93
228, 0.00, -176931.44, 0.00, 0.00, 0.00, 0.00, 0.00, 0.00, 0.02, 0.01, -0.93
229, 0.00, -178282.00, 0.00, 0.00, 0.00, 0.00, 0.00, 0.00, 0.01, 0.01, -0.94
230, 0.00, -178875.58, 0.00, 0.00, 0.00, 0.00, 0.00, 0.00, 0.01, 0.01, -0.94
231, 0.00, -177587.42, 0.00, 0.00, 0.00, 0.00, 0.00, 0.00, 0.01, 0.01, -0.94
232, 0.00, -176733.20, 0.00, 0.00, 0.00, 0.00, 0.00, 0.00, 0.01, 0.01, -0.94
233, 0.00, -177896.20, 0.00, 0.00, 0.00, 0.00, 0.00, 0.00, 0.01, 0.01, -0.94
234, 0.00, -178803.80, 0.00, 0.00, 0.00, 0.00, 0.00, 0.00, 0.01, 0.02, -0.94
235, 0.00, -177751.48, 0.00, 0.00, 0.00, 0.00, 0.00, 0.00, 0.01, 0.02, -0.94
236, 0.00, -176610.33, 0.00, 0.00, 0.00, 0.00, 0.00, 0.00, 0.01, 0.02, -0.94
237, 0.00, -177500.09, 0.00, 0.00, 0.00, 0.00, 0.00, 0.00, 0.01, 0.02, -0.94
238, 0.00, -178668.58, 0.00, 0.00, 0.00, 0.00, 0.00, 0.00, 0.01, 0.02, -0.94
239, 0.00, -177914.16, 0.00, 0.00, 0.00, 0.00, 0.00, 0.00, 0.02, 0.02, -0.94
240, 0.00, -176556.06, 0.00, 0.00, 0.00, 0.00, 0.00, 0.00, 0.02, 0.02, -0.94
241, 0.00, -177102.72, 0.00, 0.00, 0.00, 0.00, 0.00, 0.00, 0.02, 0.02, -0.94
242, 0.00, -178448.86, 0.00, 0.00, 0.00, 0.00, 0.00, 0.00, 0.02, 0.02, -0.94
243, 0.00, -178048.45, 0.00, 0.00, 0.00, 0.00, 0.00, 0.00, 0.02, 0.02, -0.94
244, 0.00, -176571.75, 0.00, 0.00, 0.00, 0.00, 0.00, 0.00, 0.01, 0.02, -0.94
245, 0.00, -176749.59, 0.00, 0.00, 0.00, 0.00, 0.00, 0.00, 0.01, 0.02, -0.94
246, 0.00, -178175.25, 0.00, 0.00, 0.00, 0.00, 0.00, 0.00, 0.01, 0.02, -0.94
247, 0.00, -178140.33, 0.00, 0.00, 0.00, 0.00, 0.00, 0.00, 0.01, 0.02, -0.94
248, 0.00, -176636.70, 0.00, 0.00, 0.00, 0.00, 0.00, 0.00, 0.01, 0.02, -0.94
249, 0.00, -176414.78, 0.00, 0.00, 0.00, 0.00, 0.00, 0.00, 0.01, 0.01, -0.94
250, 0.00, -177824.97, 0.00, 0.00, 0.00, 0.00, 0.00, 0.00, 0.01, 0.01, -0.94
251, 0.00, -178158.75, 0.00, 0.00, 0.00, 0.00, 0.00, 0.00, 0.01, 0.01, -0.94
252, 0.00, -176748.58, 0.00, 0.00, 0.00, 0.00, 0.00, 0.00, 0.01, 0.01, -0.94
253, 0.00, -176140.92, 0.00, 0.00, 0.00, 0.00, 0.00, 0.00, 0.01, 0.01, -0.94
254, 0.00, -177428.88, 0.00, 0.00, 0.00, 0.00, 0.00, 0.00, 0.02, 0.01, -0.94
255, 0.00, -178113.61, 0.00, 0.00, 0.00, 0.00, 0.00, 0.00, 0.02, 0.01, -0.94
0, 0.00, -176865.06, 0.00, 0.00, 0.00, 0.00, 0.00, 0.00, 0.02, 0.01, -0.94
1, 0.00, -175916.89, 0.00, 0.00, 0.00, 0.00, 0.00, 0.00, 0.02, 0.01, -0.94
2, 0.00, -176999.34, 0.00, 0.00, 0.00, 0.00, 0.00, 0.00, 0.02, 0.01, -0.94
3, 0.00, -177982.70, 0.00, 0.00, 0.00, 0.00, 0.00, 0.00, 0.02, 0.02, -0.94
4, 0.00, -177003.14, 0.00, 0.00, 0.00, 0.00, 0.00, 0.00, 0.02, 0.02, -0.94
5, 0.00, -175781.59, 0.00, 0.00, 0.00, 0.00, 0.00, 0.00, 0.02, 0.02, -0.94
6, 0.00, -176584.09, 0.00, 0.00, 0.00, 0.00, 0.00, 0.00, 0.02, 0.02, -0.94
7, 0.00, -177798.64, 0.00, 0.00, 0.00, 0.00, 0.00, 0.00, 0.02, 0.02, -0.94
8, 0.00, -177128.63, 0.00, 0.00, 0.00, 0.00, 0.00, 0.00, 0.02, 0.01, -0.95
9, 0.00, -175720.17, 0.00, 0.00, 0.00, 0.00, 0.00, 0.00, 0.02, 0.01, -0.95
10, 0.00, -176169.61, 0.00, 0.00, 0.00, 0.00, 0.00, 0.00, 0.02, 0.01, -0.95
11, 0.00, -177545.84, 0.00, 0.00, 0.00, 0.00, 0.00, 0.00, 0.02, 0.01, -0.95
12, 0.00, -177244.91, 0.00, 0.00, 0.00, 0.00, 0.00, 0.00, 0.02, 0.01, -0.95
13, 0.00, -175752.94, 0.00, 0.00, 0.00, 0.00, 0.00, 0.00, 0.02, 0.01, -0.95
14, 0.00, -175815.63, 0.00, 0.00, 0.00, 0.00, 0.00, 0.00, 0.02, 0.01, -0.95
15, 0.00, -177247.22, 0.00, 0.00, 0.00, 0.00, 0.00, 0.00, 0.02, 0.01, -0.95
16, 0.00, -177314.66, 0.00, 0.00, 0.00, 0.00, 0.00, 0.00, 0.02, 0.01, -0.95
17, 0.00, -175833.34, 0.00, 0.00, 0.00, 0.00, 0.00, 0.00, 0.02, 0.01, -0.95
18, 0.00, -175512.75, 0.00, 0.00, 0.00, 0.00, 0.00, 0.00, 0.01, 0.02, -0.94
19, 0.00, -176911.64, 0.00, 0.00, 0.00, 0.00, 0.00, 0.00, 0.01, 0.02, -0.94
20, 0.00, -177357.11, 0.00, 0.00, 0.00, 0.00, 0.00, 0.00, 0.01, 0.02, -0.94
21, 0.00, -175990.72, 0.00, 0.00, 0.00, 0.00, 0.00, 0.00, 0.01, 0.02, -0.94
22, 0.00, -175297.39, 0.00, 0.00, 0.00, 0.00, 0.00, 0.00, 0.01, 0.02, -0.94
23, 0.00, -176555.44, 0.00, 0.00, 0.00, 0.00, 0.00, 0.00, 0.02, 0.02, -0.95
24, 0.00, -177330.84, 0.00, 0.00, 0.00, 0.00, 0.00, 0.00, 0.02, 0.02, -0.95
25, 0.00, -176165.05, 0.00, 0.00, 0.00, 0.00, 0.00, 0.00, 0.02, 0.02, -0.95
26, 0.00, -175148.91, 0.00, 0.00, 0.00, 0.00, 0.00, 0.00, 0.02, 0.02, -0.95
27, 0.00, -176166.03, 0.00, 0.00, 0.00, 0.00, 0.00, 0.00, 0.02, 0.02, -0.95
28, 0.00, -177245.13, 0.00, 0.00, 0.00, 0.00, 0.00, 0.00, 0.01, 0.01, -0.94
29, 0.00, -176354.52, 0.00, 0.00, 0.00, 0.00, 0.00, 0.00, 0.01, 0.01, -0.94
30, 0.00, -175080.11, 0.00, 0.00, 0.00, 0.00, 0.00, 0.00, 0.01, 0.01, -0.94
31, 0.00, -175788.78, 0.00, 0.00, 0.00, 0.00, 0.00, 0.00, 0.01, 0.01, -0.94
32, 0.00, -177062.00, 0.00, 0.00, 0.00, 0.00, 0.00, 0.00, 0.01, 0.01, -0.94
33, 0.00, -176499.81, 0.00, 0.00, 0.00, 0.00, 0.00, 0.00, 0.02, 0.02, -0.94
34, 0.00, -175063.73, 0.00, 0.00, 0.00, 0.00, 0.00, 0.00, 0.02, 0.02, -0.94
35, 0.00, -175422.23, 0.00, 0.00, 0.00, 0.00, 0.00, 0.00, 0.02, 0.02, -0.94
36, 0.00, -176826.08, 0.00, 0.00, 0.00, 0.00, 0.00, 0.00, 0.02, 0.02, -0.94
37, 0.00, -176625.64, 0.00, 0.00, 0.00, 0.00, 0.00, 0.00, 0.02, 0.02, -0.94
38, 0.00, -175124.95, 0.00, 0.00, 0.00, 0.00, 0.00, 0.00, 0.02, 0.02, -0.94
39, 0.00, -175080.34, 0.00, 0.00, 0.00, 0.00, 0.00, 0.00, 0.02, 0.02, -0.94
40, 0.00, -176506.89, 0.00, 0.00, 0.00, 0.00, 0.00, 0.00, 0.02, 0.02, -0.94
41, 0.00, -176678.95, 0.00, 0.00, 0.00, 0.00, 0.00, 0.00, 0.02, 0.02, -0.94
42, 0.00, -175219.39, 0.00, 0.00, 0.00, 0.00, 0.00, 0.00, 0.02, 0.02, -0.94
43, 0.00, -174785.47, 0.00, 0.00, 0.00, 0.00, 0.00, 0.00, 0.02, 0.02, -0.94
44, 0.00, -176149.83, 0.00, 0.00, 0.00, 0.00, 0.00, 0.00, 0.02, 0.02, -0.94
45, 0.00, -176693.70, 0.00, 0.00, 0.00, 0.00, 0.00, 0.00, 0.02, 0.02, -0.94
46, 0.00, -175370.42, 0.00, 0.00, 0.00, 0.00, 0.00, 0.00, 0.02, 0.02, -0.94
47, 0.00, -174575.64, 0.00, 0.00, 0.00, 0.00, 0.00, 0.00, 0.02, 0.02, -0.94
48, 0.00, -175768.84, 0.00, 0.00, 0.00, 0.00, 0.00, 0.00, 0.02, 0.01, -0.94
49, 0.00, -176627.53, 0.00, 0.00, 0.00, 0.00, 0.00, 0.00, 0.02, 0.01, -0.94
50, 0.00, -175527.50, 0.00, 0.00, 0.00, 0.00, 0.00, 0.00, 0.02, 0.01, -0.94
51, 0.00, -174428.97, 0.00, 0.00, 0.00, 0.00, 0.00, 0.00, 0.02, 0.01, -0.94
52, 0.00, -175380.52, 0.00, 0.00, 0.00, 0.00, 0.00, 0.00, 0.02, 0.01, -0.94
53, 0.00, -176506.17, 0.00, 0.00, 0.00, 0.00, 0.00, 0.00, 0.02, 0.01, -0.94
54, 0.00, -175695.86, 0.00, 0.00, 0.00, 0.00, 0.00, 0.00, 0.02, 0.01, -0.94
55, 0.00, -174364.00, 0.00, 0.00, 0.00, 0.00, 0.00, 0.00, 0.02, 0.01, -0.94
56, 0.00, -174969.20, 0.00, 0.00, 0.00, 0.00, 0.00, 0.00, 0.02, 0.01, -0.94
57, 0.00, -176291.72, 0.00, 0.00, 0.00, 0.00, 0.00, 0.00, 0.02, 0.01, -0.94
58, 0.00, -175822.80, 0.00, 0.00, 0.00, 0.00, 0.00, 0.00, 0.01, 0.01, -0.94
59, 0.00, -174361.30, 0.00, 0.00, 0.00, 0.00, 0.00, 0.00, 0.01, 0.01, -0.94
60, 0.00, -174603.06, 0.00, 0.00, 0.00, 0.00, 0.00, 0.00, 0.01, 0.01, -0.94
61, 0.00, -176028.16, 0.00, 0.00, 0.00, 0.00, 0.00, 0.00, 0.01, 0.01, -0.94
62, 0.00, -175936.41, 0.00, 0.00, 0.00, 0.00, 0.00, 0.00, 0.01, 0.01, -0.94
63, 0.00, -174438.02, 0.00, 0.00, 0.00, 0.00, 0.00, 0.00, 0.01, 0.02, -0.94
64, 0.00, -174290.98, 0.00, 0.00, 0.00, 0.00, 0.00, 0.00, 0.01, 0.02, -0.94
65, 0.00, -175719.84, 0.00, 0.00, 0.00, 0.00, 0.00, 0.00, 0.01, 0.02, -0.94
66, 0.00, -175998.84, 0.00, 0.00, 0.00, 0.00, 0.00, 0.00, 0.01, 0.02, -0.94
67, 0.00, -174570.94, 0.00, 0.00, 0.00, 0.00, 0.00, 0.00, 0.01, 0.02, -0.94
68, 0.00, -174048.88, 0.00, 0.00, 0.00, 0.00, 0.00, 0.00, 0.01, 0.01, -0.93
69, 0.00, -175388.33, 0.00, 0.00, 0.00, 0.00, 0.00, 0.00, 0.01, 0.01, -0.93
70, 0.00, -176019.63, 0.00, 0.00, 0.00, 0.00, 0.00, 0.00, 0.01, 0.01, -0.93
71, 0.00, -174756.48, 0.00, 0.00, 0.00, 0.00, 0.00, 0.00, 0.01, 0.01, -0.93
72, 0.00, -173877.33, 0.00, 0.00, 0.00, 0.00, 0.00, 0.00, 0.01, 0.01, -0.93
73, 0.00, -175017.69, 0.00, 0.00, 0.00, 0.00, 0.00, 0.00, 0.02, 0.01, -0.94
74, 0.00, -175983.13, 0.00, 0.00, 0.00, 0.00, 0.00, 0.00, 0.02, 0.01, -0.94
75, 0.00, -174973.41, 0.00, 0.00, 0.00, 0.00, 0.00, 0.00, 0.02, 0.01, -0.94
76, 0.00, -173828.77, 0.00, 0.00, 0.00, 0.00, 0.00, 0.00, 0.02, 0.01, -0.94
77, 0.00, -174697.14, 0.00, 0.00, 0.00, 0.00, 0.00, 0.00, 0.02, 0.01, -0.94
78, 0.00, -175907.19, 0.00, 0.00, 0.00, 0.00, 0.00, 0.00, 0.02, 0.02, -0.94
79, 0.00, -175206.20, 0.00, 0.00, 0.00, 0.00, 0.00, 0.00, 0.02, 0.02, -0.94
80, 0.00, -173840.50, 0.00, 0.00, 0.00, 0.00, 0.00, 0.00, 0.02, 0.02, -0.94
81, 0.00, -174381.27, 0.00, 0.00, 0.00, 0.00, 0.00, 0.00, 0.02, 0.02, -0.94
82, 0.00, -175750.23, 0.00, 0.00, 0.00, 0.00, 0.00, 0.00, 0.02, 0.02, -0.94
83, 0.00, -175403.67, 0.00, 0.00, 0.00, 0.00, 0.00, 0.00, 0.02, 0.01, -0.94
84, 0.00, -173941.81, 0.00, 0.00, 0.00, 0.00, 0.00, 0.00, 0.02, 0.01, -0.94
85, 0.00, -174099.05, 0.00, 0.00, 0.00, 0.00, 0.00, 0.00, 0.02, 0.01, -0.94
86, 0.00, -175544.66, 0.00, 0.00, 0.00, 0.00, 0.00, 0.00, 0.02, 0.01, -0.94
87, 0.00, -175564.70, 0.00, 0.00, 0.00, 0.00, 0.00, 0.00, 0.02, 0.01, -0.94
88, 0.00, -174087.16, 0.00, 0.00, 0.00, 0.00, 0.00, 0.00, 0.02, 0.02, -0.94
89, 0.00, -173835.95, 0.00, 0.00, 0.00, 0.00, 0.00, 0.00, 0.02, 0.02, -0.94
90, 0.00, -175254.64, 0.00, 0.00, 0.00, 0.00, 0.00, 0.00, 0.02, 0.02, -0.94
91, 0.00, -175648.34, 0.00, 0.00, 0.00, 0.00, 0.00, 0.00, 0.02, 0.02, -0.94
92, 0.00, -174271.88, 0.00, 0.00, 0.00, 0.00, 0.00, 0.00, 0.02, 0.02, -0.94
93, 0.00, -173648.89, 0.00, 0.00, 0.00, 0.00, 0.00, 0.00, 0.01, 0.01, -0.94
94, 0.00, -174942.31, 0.00, 0.00, 0.00, 0.00, 0.00, 0.00, 0.01, 0.01, -0.94
95, 0.00, -175683.75, 0.00, 0.00, 0.00, 0.00, 0.00, 0.00, 0.01, 0.01, -0.94
96, 0.00, -174481.25, 0.00, 0.00, 0.00, 0.00, 0.00, 0.00, 0.01, 0.01, -0.94
97, 0.00, -173519.56, 0.00, 0.00, 0.00, 0.00, 0.00, 0.00, 0.01, 0.01, -0.94
98, 0.00, -174601.81, 0.00, 0.00, 0.00, 0.00, 0.00, 0.00, 0.01, 0.01, -0.94
99, 0.00, -175628.41, 0.00, 0.00, 0.00, 0.00, 0.00, 0.00, 0.01, 0.01, -0.94
100, 0.00, -174697.86, 0.00, 0.00, 0.00, 0.00, 0.00, 0.00, 0.01, 0.01, -0.94
101, 0.00, -173468.58, 0.00, 0.00, 0.00, 0.00, 0.00, 0.00, 0.01, 0.01, -0.94
102, 0.00, -174250.30, 0.00, 0.00, 0.00, 0.00, 0.00, 0.00, 0.01, 0.01, -0.94
103, 0.00, -175498.36, 0.00, 0.00, 0.00, 0.00, 0.00, 0.00, 0.01, 0.01, -0.94
104, 0.00, -174877.06, 0.00, 0.00, 0.00, 0.00, 0.00, 0.00, 0.01, 0.01, -0.94
105, 0.00, -173467.66, 0.00, 0.00, 0.00, 0.00, 0.00, 0.00, 0.01, 0.01, -0.94
106, 0.00, -173883.77, 0.00, 0.00, 0.00, 0.00, 0.00, 0.00, 0.01, 0.01, -0.94
107, 0.00, -175281.02, 0.00, 0.00, 0.00, 0.00, 0.00, 0.00, 0.01, 0.01, -0.94
108, 0.00, -175031.08, 0.00, 0.00, 0.00, 0.00, 0.00, 0.00, 0.01, 0.02, -0.94
109, 0.00, -173549.13, 0.00, 0.00, 0.00, 0.00, 0.00, 0.00, 0.01, 0.02, -0.94
110, 0.00, -173585.55, 0.00, 0.00, 0.00, 0.00, 0.00, 0.00, 0.01, 0.02, -0.94
111, 0.00, -175024.17, 0.00, 0.00, 0.00, 0.00, 0.00, 0.00, 0.01, 0.02, -0.94
112, 0.00, -175138.41, 0.00, 0.00, 0.00, 0.00, 0.00, 0.00, 0.01, 0.02, -0.94
113, 0.00, -173670.50, 0.00, 0.00, 0.00, 0.00, 0.00, 0.00, 0.02, 0.02, -0.94
114, 0.00, -173311.86, 0.00, 0.00, 0.00, 0.00, 0.00, 0.00, 0.02, 0.02, -0.94
115, 0.00, -174699.80, 0.00, 0.00, 0.00, 0.00, 0.00, 0.00, 0.02, 0.02, -0.94
116, 0.00, -175177.55, 0.00, 0.00, 0.00, 0.00, 0.00, 0.00, 0.02, 0.02, -0.94
117, 0.00, -173825.23, 0.00, 0.00, 0.00, 0.00, 0.00, 0.00, 0.02, 0.02, -0.94
118, 0.00, -173093.94, 0.00, 0.00, 0.00, 0.00, 0.00, 0.00, 0.02, 0.02, -0.94
119, 0.00, -174331.67, 0.00, 0.00, 0.00, 0.00, 0.00, 0.00, 0.01, 0.01, -0.94
120, 0.00, -175141.80, 0.00, 0.00, 0.00, 0.00, 0.00, 0.00, 0.01, 0.01, -0.94
121, 0.00, -174001.11, 0.00, 0.00, 0.00, 0.00, 0.00, 0.00, 0.01, 0.01, -0.94
122, 0.00, -172951.94, 0.00, 0.00, 0.00, 0.00, 0.00, 0.00, 0.01, 0.01, -0.94
123, 0.00, -173942.77, 0.00, 0.00, 0.00, 0.00, 0.00, 0.00, 0.01, 0.01, -0.94
124, 0.00, -175046.61, 0.00, 0.00, 0.00, 0.00, 0.00, 0.00, 0.02, 0.02, -0.93
125, 0.00, -174195.25, 0.00, 0.00, 0.00, 0.00, 0.00, 0.00, 0.02, 0.02, -0.93
126, 0.00, -172907.97, 0.00, 0.00, 0.00, 0.00, 0.00, 0.00, 0.02, 0.02, -0.93
127, 0.00, -173594.17, 0.00, 0.00, 0.00, 0.00, 0.00, 0.00, 0.02, 0.02, -0.93
128, 0.00, -174891.08, 0.00, 0.00, 0.00, 0.00, 0.00, 0.00, 0.02, 0.02, -0.93
129, 0.00, -174370.84, 0.00, 0.00, 0.00, 0.00, 0.00, 0.00, 0.01, 0.01, -0.94
130, 0.00, -172928.75, 0.00, 0.00, 0.00, 0.00, 0.00, 0.00, 0.01, 0.01, -0.94
131, 0.00, -173256.13, 0.00, 0.00, 0.00, 0.00, 0.00, 0.00, 0.01, 0.01, -0.94
132, 0.00, -174689.41, 0.00, 0.00, 0.00, 0.00, 0.00, 0.00, 0.01, 0.01, -0.94
133, 0.00, -174549.13, 0.00, 0.00, 0.00, 0.00, 0.00, 0.00, 0.01, 0.01, -0.94
134, 0.00, -173065.22, 0.00, 0.00, 0.00, 0.00, 0.00, 0.00, 0.01, 0.01, -0.93
135, 0.00, -172991.23, 0.00, 0.00, 0.00, 0.00, 0.00, 0.00, 0.01, 0.01, -0.93
136, 0.00, -174428.36, 0.00, 0.00, 0.00, 0.00, 0.00, 0.00, 0.01, 0.01, -0.93
137, 0.00, -174658.30, 0.00, 0.00, 0.00, 0.00, 0.00, 0.00, 0.01, 0.01, -0.93
138, 0.00, -173225.39, 0.00, 0.00, 0.00, 0.00, 0.00, 0.00, 0.01, 0.01, -0.93
139, 0.00, -172772.78, 0.00, 0.00, 0.00, 0.00, 0.00, 0.00, 0.02, 0.01, -0.94
140, 0.00, -174145.11, 0.00, 0.00, 0.00, 0.00, 0.00, 0.00, 0.02, 0.01, -0.94
141, 0.00, -174738.72, 0.00, 0.00, 0.00, 0.00, 0.00, 0.00, 0.02, 0.01, -0.94
142, 0.00, -173451.23, 0.00, 0.00, 0.00, 0.00, 0.00, 0.00, 0.02, 0.01, -0.94
143, 0.00, -172636.64, 0.00, 0.00, 0.00, 0.00, 0.00, 0.00, 0.02, 0.01, -0.94
144, 0.00, -173823.77, 0.00, 0.00, 0.00, 0.00, 0.00, 0.00, 0.01, 0.02, -0.93
145, 0.00, -174729.14, 0.00, 0.00, 0.00, 0.00, 0.00, 0.00, 0.01, 0.02, -0.93
146, 0.00, -173673.81, 0.00, 0.00, 0.00, 0.00, 0.00, 0.00, 0.01, 0.02, -0.93
147, 0.00, -172559.53, 0.00, 0.00, 0.00, 0.00, 0.00, 0.00, 0.01, 0.02, -0.93
148, 0.00, -173491.03, 0.00, 0.00, 0.00, 0.00, 0.00, 0.00, 0.01, 0.02, -0.93
149, 0.00, -174658.63, 0.00, 0.00, 0.00, 0.00, 0.00, 0.00, 0.02, 0.02, -0.94
150, 0.00, -173897.11, 0.00, 0.00, 0.00, 0.00, 0.00, 0.00, 0.02, 0.02, -0.94
151, 0.00, -172560.42, 0.00, 0.00, 0.00, 0.00, 0.00, 0.00, 0.02, 0.02, -0.94
152, 0.00, -173137.14, 0.00, 0.00, 0.00, 0.00, 0.00, 0.00, 0.02, 0.02, -0.94
153, 0.00, -174491.72, 0.00, 0.00, 0.00, 0.00, 0.00, 0.00, 0.02, 0.02, -0.94
154, 0.00, -174080.09, 0.00, 0.00, 0.00, 0.00, 0.00, 0.00, 0.02, 0.01, -0.94
155, 0.00, -172622.72, 0.00, 0.00, 0.00, 0.00, 0.00, 0.00, 0.02, 0.01, -0.94
156, 0.00, -172840.33, 0.00, 0.00, 0.00, 0.00, 0.00, 0.00, 0.02, 0.01, -0.94
157, 0.00, -174278.72, 0.00, 0.00, 0.00, 0.00, 0.00, 0.00, 0.02, 0.01, -0.94
158, 0.00, -174233.72, 0.00, 0.00, 0.00, 0.00, 0.00, 0.00, 0.02, 0.01, -0.94
159, 0.00, -172742.70, 0.00, 0.00, 0.00, 0.00, 0.00, 0.00, 0.02, 0.02, -0.94
160, 0.00, -172556.38, 0.00, 0.00, 0.00, 0.00, 0.00, 0.00, 0.02, 0.02, -0.94
161, 0.00, -173986.42, 0.00, 0.00, 0.00, 0.00, 0.00, 0.00, 0.02, 0.02, -0.94
162, 0.00, -174311.13, 0.00, 0.00, 0.00, 0.00, 0.00, 0.00, 0.02, 0.02, -0.94
163, 0.00, -172903.75, 0.00, 0.00, 0.00, 0.00, 0.00, 0.00, 0.02, 0.02, -0.94
164, 0.00, -172343.52, 0.00, 0.00, 0.00, 0.00, 0.00, 0.00, 0.02, 0.02, -0.94
165, 0.00, -173666.72, 0.00, 0.00, 0.00, 0.00, 0.00, 0.00, 0.02, 0.02, -0.94
166, 0.00, -174349.77, 0.00, 0.00, 0.00, 0.00, 0.00, 0.00, 0.02, 0.02, -0.94
167, 0.00, -173113.34, 0.00, 0.00, 0.00, 0.00, 0.00, 0.00, 0.02, 0.02, -0.94
168, 0.00, -172202.38, 0.00, 0.00, 0.00, 0.00, 0.00, 0.00, 0.02, 0.02, -0.94
169, 0.00, -173315.47, 0.00, 0.00, 0.00, 0.00, 0.00, 0.00, 0.02, 0.02, -0.93
170, 0.00, -174309.41, 0.00, 0.00, 0.00, 0.00, 0.00, 0.00, 0.02, 0.02, -0.93
171, 0.00, -173325.28, 0.00, 0.00, 0.00, 0.00, 0.00, 0.00, 0.02, 0.02, -0.93
172, 0.00, -172142.38, 0.00, 0.00, 0.00, 0.00, 0.00, 0.00, 0.02, 0.02, -0.93
173, 0.00, -172980.86, 0.00, 0.00, 0.00, 0.00, 0.00, 0.00, 0.02, 0.02, -0.93
174, 0.00, -174202.27, 0.00, 0.00, 0.00, 0.00, 0.00, 0.00, 0.02, 0.02, -0.94
175, 0.00, -173530.16, 0.00, 0.00, 0.00, 0.00, 0.00, 0.00, 0.02, 0.02, -0.94
176, 0.00, -172140.14, 0.00, 0.00, 0.00, 0.00, 0.00, 0.00, 0.02, 0.02, -0.94
177, 0.00, -172634.00, 0.00, 0.00, 0.00, 0.00, 0.00, 0.00, 0.02, 0.02, -0.94
178, 0.00, -174017.09, 0.00, 0.00, 0.00, 0.00, 0.00, 0.00, 0.02, 0.02, -0.94
179, 0.00, -173702.84, 0.00, 0.00, 0.00, 0.00, 0.00, 0.00, 0.02, 0.02, -0.93
180, 0.00, -172227.77, 0.00, 0.00, 0.00, 0.00, 0.00, 0.00, 0.02, 0.02, -0.93
181, 0.00, -172332.81, 0.00, 0.00, 0.00, 0.00, 0.00, 0.00, 0.02, 0.02, -0.93
182, 0.00, -173787.47, 0.00, 0.00, 0.00, 0.00, 0.00, 0.00, 0.02, 0.02, -0.93
183, 0.00, -173851.80, 0.00, 0.00, 0.00, 0.00, 0.00, 0.00, 0.02, 0.02, -0.93
184, 0.00, -172378.70, 0.00, 0.00, 0.00, 0.00, 0.00, 0.00, 0.02, 0.02, -0.94
185, 0.00, -172089.11, 0.00, 0.00, 0.00, 0.00, 0.00, 0.00, 0.02, 0.02, -0.94
186, 0.00, -173506.70, 0.00, 0.00, 0.00, 0.00, 0.00, 0.00, 0.02, 0.02, -0.94
187, 0.00, -173951.63, 0.00, 0.00, 0.00, 0.00, 0.00, 0.00, 0.02, 0.02, -0.94
188, 0.00, -172591.83, 0.00, 0.00, 0.00, 0.00, 0.00, 0.00, 0.02, 0.02, -0.94
189, 0.00, -171936.11, 0.00, 0.00, 0.00, 0.00, 0.00, 0.00, 0.02, 0.02, -0.94
190, 0.00, -173225.44, 0.00, 0.00, 0.00, 0.00, 0.00, 0.00, 0.02, 0.02, -0.94
191, 0.00, -174000.81, 0.00, 0.00, 0.00, 0.00, 0.00, 0.00, 0.02, 0.02, -0.94
192, 0.00, -172826.23, 0.00, 0.00, 0.00, 0.00, 0.00, 0.00, 0.02, 0.02, -0.94
193, 0.00, -171835.84, 0.00, 0.00, 0.00, 0.00, 0.00, 0.00, 0.02, 0.02, -0.94
194, 0.00, -172898.63, 0.00, 0.00, 0.00, 0.00, 0.00, 0.00, 0.01, 0.02, -0.95
195, 0.00, -173964.14, 0.00, 0.00, 0.00, 0.00, 0.00, 0.00, 0.01, 0.02, -0.95
196, 0.00, -173071.03, 0.00, 0.00, 0.00, 0.00, 0.00, 0.00, 0.01, 0.02, -0.95
197, 0.00, -171827.38, 0.00, 0.00, 0.00, 0.00, 0.00, 0.00, 0.01, 0.02, -0.95
198, 0.00, -172572.84, 0.00, 0.00, 0.00, 0.00, 0.00, 0.00, 0.01, 0.02, -0.95
199, 0.00, -173862.19, 0.00, 0.00, 0.00, 0.00, 0.00, 0.00, 0.02, 0.02, -0.94
200, 0.00, -173289.56, 0.00, 0.00, 0.00, 0.00, 0.00, 0.00, 0.02, 0.02, -0.94
201, 0.00, -171879.09, 0.00, 0.00, 0.00, 0.00, 0.00, 0.00, 0.02, 0.02, -0.94
202, 0.00, -172270.30, 0.00, 0.00, 0.00, 0.00, 0.00, 0.00, 0.02, 0.02, -0.94
203, 0.00, -173687.31, 0.00, 0.00, 0.00, 0.00, 0.00, 0.00, 0.02, 0.02, -0.94
204, 0.00, -173485.05, 0.00, 0.00, 0.00, 0.00, 0.00, 0.00, 0.02, 0.02, -0.94
205, 0.00, -171996.58, 0.00, 0.00, 0.00, 0.00, 0.00, 0.00, 0.02, 0.02, -0.94
206, 0.00, -171998.33, 0.00, 0.00, 0.00, 0.00, 0.00, 0.00, 0.02, 0.02, -0.94
207, 0.00, -173448.61, 0.00, 0.00, 0.00, 0.00, 0.00, 0.00, 0.02, 0.02, -0.94
208, 0.00, -173607.00, 0.00, 0.00, 0.00, 0.00, 0.00, 0.00, 0.02, 0.02, -0.94
209, 0.00, -172147.23, 0.00, 0.00, 0.00, 0.00, 0.00, 0.00, 0.02, 0.02, -0.94
210, 0.00, -171751.02, 0.00, 0.00, 0.00, 0.00, 0.00, 0.00, 0.02, 0.02, -0.94
211, 0.00, -173140.39, 0.00, 0.00, 0.00, 0.00, 0.00, 0.00, 0.02, 0.02, -0.94
212, 0.00, -173669.14, 0.00, 0.00, 0.00, 0.00, 0.00, 0.00, 0.02, 0.02, -0.94
213, 0.00, -172342.88, 0.00, 0.00, 0.00, 0.00, 0.00, 0.00, 0.02, 0.02, -0.94
214, 0.00, -171580.34, 0.00, 0.00, 0.00, 0.00, 0.00, 0.00, 0.02, 0.02, -0.94
215, 0.00, -172805.84, 0.00, 0.00, 0.00, 0.00, 0.00, 0.00, 0.02, 0.02, -0.94
216, 0.00, -173654.27, 0.00, 0.00, 0.00, 0.00, 0.00, 0.00, 0.02, 0.02, -0.94
217, 0.00, -172547.22, 0.00, 0.00, 0.00, 0.00, 0.00, 0.00, 0.02, 0.02, -0.94
218, 0.00, -171471.00, 0.00, 0.00, 0.00, 0.00, 0.00, 0.00, 0.02, 0.02, -0.94
219, 0.00, -172448.63, 0.00, 0.00, 0.00, 0.00, 0.00, 0.00, 0.01, 0.02, -0.95
220, 0.00, -173584.63, 0.00, 0.00, 0.00, 0.00, 0.00, 0.00, 0.01, 0.02, -0.95
221, 0.00, -172769.30, 0.00, 0.00, 0.00, 0.00, 0.00, 0.00, 0.01, 0.02, -0.95
222, 0.00, -171460.58, 0.00, 0.00, 0.00, 0.00, 0.00, 0.00, 0.01, 0.02, -0.95
223, 0.00, -172115.52, 0.00, 0.00, 0.00, 0.00, 0.00, 0.00, 0.01, 0.02, -0.95
224, 0.00, -173437.78, 0.00, 0.00, 0.00, 0.00, 0.00, 0.00, 0.01, 0.02, -0.94
225, 0.00, -172961.77, 0.00, 0.00, 0.00, 0.00, 0.00, 0.00, 0.01, 0.02, -0.94
226, 0.00, -171508.38, 0.00, 0.00, 0.00, 0.00, 0.00, 0.00, 0.01, 0.02, -0.94
227, 0.00, -171794.19, 0.00, 0.00, 0.00, 0.00, 0.00, 0.00, 0.01, 0.02, -0.94
228, 0.00, -173232.73, 0.00, 0.00, 0.00, 0.00, 0.00, 0.00, 0.01, 0.02, -0.94
229, 0.00, -173127.63, 0.00, 0.00, 0.00, 0.00, 0.00, 0.00, 0.01, 0.02, -0.93
230, 0.00, -171638.41, 0.00, 0.00, 0.00, 0.00, 0.00, 0.00, 0.01, 0.02, -0.93
231, 0.00, -171525.78, 0.00, 0.00, 0.00, 0.00, 0.00, 0.00, 0.01, 0.02, -0.93
232, 0.00, -172966.11, 0.00, 0.00, 0.00, 0.00, 0.00, 0.00, 0.01, 0.02, -0.93
233, 0.00, -173234.27, 0.00, 0.00, 0.00, 0.00, 0.00, 0.00, 0.01, 0.02, -0.93
234, 0.00, -171809.30, 0.00, 0.00, 0.00, 0.00, 0.00, 0.00, 0.02, 0.01, -0.94
235, 0.00, -171312.86, 0.00, 0.00, 0.00, 0.00, 0.00, 0.00, 0.02, 0.01, -0.94
236, 0.00, -172672.72, 0.00, 0.00, 0.00, 0.00, 0.00, 0.00, 0.02, 0.01, -0.94
237, 0.00, -173305.30, 0.00, 0.00, 0.00, 0.00, 0.00, 0.00, 0.02, 0.01, -0.94
238, 0.00, -172037.84, 0.00, 0.00, 0.00, 0.00, 0.00, 0.00, 0.02, 0.01, -0.94
239, 0.00, -171185.56, 0.00, 0.00, 0.00, 0.00, 0.00, 0.00, 0.02, 0.02, -0.94
240, 0.00, -172356.36, 0.00, 0.00, 0.00, 0.00, 0.00, 0.00, 0.02, 0.02, -0.94
241, 0.00, -173301.92, 0.00, 0.00, 0.00, 0.00, 0.00, 0.00, 0.02, 0.02, -0.94
242, 0.00, -172279.50, 0.00, 0.00, 0.00, 0.00, 0.00, 0.00, 0.02, 0.02, -0.94
243, 0.00, -171139.66, 0.00, 0.00, 0.00, 0.00, 0.00, 0.00, 0.02, 0.02, -0.94
244, 0.00, -172050.69, 0.00, 0.00, 0.00, 0.00, 0.00, 0.00, 0.01, 0.02, -0.94
245, 0.00, -173253.08, 0.00, 0.00, 0.00, 0.00, 0.00, 0.00, 0.01, 0.02, -0.94
246, 0.00, -172533.17, 0.00, 0.00, 0.00, 0.00, 0.00, 0.00, 0.01, 0.02, -0.94
247, 0.00, -171181.33, 0.00, 0.00, 0.00, 0.00, 0.00, 0.00, 0.01, 0.02, -0.94
248, 0.00, -171733.75, 0.00, 0.00, 0.00, 0.00, 0.00, 0.00, 0.01, 0.02, -0.94
249, 0.00, -173107.86, 0.00, 0.00, 0.00, 0.00, 0.00, 0.00, 0.02, 0.02, -0.94
250, 0.00, -172740.48, 0.00, 0.00, 0.00, 0.00, 0.00, 0.00, 0.02, 0.02, -0.94
251, 0.00, -171278.42, 0.00, 0.00, 0.00, 0.00, 0.00, 0.00, 0.02, 0.02, -0.94
252, 0.00, -171467.02, 0.00, 0.00, 0.00, 0.00, 0.00, 0.00, 0.02, 0.02, -0.94
253, 0.00, -172925.09, 0.00, 0.00, 0.00, 0.00, 0.00, 0.00, 0.02, 0.02, -0.94
254, 0.00, -172933.88, 0.00, 0.00, 0.00, 0.00, 0.00, 0.00, 0.02, 0.02, -0.94
255, 0.00, -171453.44, 0.00, 0.00, 0.00, 0.00, 0.00, 0.00, 0.02, 0.02, -0.94
0, 0.00, -171230.16, 0.00, 0.00, 0.00, 0.00, 0.00, 0.00, 0.02, 0.02, -0.94
1, 0.00, -172663.59, 0.00, 0.00, 0.00, 0.00, 0.00, 0.00, 0.02, 0.02, -0.94
2, 0.00, -173039.00, 0.00, 0.00, 0.00, 0.00, 0.00, 0.00, 0.02, 0.02, -0.94
3, 0.00, -171650.58, 0.00, 0.00, 0.00, 0.00, 0.00, 0.00, 0.01, 0.02, -0.94
4, 0.00, -171050.50, 0.00, 0.00, 0.00, 0.00, 0.00, 0.00, 0.01, 0.02, -0.94
5, 0.00, -172364.73, 0.00, 0.00, 0.00, 0.00, 0.00, 0.00, 0.01, 0.02, -0.94
6, 0.00, -173092.66, 0.00, 0.00, 0.00, 0.00, 0.00, 0.00, 0.01, 0.02, -0.94
7, 0.00, -171884.73, 0.00, 0.00, 0.00, 0.00, 0.00, 0.00, 0.01, 0.02, -0.94
8, 0.00, -170940.92, 0.00, 0.00, 0.00, 0.00, 0.00, 0.00, 0.01, 0.01, -0.94
9, 0.00, -172038.67, 0.00, 0.00, 0.00, 0.00, 0.00, 0.00, 0.01, 0.01, -0.94
10, 0.00, -173064.95, 0.00, 0.00, 0.00, 0.00, 0.00, 0.00, 0.01, 0.01, -0.94
11, 0.00, -172120.03, 0.00, 0.00, 0.00, 0.00, 0.00, 0.00, 0.01, 0.01, -0.94
12, 0.00, -170915.20, 0.00, 0.00, 0.00, 0.00, 0.00, 0.00, 0.01, 0.01, -0.94
13, 0.00, -171728.16, 0.00, 0.00, 0.00, 0.00, 0.00, 0.00, 0.02, 0.01, -0.94
14, 0.00, -172982.63, 0.00, 0.00, 0.00, 0.00, 0.00, 0.00, 0.02, 0.01, -0.94
15, 0.00, -172354.56, 0.00, 0.00, 0.00, 0.00, 0.00, 0.00, 0.02, 0.01, -0.94
16, 0.00, -170951.88, 0.00, 0.00, 0.00, 0.00, 0.00, 0.00, 0.02, 0.01, -0.94
17, 0.00, -171405.78, 0.00, 0.00, 0.00, 0.00, 0.00, 0.00, 0.02, 0.01, -0.94
18, 0.00, -172809.69, 0.00, 0.00, 0.00, 0.00, 0.00, 0.00, 0.02, 0.02, -0.94
19, 0.00, -172541.42, 0.00, 0.00, 0.00, 0.00, 0.00, 0.00, 0.02, 0.02, -0.94
20, 0.00, -171063.73, 0.00, 0.00, 0.00, 0.00, 0.00, 0.00, 0.02, 0.02, -0.94
21, 0.00, -171122.98, 0.00, 0.00, 0.00, 0.00, 0.00, 0.00, 0.02, 0.02, -0.94
22, 0.00, -172579.06, 0.00, 0.00, 0.00, 0.00, 0.00, 0.00, 0.02, 0.02, -0.94
23, 0.00, -172687.78, 0.00, 0.00, 0.00, 0.00, 0.00, 0.00, 0.01, 0.02, -0.94
24, 0.00, -171214.05, 0.00, 0.00, 0.00, 0.00, 0.00, 0.00, 0.01, 0.02, -0.94
25, 0.00, -170882.56, 0.00, 0.00, 0.00, 0.00, 0.00, 0.00, 0.01, 0.02, -0.94
26, 0.00, -172291.80, 0.00, 0.00, 0.00, 0.00, 0.00, 0.00, 0.01, 0.02, -0.94
27, 0.00, -172768.72, 0.00, 0.00, 0.00, 0.00, 0.00, 0.00, 0.01, 0.02, -0.94
28, 0.00, -171424.22, 0.00, 0.00, 0.00, 0.00, 0.00, 0.00, 0.02, 0.02, -0.93
29, 0.00, -170725.81, 0.00, 0.00, 0.00, 0.00, 0.00, 0.00, 0.02, 0.02, -0.93
30, 0.00, -171995.02, 0.00, 0.00, 0.00, 0.00, 0.00, 0.00, 0.02, 0.02, -0.93
31, 0.00, -172806.45, 0.00, 0.00, 0.00, 0.00, 0.00, 0.00, 0.02, 0.02, -0.93
32, 0.00, -171663.52, 0.00, 0.00, 0.00, 0.00, 0.00, 0.00, 0.02, 0.02, -0.93
33, 0.00, -170643.16, 0.00, 0.00, 0.00, 0.00, 0.00, 0.00, 0.01, 0.02, -0.94
34, 0.00, -171679.11, 0.00, 0.00, 0.00, 0.00, 0.00, 0.00, 0.01, 0.02, -0.94
35, 0.00, -172780.47, 0.00, 0.00, 0.00, 0.00, 0.00, 0.00, 0.01, 0.02, -0.94
36, 0.00, -171927.20, 0.00, 0.00, 0.00, 0.00, 0.00, 0.00, 0.01, 0.02, -0.94
37, 0.00, -170662.41, 0.00, 0.00, 0.00, 0.00, 0.00, 0.00, 0.01, 0.02, -0.94
38, 0.00, -171388.05, 0.00, 0.00, 0.00, 0.00, 0.00, 0.00, 0.01, 0.02, -0.94
39, 0.00, -172700.84, 0.00, 0.00, 0.00, 0.00, 0.00, 0.00, 0.01, 0.02, -0.94
40, 0.00, -172174.08, 0.00, 0.00, 0.00, 0.00, 0.00, 0.00, 0.01, 0.02, -0.94
41, 0.00, -170747.36, 0.00, 0.00, 0.00, 0.00, 0.00, 0.00, 0.01, 0.02, -0.94
42, 0.00, -171106.05, 0.00, 0.00, 0.00, 0.00, 0.00, 0.00, 0.01, 0.02, -0.94
43, 0.00, -172541.14, 0.00, 0.00, 0.00, 0.00, 0.00, 0.00, 0.01, 0.02, -0.94
44, 0.00, -172386.28, 0.00, 0.00, 0.00, 0.00, 0.00, 0.00, 0.01, 0.02, -0.94
45, 0.00, -170904.77, 0.00, 0.00, 0.00, 0.00, 0.00, 0.00, 0.01, 0.02, -0.94
46, 0.00, -170871.41, 0.00, 0.00, 0.00, 0.00, 0.00, 0.00, 0.01, 0.02, -0.94
47, 0.00, -172331.86, 0.00, 0.00, 0.00, 0.00, 0.00, 0.00, 0.01, 0.02, -0.94
48, 0.00, -172543.19, 0.00, 0.00, 0.00, 0.00, 0.00, 0.00, 0.01, 0.02, -0.94
49, 0.00, -171104.75, 0.00, 0.00, 0.00, 0.00, 0.00, 0.00, 0.01, 0.02, -0.94
50, 0.00, -170678.45, 0.00, 0.00, 0.00, 0.00, 0.00, 0.00, 0.01, 0.02, -0.94
51, 0.00, -172067.02, 0.00, 0.00, 0.00, 0.00, 0.00, 0.00, 0.01, 0.02, -0.94
52, 0.00, -172652.38, 0.00, 0.00, 0.00, 0.00, 0.00, 0.00, 0.01, 0.02, -0.94
53, 0.00, -171356.61, 0.00, 0.00, 0.00, 0.00, 0.00, 0.00, 0.01, 0.02, -0.94
54, 0.00, -170566.69, 0.00, 0.00, 0.00, 0.00, 0.00, 0.00, 0.02, 0.02, -0.93
55, 0.00, -171781.64, 0.00, 0.00, 0.00, 0.00, 0.00, 0.00, 0.02, 0.02, -0.93
56, 0.00, -172674.78, 0.00, 0.00, 0.00, 0.00, 0.00, 0.00, 0.02, 0.02, -0.93
57, 0.00, -171602.11, 0.00, 0.00, 0.00, 0.00, 0.00, 0.00, 0.02, 0.02, -0.93
58, 0.00, -170504.13, 0.00, 0.00, 0.00, 0.00, 0.00, 0.00, 0.02, 0.02, -0.93
59, 0.00, -171465.50, 0.00, 0.00, 0.00, 0.00, 0.00, 0.00, 0.02, 0.02, -0.93
60, 0.00, -172634.61, 0.00, 0.00, 0.00, 0.00, 0.00, 0.00, 0.02, 0.02, -0.93
61, 0.00, -171864.25, 0.00, 0.00, 0.00, 0.00, 0.00, 0.00, 0.02, 0.02, -0.93
62, 0.00, -170541.88, 0.00, 0.00, 0.00, 0.00, 0.00, 0.00, 0.02, 0.02, -0.93
63, 0.00, -171168.52, 0.00, 0.00, 0.00, 0.00, 0.00, 0.00, 0.02, 0.02, -0.93
64, 0.00, -172515.34, 0.00, 0.00, 0.00, 0.00, 0.00, 0.00, 0.02, 0.02, -0.93
65, 0.00, -172085.42, 0.00, 0.00, 0.00, 0.00, 0.00, 0.00, 0.02, 0.02, -0.93
66, 0.00, -170632.55, 0.00, 0.00, 0.00, 0.00, 0.00, 0.00, 0.02, 0.02, -0.93
67, 0.00, -170883.38, 0.00, 0.00, 0.00, 0.00, 0.00, 0.00, 0.02, 0.02, -0.93
68, 0.00, -172336.66, 0.00, 0.00, 0.00, 0.00, 0.00, 0.00, 0.02, 0.02, -0.93
69, 0.00, -172280.02, 0.00, 0.00, 0.00, 0.00, 0.00, 0.00, 0.02, 0.02, -0.94
70, 0.00, -170797.83, 0.00, 0.00, 0.00, 0.00, 0.00, 0.00, 0.02, 0.02, -0.94
71, 0.00, -170650.84, 0.00, 0.00, 0.00, 0.00, 0.00, 0.00, 0.02, 0.02, -0.94
72, 0.00, -172094.05, 0.00, 0.00, 0.00, 0.00, 0.00, 0.00, 0.02, 0.02, -0.94
73, 0.00, -172408.95, 0.00, 0.00, 0.00, 0.00, 0.00, 0.00, 0.02, 0.02, -0.94
74, 0.00, -170994.95, 0.00, 0.00, 0.00, 0.00, 0.00, 0.00, 0.02, 0.02, -0.94
75, 0.00, -170460.86, 0.00, 0.00, 0.00, 0.00, 0.00, 0.00, 0.02, 0.02, -0.94
76, 0.00, -171813.47, 0.00, 0.00, 0.00, 0.00, 0.00, 0.00, 0.02, 0.02, -0.94
77, 0.00, -172480.77, 0.00, 0.00, 0.00, 0.00, 0.00, 0.00, 0.02, 0.02, -0.94
78, 0.00, -171234.78, 0.00, 0.00, 0.00, 0.00, 0.00, 0.00, 0.02, 0.02, -0.94
79, 0.00, -170349.20, 0.00, 0.00, 0.00, 0.00, 0.00, 0.00, 0.02, 0.02, -0.95
80, 0.00, -171496.64, 0.00, 0.00, 0.00, 0.00, 0.00, 0.00, 0.02, 0.02, -0.95
81, 0.00, -172470.61, 0.00, 0.00, 0.00, 0.00, 0.00, 0.00, 0.02, 0.02, -0.95
82, 0.00, -171475.06, 0.00, 0.00, 0.00, 0.00, 0.00, 0.00, 0.02, 0.02, -0.95
83, 0.00, -170306.97, 0.00, 0.00, 0.00, 0.00, 0.00, 0.00, 0.02, 0.02, -0.95
84, 0.00, -171185.09, 0.00, 0.00, 0.00, 0.00, 0.00, 0.00, 0.01, 0.02, -0.94
85, 0.00, -172409.44, 0.00, 0.00, 0.00, 0.00, 0.00, 0.00, 0.01, 0.02, -0.94
86, 0.00, -171728.31, 0.00, 0.00, 0.00, 0.00, 0.00, 0.00, 0.01, 0.02, -0.94
87, 0.00, -170360.83, 0.00, 0.00, 0.00, 0.00, 0.00, 0.00, 0.01, 0.02, -0.94
88, 0.00, -170884.58, 0.00, 0.00, 0.00, 0.00, 0.00, 0.00, 0.01, 0.02, -0.94
89, 0.00, -172272.67, 0.00, 0.00, 0.00, 0.00, 0.00, 0.00, 0.01, 0.02, -0.94
90, 0.00, -171946.27, 0.00, 0.00, 0.00, 0.00, 0.00, 0.00, 0.01, 0.02, -0.94
91, 0.00, -170478.58, 0.00, 0.00, 0.00, 0.00, 0.00, 0.00, 0.01, 0.02, -0.94
92, 0.00, -170629.55, 0.00, 0.00, 0.00, 0.00, 0.00, 0.00, 0.01, 0.02, -0.94
93, 0.00, -172095.33, 0.00, 0.00, 0.00, 0.00, 0.00, 0.00, 0.01, 0.02, -0.94
94, 0.00, -172146.67, 0.00, 0.00, 0.00, 0.00, 0.00, 0.00, 0.01, 0.02, -0.95
95, 0.00, -170676.70, 0.00, 0.00, 0.00, 0.00, 0.00, 0.00, 0.01, 0.02, -0.95
96, 0.00, -170421.47, 0.00, 0.00, 0.00, 0.00, 0.00, 0.00, 0.01, 0.02, -0.95
97, 0.00, -171856.77, 0.00, 0.00, 0.00, 0.00, 0.00, 0.00, 0.01, 0.02, -0.95
98, 0.00, -172275.64, 0.00, 0.00, 0.00, 0.00, 0.00, 0.00, 0.01, 0.02, -0.95
99, 0.00, -170907.17, 0.00, 0.00, 0.00, 0.00, 0.00, 0.00, 0.02, 0.02, -0.95
100, 0.00, -170284.19, 0.00, 0.00, 0.00, 0.00, 0.00, 0.00, 0.02, 0.02, -0.95
101, 0.00, -171592.81, 0.00, 0.00, 0.00, 0.00, 0.00, 0.00, 0.02, 0.02, -0.95
102, 0.00, -172356.55, 0.00, 0.00, 0.00, 0.00, 0.00, 0.00, 0.02, 0.02, -0.95
103, 0.00, -171173.72, 0.00, 0.00, 0.00, 0.00, 0.00, 0.00, 0.02, 0.02, -0.95
104, 0.00, -170202.63, 0.00, 0.00, 0.00, 0.00, 0.00, 0.00, 0.02, 0.02, -0.95
105, 0.00, -171283.67, 0.00, 0.00, 0.00, 0.00, 0.00, 0.00, 0.02, 0.02, -0.95
106, 0.00, -172342.78, 0.00, 0.00, 0.00, 0.00, 0.00, 0.00, 0.02, 0.02, -0.95
107, 0.00, -171431.33, 0.00, 0.00, 0.00, 0.00, 0.00, 0.00, 0.02, 0.02, -0.95
108, 0.00, -170205.17, 0.00, 0.00, 0.00, 0.00, 0.00, 0.00, 0.02, 0.02, -0.95
109, 0.00, -170992.11, 0.00, 0.00, 0.00, 0.00, 0.00, 0.00, 0.02, 0.02, -0.95
110, 0.00, -172269.56, 0.00, 0.00, 0.00, 0.00, 0.00, 0.00, 0.02, 0.02, -0.95
111, 0.00, -171678.63, 0.00, 0.00, 0.00, 0.00, 0.00, 0.00, 0.02, 0.02, -0.95
112, 0.00, -170266.36, 0.00, 0.00, 0.00, 0.00, 0.00, 0.00, 0.02, 0.02, -0.95
113, 0.00, -170688.06, 0.00, 0.00, 0.00, 0.00, 0.00, 0.00, 0.02, 0.02, -0.95
114, 0.00, -172105.72, 0.00, 0.00, 0.00, 0.00, 0.00, 0.00, 0.02, 0.02, -0.94
115, 0.00, -171877.78, 0.00, 0.00, 0.00, 0.00, 0.00, 0.00, 0.02, 0.02, -0.94
116, 0.00, -170403.53, 0.00, 0.00, 0.00, 0.00, 0.00, 0.00, 0.02, 0.02, -0.94
117, 0.00, -170433.28, 0.00, 0.00, 0.00, 0.00, 0.00, 0.00, 0.02, 0.02, -0.94
118, 0.00, -171892.70, 0.00, 0.00, 0.00, 0.00, 0.00, 0.00, 0.02, 0.02, -0.94
119, 0.00, -172039.88, 0.00, 0.00, 0.00, 0.00, 0.00, 0.00, 0.01, 0.01, -0.94
120, 0.00, -170578.81, 0.00, 0.00, 0.00, 0.00, 0.00, 0.00, 0.01, 0.01, -0.94
121, 0.00, -170217.56, 0.00, 0.00, 0.00, 0.00, 0.00, 0.00, 0.01, 0.01, -0.94
122, 0.00, -171622.97, 0.00, 0.00, 0.00, 0.00, 0.00, 0.00, 0.01, 0.01, -0.94
123, 0.00, -172134.44, 0.00, 0.00, 0.00, 0.00, 0.00, 0.00, 0.01, 0.01, -0.94
124, 0.00, -170803.75, 0.00, 0.00, 0.00, 0.00, 0.00, 0.00, 0.01, 0.01, -0.94
125, 0.00, -170074.22, 0.00, 0.00, 0.00, 0.00, 0.00, 0.00, 0.01, 0.01, -0.94
126, 0.00, -171325.20, 0.00, 0.00, 0.00, 0.00, 0.00, 0.00, 0.01, 0.01, -0.94
127, 0.00, -172167.39, 0.00, 0.00, 0.00, 0.00, 0.00, 0.00, 0.01, 0.01, -0.94
128, 0.00, -171043.34, 0.00, 0.00, 0.00, 0.00, 0.00, 0.00, 0.01, 0.01, -0.94
129, 0.00, -169996.14, 0.00, 0.00, 0.00, 0.00, 0.00, 0.00, 0.02, 0.03, -0.93
130, 0.00, -170998.63, 0.00, 0.00, 0.00, 0.00, 0.00, 0.00, 0.02, 0.03, -0.93
131, 0.00, -172128.47, 0.00, 0.00, 0.00, 0.00, 0.00, 0.00, 0.02, 0.03, -0.93
132, 0.00, -171299.25, 0.00, 0.00, 0.00, 0.00, 0.00, 0.00, 0.02, 0.03, -0.93
133, 0.00, -170013.89, 0.00, 0.00, 0.00, 0.00, 0.00, 0.00, 0.02, 0.03, -0.93
134, 0.00, -170703.08, 0.00, 0.00, 0.00, 0.00, 0.00, 0.00, 0.01, 0.02, -0.93
135, 0.00, -172027.94, 0.00, 0.00, 0.00, 0.00, 0.00, 0.00, 0.01, 0.02, -0.93
136, 0.00, -171528.23, 0.00, 0.00, 0.00, 0.00, 0.00, 0.00, 0.01, 0.02, -0.93
137, 0.00, -170089.44, 0.00, 0.00, 0.00, 0.00, 0.00, 0.00, 0.01, 0.02, -0.93
138, 0.00, -170411.80, 0.00, 0.00, 0.00, 0.00, 0.00, 0.00, 0.01, 0.02, -0.93
139, 0.00, -171851.92, 0.00, 0.00, 0.00, 0.00, 0.00, 0.00, 0.01, 0.02, -0.93
140, 0.00, -171731.27, 0.00, 0.00, 0.00, 0.00, 0.00, 0.00, 0.01, 0.02, -0.93
141, 0.00, -170247.33, 0.00, 0.00, 0.00, 0.00, 0.00, 0.00, 0.01, 0.02, -0.93
142, 0.00, -170172.94, 0.00, 0.00, 0.00, 0.00, 0.00, 0.00, 0.01, 0.02, -0.93
143, 0.00, -171632.64, 0.00, 0.00, 0.00, 0.00, 0.00, 0.00, 0.01, 0.02, -0.93
144, 0.00, -171878.97, 0.00, 0.00, 0.00, 0.00, 0.00, 0.00, 0.01, 0.02, -0.93
145, 0.00, -170449.61, 0.00, 0.00, 0.00, 0.00, 0.00, 0.00, 0.01, 0.02, -0.93
146, 0.00, -169983.20, 0.00, 0.00, 0.00, 0.00, 0.00, 0.00, 0.01, 0.02, -0.93
147, 0.00, -171360.73, 0.00, 0.00, 0.00, 0.00, 0.00, 0.00, 0.01, 0.02, -0.93
148, 0.00, -171988.06, 0.00, 0.00, 0.00, 0.00, 0.00, 0.00, 0.01, 0.02, -0.93
149, 0.00, -170713.83, 0.00, 0.00, 0.00, 0.00, 0.00, 0.00, 0.01, 0.02, -0.94
150, 0.00, -169899.16, 0.00, 0.00, 0.00, 0.00, 0.00, 0.00, 0.01, 0.02, -0.94
151, 0.00, -171098.38, 0.00, 0.00, 0.00, 0.00, 0.00, 0.00, 0.01, 0.02, -0.94
152, 0.00, -172026.06, 0.00, 0.00, 0.00, 0.00, 0.00, 0.00, 0.01, 0.02, -0.94
153, 0.00, -170983.13, 0.00, 0.00, 0.00, 0.00, 0.00, 0.00, 0.01, 0.02, -0.94
154, 0.00, -169868.64, 0.00, 0.00, 0.00, 0.00, 0.00, 0.00, 0.01, 0.02, -0.94
155, 0.00, -170805.52, 0.00, 0.00, 0.00, 0.00, 0.00, 0.00, 0.01, 0.02, -0.94
156, 0.00, -171999.70, 0.00, 0.00, 0.00, 0.00, 0.00, 0.00, 0.01, 0.02, -0.94
157, 0.00, -171259.97, 0.00, 0.00, 0.00, 0.00, 0.00, 0.00, 0.01, 0.02, -0.94
158, 0.00, -169928.30, 0.00, 0.00, 0.00, 0.00, 0.00, 0.00, 0.01, 0.02, -0.94
159, 0.00, -170520.88, 0.00, 0.00, 0.00, 0.00, 0.00, 0.00, 0.01, 0.02, -0.94
160, 0.00, -171889.06, 0.00, 0.00, 0.00, 0.00, 0.00, 0.00, 0.01, 0.02, -0.94
161, 0.00, -171495.91, 0.00, 0.00, 0.00, 0.00, 0.00, 0.00, 0.01, 0.02, -0.94
162, 0.00, -170042.88, 0.00, 0.00, 0.00, 0.00, 0.00, 0.00, 0.01, 0.02, -0.94
163, 0.00, -170253.88, 0.00, 0.00, 0.00, 0.00, 0.00, 0.00, 0.01, 0.02, -0.94
164, 0.00, -171718.66, 0.00, 0.00, 0.00, 0.00, 0.00, 0.00, 0.01, 0.02, -0.93
165, 0.00, -171704.69, 0.00, 0.00, 0.00, 0.00, 0.00, 0.00, 0.01, 0.02, -0.93
166, 0.00, -170224.86, 0.00, 0.00, 0.00, 0.00, 0.00, 0.00, 0.01, 0.02, -0.93
167, 0.00, -170043.22, 0.00, 0.00, 0.00, 0.00, 0.00, 0.00, 0.01, 0.02, -0.93
168, 0.00, -171484.70, 0.00, 0.00, 0.00, 0.00, 0.00, 0.00, 0.01, 0.02, -0.93
169, 0.00, -171835.33, 0.00, 0.00, 0.00, 0.00, 0.00, 0.00, 0.02, 0.01, -0.93
170, 0.00, -170436.94, 0.00, 0.00, 0.00, 0.00, 0.00, 0.00, 0.02, 0.01, -0.93
171, 0.00, -169871.00, 0.00, 0.00, 0.00, 0.00, 0.00, 0.00, 0.02, 0.01, -0.93
172, 0.00, -171211.92, 0.00, 0.00, 0.00, 0.00, 0.00, 0.00, 0.02, 0.01, -0.93
173, 0.00, -171911.63, 0.00, 0.00, 0.00, 0.00, 0.00, 0.00, 0.02, 0.01, -0.93
174, 0.00, -170687.25, 0.00, 0.00, 0.00, 0.00, 0.00, 0.00, 0.02, 0.02, -0.94
175, 0.00, -169773.58, 0.00, 0.00, 0.00, 0.00, 0.00, 0.00, 0.02, 0.02, -0.94
176, 0.00, -170897.94, 0.00, 0.00, 0.00, 0.00, 0.00, 0.00, 0.02, 0.02, -0.94
177, 0.00, -171901.88, 0.00, 0.00, 0.00, 0.00, 0.00, 0.00, 0.02, 0.02, -0.94
178, 0.00, -170931.14, 0.00, 0.00, 0.00, 0.00, 0.00, 0.00, 0.02, 0.02, -0.94
179, 0.00, -169744.63, 0.00, 0.00, 0.00, 0.00, 0.00, 0.00, 0.01, 0.02, -0.94
180, 0.00, -170578.09, 0.00, 0.00, 0.00, 0.00, 0.00, 0.00, 0.01, 0.02, -0.94
181, 0.00, -171835.83, 0.00, 0.00, 0.00, 0.00, 0.00, 0.00, 0.01, 0.02, -0.94
182, 0.00, -171185.61, 0.00, 0.00, 0.00, 0.00, 0.00, 0.00, 0.01, 0.02, -0.94
183, 0.00, -169811.56, 0.00, 0.00, 0.00, 0.00, 0.00, 0.00, 0.01, 0.02, -0.94
184, 0.00, -170303.77, 0.00, 0.00, 0.00, 0.00, 0.00, 0.00, 0.01, 0.02, -0.94
185, 0.00, -171704.13, 0.00, 0.00, 0.00, 0.00, 0.00, 0.00, 0.01, 0.02, -0.94
186, 0.00, -171409.47, 0.00, 0.00, 0.00, 0.00, 0.00, 0.00, 0.01, 0.02, -0.94
187, 0.00, -169929.83, 0.00, 0.00, 0.00, 0.00, 0.00, 0.00, 0.01, 0.02, -0.94
188, 0.00, -170045.00, 0.00, 0.00, 0.00, 0.00, 0.00, 0.00, 0.01, 0.02, -0.94
189, 0.00, -171509.33, 0.00, 0.00, 0.00, 0.00, 0.00, 0.00, 0.02, 0.01, -0.94
190, 0.00, -171585.91, 0.00, 0.00, 0.00, 0.00, 0.00, 0.00, 0.02, 0.01, -0.94
191, 0.00, -170115.81, 0.00, 0.00, 0.00, 0.00, 0.00, 0.00, 0.02, 0.01, -0.94
192, 0.00, -169814.59, 0.00, 0.00, 0.00, 0.00, 0.00, 0.00, 0.02, 0.01, -0.94
193, 0.00, -171234.55, 0.00, 0.00, 0.00, 0.00, 0.00, 0.00, 0.02, 0.01, -0.94
194, 0.00, -171686.09, 0.00, 0.00, 0.00, 0.00, 0.00, 0.00, 0.02, 0.02, -0.94
195, 0.00, -170325.34, 0.00, 0.00, 0.00, 0.00, 0.00, 0.00, 0.02, 0.02, -0.94
196, 0.00, -169660.94, 0.00, 0.00, 0.00, 0.00, 0.00, 0.00, 0.02, 0.02, -0.94
197, 0.00, -170942.81, 0.00, 0.00, 0.00, 0.00, 0.00, 0.00, 0.02, 0.02, -0.94
198, 0.00, -171748.92, 0.00, 0.00, 0.00, 0.00, 0.00, 0.00, 0.02, 0.02, -0.94
199, 0.00, -170587.77, 0.00, 0.00, 0.00, 0.00, 0.00, 0.00, 0.01, 0.02, -0.94
200, 0.00, -169592.09, 0.00, 0.00, 0.00, 0.00, 0.00, 0.00, 0.01, 0.02, -0.94
201, 0.00, -170654.48, 0.00, 0.00, 0.00, 0.00, 0.00, 0.00, 0.01, 0.02, -0.94
202, 0.00, -171735.02, 0.00, 0.00, 0.00, 0.00, 0.00, 0.00, 0.01, 0.02, -0.94
203, 0.00, -170852.02, 0.00, 0.00, 0.00, 0.00, 0.00, 0.00, 0.01, 0.02, -0.94
204, 0.00, -169608.55, 0.00, 0.00, 0.00, 0.00, 0.00, 0.00, 0.01, 0.02, -0.94
205, 0.00, -170370.52, 0.00, 0.00, 0.00, 0.00, 0.00, 0.00, 0.01, 0.02, -0.94
206, 0.00, -171670.69, 0.00, 0.00, 0.00, 0.00, 0.00, 0.00, 0.01, 0.02, -0.94
207, 0.00, -171116.36, 0.00, 0.00, 0.00, 0.00, 0.00, 0.00, 0.01, 0.02, -0.94
208, 0.00, -169700.83, 0.00, 0.00, 0.00, 0.00, 0.00, 0.00, 0.01, 0.02, -0.94
209, 0.00, -170095.11, 0.00, 0.00, 0.00, 0.00, 0.00, 0.00, 0.02, 0.03, -0.94
210, 0.00, -171533.56, 0.00, 0.00, 0.00, 0.00, 0.00, 0.00, 0.02, 0.03, -0.94
211, 0.00, -171359.63, 0.00, 0.00, 0.00, 0.00, 0.00, 0.00, 0.02, 0.03, -0.94
212, 0.00, -169886.50, 0.00, 0.00, 0.00, 0.00, 0.00, 0.00, 0.02, 0.03, -0.94
213, 0.00, -169883.63, 0.00, 0.00, 0.00, 0.00, 0.00, 0.00, 0.02, 0.03, -0.94
214, 0.00, -171351.70, 0.00, 0.00, 0.00, 0.00, 0.00, 0.00, 0.02, 0.01, -0.94
215, 0.00, -171549.78, 0.00, 0.00, 0.00, 0.00, 0.00, 0.00, 0.02, 0.01, -0.94
216, 0.00, -170103.59, 0.00, 0.00, 0.00, 0.00, 0.00, 0.00, 0.02, 0.01, -0.94
217, 0.00, -169703.78, 0.00, 0.00, 0.00, 0.00, 0.00, 0.00, 0.02, 0.01, -0.94
218, 0.00, -171107.69, 0.00, 0.00, 0.00, 0.00, 0.00, 0.00, 0.02, 0.01, -0.94
219, 0.00, -171669.92, 0.00, 0.00, 0.00, 0.00, 0.00, 0.00, 0.02, 0.02, -0.94
220, 0.00, -170370.38, 0.00, 0.00, 0.00, 0.00, 0.00, 0.00, 0.02, 0.02, -0.94
221, 0.00, -169609.30, 0.00, 0.00, 0.00, 0.00, 0.00, 0.00, 0.02, 0.02, -0.94
222, 0.00, -170844.97, 0.00, 0.00, 0.00, 0.00, 0.00, 0.00, 0.02, 0.02, -0.94
223, 0.00, -171731.27, 0.00, 0.00, 0.00, 0.00, 0.00, 0.00, 0.02, 0.02, -0.94
224, 0.00, -170644.44, 0.00, 0.00, 0.00, 0.00, 0.00, 0.00, 0.02, 0.01, -0.94
225, 0.00, -169569.47, 0.00, 0.00, 0.00, 0.00, 0.00, 0.00, 0.02, 0.01, -0.94
226, 0.00, -170546.64, 0.00, 0.00, 0.00, 0.00, 0.00, 0.00, 0.02, 0.01, -0.94
227, 0.00, -171707.30, 0.00, 0.00, 0.00, 0.00, 0.00, 0.00, 0.02, 0.01, -0.94
228, 0.00, -170923.42, 0.00, 0.00, 0.00, 0.00, 0.00, 0.00, 0.02, 0.01, -0.94
229, 0.00, -169620.20, 0.00, 0.00, 0.00, 0.00, 0.00, 0.00, 0.02, 0.02, -0.94
230, 0.00, -170273.14, 0.00, 0.00, 0.00, 0.00, 0.00, 0.00, 0.02, 0.02, -0.94
231, 0.00, -171619.73, 0.00, 0.00, 0.00, 0.00, 0.00, 0.00, 0.02, 0.02, -0.94
232, 0.00, -171167.00, 0.00, 0.00, 0.00, 0.00, 0.00, 0.00, 0.02, 0.02, -0.94
233, 0.00, -169716.14, 0.00, 0.00, 0.00, 0.00, 0.00, 0.00, 0.02, 0.02, -0.94
234, 0.00, -169994.31, 0.00, 0.00, 0.00, 0.00, 0.00, 0.00, 0.02, 0.02, -0.94
235, 0.00, -171448.25, 0.00, 0.00, 0.00, 0.00, 0.00, 0.00, 0.02, 0.02, -0.94
236, 0.00, -171376.11, 0.00, 0.00, 0.00, 0.00, 0.00, 0.00, 0.02, 0.02, -0.94
237, 0.00, -169893.17, 0.00, 0.00, 0.00, 0.00, 0.00, 0.00, 0.02, 0.02, -0.94
238, 0.00, -169772.92, 0.00, 0.00, 0.00, 0.00, 0.00, 0.00, 0.02, 0.02, -0.94
239, 0.00, -171228.23, 0.00, 0.00, 0.00, 0.00, 0.00, 0.00, 0.02, 0.02, -0.94
240, 0.00, -171518.55, 0.00, 0.00, 0.00, 0.00, 0.00, 0.00, 0.02, 0.02, -0.94
241, 0.00, -170100.34, 0.00, 0.00, 0.00, 0.00, 0.00, 0.00, 0.02, 0.02, -0.94
242, 0.00, -169589.23, 0.00, 0.00, 0.00, 0.00, 0.00, 0.00, 0.02, 0.02, -0.94
243, 0.00, -170947.86, 0.00, 0.00, 0.00, 0.00, 0.00, 0.00, 0.02, 0.02, -0.94
244, 0.00, -171612.59, 0.00, 0.00, 0.00, 0.00, 0.00, 0.00, 0.02, 0.02, -0.94
245, 0.00, -170359.47, 0.00, 0.00, 0.00, 0.00, 0.00, 0.00, 0.02, 0.02, -0.94
246, 0.00, -169499.28, 0.00, 0.00, 0.00, 0.00, 0.00, 0.00, 0.02, 0.02, -0.94
247, 0.00, -170667.28, 0.00, 0.00, 0.00, 0.00, 0.00, 0.00, 0.02, 0.02, -0.94
248, 0.00, -171625.34, 0.00, 0.00, 0.00, 0.00, 0.00, 0.00, 0.02, 0.02, -0.94
249, 0.00, -170611.11, 0.00, 0.00, 0.00, 0.00, 0.00, 0.00, 0.02, 0.02, -0.94
250, 0.00, -169455.31, 0.00, 0.00, 0.00, 0.00, 0.00, 0.00, 0.01, 0.02, -0.94
251, 0.00, -170350.84, 0.00, 0.00, 0.00, 0.00, 0.00, 0.00, 0.01, 0.02, -0.94
252, 0.00, -171570.42, 0.00, 0.00, 0.00, 0.00, 0.00, 0.00, 0.01, 0.02, -0.94
253, 0.00, -170867.25, 0.00, 0.00, 0.00, 0.00, 0.00, 0.00, 0.01, 0.02, -0.94
254, 0.00, -169504.67, 0.00, 0.00, 0.00, 0.00, 0.00, 0.00, 0.01, 0.02, -0.94
255, 0.00, -170044.36, 0.00, 0.00, 0.00, 0.00, 0.00, 0.00, 0.02, 0.02, -0.95
0, 0.00, -171430.81, 0.00, 0.00, 0.00, 0.00, 0.00, 0.00, 0.02, 0.02, -0.95
1, 0.00, -171083.06, 0.00, 0.00, 0.00, 0.00, 0.00, 0.00, 0.02, 0.02, -0.95
2, 0.00, -169620.39, 0.00, 0.00, 0.00, 0.00, 0.00, 0.00, 0.02, 0.02, -0.95
3, 0.00, -169789.66, 0.00, 0.00, 0.00, 0.00, 0.00, 0.00, 0.02, 0.02, -0.95
4, 0.00, -171260.64, 0.00, 0.00, 0.00, 0.00, 0.00, 0.00, 0.01, 0.02, -0.94
5, 0.00, -171294.13, 0.00, 0.00, 0.00, 0.00, 0.00, 0.00, 0.01, 0.02, -0.94
6, 0.00, -169823.23, 0.00, 0.00, 0.00, 0.00, 0.00, 0.00, 0.01, 0.02, -0.94
7, 0.00, -169598.28, 0.00, 0.00, 0.00, 0.00, 0.00, 0.00, 0.01, 0.02, -0.94
8, 0.00, -171040.61, 0.00, 0.00, 0.00, 0.00, 0.00, 0.00, 0.01, 0.02, -0.94
9, 0.00, -171445.89, 0.00, 0.00, 0.00, 0.00, 0.00, 0.00, 0.01, 0.02, -0.94
10, 0.00, -170072.27, 0.00, 0.00, 0.00, 0.00, 0.00, 0.00, 0.01, 0.02, -0.94
11, 0.00, -169467.86, 0.00, 0.00, 0.00, 0.00, 0.00, 0.00, 0.01, 0.02, -0.94
12, 0.00, -170794.19, 0.00, 0.00, 0.00, 0.00, 0.00, 0.00, 0.01, 0.02, -0.94
13, 0.00, -171546.81, 0.00, 0.00, 0.00, 0.00, 0.00, 0.00, 0.01, 0.02, -0.94
14, 0.00, -170355.53, 0.00, 0.00, 0.00, 0.00, 0.00, 0.00, 0.02, 0.01, -0.93
15, 0.00, -169407.39, 0.00, 0.00, 0.00, 0.00, 0.00, 0.00, 0.02, 0.01, -0.93
16, 0.00, -170497.63, 0.00, 0.00, 0.00, 0.00, 0.00, 0.00, 0.02, 0.01, -0.93
17, 0.00, -171553.64, 0.00, 0.00, 0.00, 0.00, 0.00, 0.00, 0.02, 0.01, -0.93
18, 0.00, -170630.03, 0.00, 0.00, 0.00, 0.00, 0.00, 0.00, 0.02, 0.01, -0.93
19, 0.00, -169419.17, 0.00, 0.00, 0.00, 0.00, 0.00, 0.00, 0.01, 0.02, -0.94
20, 0.00, -170230.98, 0.00, 0.00, 0.00, 0.00, 0.00, 0.00, 0.01, 0.02, -0.94
21, 0.00, -171508.97, 0.00, 0.00, 0.00, 0.00, 0.00, 0.00, 0.01, 0.02, -0.94
22, 0.00, -170910.02, 0.00, 0.00, 0.00, 0.00, 0.00, 0.00, 0.01, 0.02, -0.94
23, 0.00, -169515.33, 0.00, 0.00, 0.00, 0.00, 0.00, 0.00, 0.01, 0.02, -0.94
24, 0.00, -169961.94, 0.00, 0.00, 0.00, 0.00, 0.00, 0.00, 0.02, 0.01, -0.94
25, 0.00, -171379.06, 0.00, 0.00, 0.00, 0.00, 0.00, 0.00, 0.02, 0.01, -0.94
26, 0.00, -171138.92, 0.00, 0.00, 0.00, 0.00, 0.00, 0.00, 0.02, 0.01, -0.94
27, 0.00, -169661.95, 0.00, 0.00, 0.00, 0.00, 0.00, 0.00, 0.02, 0.01, -0.94
28, 0.00, -169721.30, 0.00, 0.00, 0.00, 0.00, 0.00, 0.00, 0.02, 0.01, -0.94
29, 0.00, -171191.02, 0.00, 0.00, 0.00, 0.00, 0.00, 0.00, 0.02, 0.01, -0.93
30, 0.00, -171324.47, 0.00, 0.00, 0.00, 0.00, 0.00, 0.00, 0.02, 0.01, -0.93
31, 0.00, -169868.98, 0.00, 0.00, 0.00, 0.00, 0.00, 0.00, 0.02, 0.01, -0.93
32, 0.00, -169519.11, 0.00, 0.00, 0.00, 0.00, 0.00, 0.00, 0.02, 0.01, -0.93
33, 0.00, -170932.59, 0.00, 0.00, 0.00, 0.00, 0.00, 0.00, 0.02, 0.01, -0.93
34, 0.00, -171446.38, 0.00, 0.00, 0.00, 0.00, 0.00, 0.00, 0.01, 0.01, -0.94
35, 0.00, -170114.47, 0.00, 0.00, 0.00, 0.00, 0.00, 0.00, 0.01, 0.01, -0.94
36, 0.00, -169412.25, 0.00, 0.00, 0.00, 0.00, 0.00, 0.00, 0.01, 0.01, -0.94
37, 0.00, -170678.56, 0.00, 0.00, 0.00, 0.00, 0.00, 0.00, 0.01, 0.01, -0.94
38, 0.00, -171514.14, 0.00, 0.00, 0.00, 0.00, 0.00, 0.00, 0.01, 0.01, -0.94
39, 0.00, -170386.94, 0.00, 0.00, 0.00, 0.00, 0.00, 0.00, 0.02, 0.02, -0.94
40, 0.00, -169352.86, 0.00, 0.00, 0.00, 0.00, 0.00, 0.00, 0.02, 0.02, -0.94
41, 0.00, -170380.84, 0.00, 0.00, 0.00, 0.00, 0.00, 0.00, 0.02, 0.02, -0.94
42, 0.00, -171495.23, 0.00, 0.00, 0.00, 0.00, 0.00, 0.00, 0.02, 0.02, -0.94
43, 0.00, -170652.41, 0.00, 0.00, 0.00, 0.00, 0.00, 0.00, 0.02, 0.02, -0.94
44, 0.00, -169382.00, 0.00, 0.00, 0.00, 0.00, 0.00, 0.00, 0.01, 0.01, -0.94
45, 0.00, -170087.25, 0.00, 0.00, 0.00, 0.00, 0.00, 0.00, 0.01, 0.01, -0.94
46, 0.00, -171416.22, 0.00, 0.00, 0.00, 0.00, 0.00, 0.00, 0.01, 0.01, -0.94
47, 0.00, -170907.89, 0.00, 0.00, 0.00, 0.00, 0.00, 0.00, 0.01, 0.01, -0.94
48, 0.00, -169480.84, 0.00, 0.00, 0.00, 0.00, 0.00, 0.00, 0.01, 0.01, -0.94
49, 0.00, -169824.88, 0.00, 0.00, 0.00, 0.00, 0.00, 0.00, 0.01, 0.02, -0.94
50, 0.00, -171268.38, 0.00, 0.00, 0.00, 0.00, 0.00, 0.00, 0.01, 0.02, -0.94
51, 0.00, -171131.77, 0.00, 0.00, 0.00, 0.00, 0.00, 0.00, 0.01, 0.02, -0.94
52, 0.00, -169651.20, 0.00, 0.00, 0.00, 0.00, 0.00, 0.00, 0.01, 0.02, -0.94
53, 0.00, -169605.09, 0.00, 0.00, 0.00, 0.00, 0.00, 0.00, 0.01, 0.02, -0.94
54, 0.00, -171070.77, 0.00, 0.00, 0.00, 0.00, 0.00, 0.00, 0.01, 0.02, -0.94
55, 0.00, -171303.98, 0.00, 0.00, 0.00, 0.00, 0.00, 0.00, 0.01, 0.02, -0.94
56, 0.00, -169864.22, 0.00, 0.00, 0.00, 0.00, 0.00, 0.00, 0.01, 0.02, -0.94
57, 0.00, -169420.83, 0.00, 0.00, 0.00, 0.00, 0.00, 0.00, 0.01, 0.02, -0.94
58, 0.00, -170806.91, 0.00, 0.00, 0.00, 0.00, 0.00, 0.00, 0.01, 0.02, -0.94
59, 0.00, -171404.77, 0.00, 0.00, 0.00, 0.00, 0.00, 0.00, 0.01, 0.02, -0.94
60, 0.00, -170126.25, 0.00, 0.00, 0.00, 0.00, 0.00, 0.00, 0.01, 0.02, -0.94
61, 0.00, -169329.66, 0.00, 0.00, 0.00, 0.00, 0.00, 0.00, 0.01, 0.02, -0.94
62, 0.00, -170540.58, 0.00, 0.00, 0.00, 0.00, 0.00, 0.00, 0.01, 0.02, -0.94
63, 0.00, -171461.92, 0.00, 0.00, 0.00, 0.00, 0.00, 0.00, 0.01, 0.02, -0.94
64, 0.00, -170406.98, 0.00, 0.00, 0.00, 0.00, 0.00, 0.00, 0.02, 0.02, -0.94
65, 0.00, -169306.34, 0.00, 0.00, 0.00, 0.00, 0.00, 0.00, 0.02, 0.02, -0.94
66, 0.00, -170259.11, 0.00, 0.00, 0.00, 0.00, 0.00, 0.00, 0.02, 0.02, -0.94
67, 0.00, -171444.89, 0.00, 0.00, 0.00, 0.00, 0.00, 0.00, 0.02, 0.02, -0.94
68, 0.00, -170700.33, 0.00, 0.00, 0.00, 0.00, 0.00, 0.00, 0.02, 0.02, -0.94
69, 0.00, -169382.92, 0.00, 0.00, 0.00, 0.00, 0.00, 0.00, 0.02, 0.02, -0.94
70, 0.00, -170007.00, 0.00, 0.00, 0.00, 0.00, 0.00, 0.00, 0.02, 0.02, -0.94
71, 0.00, -171372.45, 0.00, 0.00, 0.00, 0.00, 0.00, 0.00, 0.02, 0.02, -0.94
72, 0.00, -170962.39, 0.00, 0.00, 0.00, 0.00, 0.00, 0.00, 0.02, 0.02, -0.94
73, 0.00, -169516.00, 0.00, 0.00, 0.00, 0.00, 0.00, 0.00, 0.02, 0.02, -0.94
74, 0.00, -169763.73, 0.00, 0.00, 0.00, 0.00, 0.00, 0.00, 0.01, 0.02, -0.94
75, 0.00, -171227.30, 0.00, 0.00, 0.00, 0.00, 0.00, 0.00, 0.01, 0.02, -0.94
76, 0.00, -171198.38, 0.00, 0.00, 0.00, 0.00, 0.00, 0.00, 0.01, 0.02, -0.94
77, 0.00, -169725.86, 0.00, 0.00, 0.00, 0.00, 0.00, 0.00, 0.01, 0.02, -0.94
78, 0.00, -169571.75, 0.00, 0.00, 0.00, 0.00, 0.00, 0.00, 0.01, 0.02, -0.94
79, 0.00, -171025.31, 0.00, 0.00, 0.00, 0.00, 0.00, 0.00, 0.01, 0.02, -0.94
80, 0.00, -171358.44, 0.00, 0.00, 0.00, 0.00, 0.00, 0.00, 0.01, 0.02, -0.94
81, 0.00, -169958.23, 0.00, 0.00, 0.00, 0.00, 0.00, 0.00, 0.01, 0.02, -0.94
82, 0.00, -169417.19, 0.00, 0.00, 0.00, 0.00, 0.00, 0.00, 0.01, 0.02, -0.94
83, 0.00, -170766.77, 0.00, 0.00, 0.00, 0.00, 0.00, 0.00, 0.01, 0.02, -0.94
84, 0.00, -171463.38, 0.00, 0.00, 0.00, 0.00, 0.00, 0.00, 0.01, 0.02, -0.94
85, 0.00, -170235.70, 0.00, 0.00, 0.00, 0.00, 0.00, 0.00, 0.01, 0.02, -0.94
86, 0.00, -169349.59, 0.00, 0.00, 0.00, 0.00, 0.00, 0.00, 0.01, 0.02, -0.94
87, 0.00, -170498.30, 0.00, 0.00, 0.00, 0.00, 0.00, 0.00, 0.01, 0.02, -0.94
88, 0.00, -171484.05, 0.00, 0.00, 0.00, 0.00, 0.00, 0.00, 0.01, 0.02, -0.94
89, 0.00, -170501.98, 0.00, 0.00, 0.00, 0.00, 0.00, 0.00, 0.01, 0.02, -0.94
90, 0.00, -169330.64, 0.00, 0.00, 0.00, 0.00, 0.00, 0.00, 0.01, 0.02, -0.94
91, 0.00, -170194.09, 0.00, 0.00, 0.00, 0.00, 0.00, 0.00, 0.01, 0.02, -0.94
92, 0.00, -171435.77, 0.00, 0.00, 0.00, 0.00, 0.00, 0.00, 0.01, 0.02, -0.94
93, 0.00, -170768.31, 0.00, 0.00, 0.00, 0.00, 0.00, 0.00, 0.01, 0.02, -0.94
94, 0.00, -169401.73, 0.00, 0.00, 0.00, 0.00, 0.00, 0.00, 0.02, 0.02, -0.94
95, 0.00, -169913.22, 0.00, 0.00, 0.00, 0.00, 0.00, 0.00, 0.02, 0.02, -0.94
96, 0.00, -171309.11, 0.00, 0.00, 0.00, 0.00, 0.00, 0.00, 0.02, 0.02, -0.94
97, 0.00, -170998.53, 0.00, 0.00, 0.00, 0.00, 0.00, 0.00, 0.02, 0.02, -0.94
98, 0.00, -169532.28, 0.00, 0.00, 0.00, 0.00, 0.00, 0.00, 0.02, 0.02, -0.94
99, 0.00, -169670.20, 0.00, 0.00, 0.00, 0.00, 0.00, 0.00, 0.02, 0.02, -0.94
100, 0.00, -171138.55, 0.00, 0.00, 0.00, 0.00, 0.00, 0.00, 0.02, 0.02, -0.94
101, 0.00, -171203.45, 0.00, 0.00, 0.00, 0.00, 0.00, 0.00, 0.02, 0.02, -0.94
102, 0.00, -169735.36, 0.00, 0.00, 0.00, 0.00, 0.00, 0.00, 0.02, 0.02, -0.94
103, 0.00, -169471.97, 0.00, 0.00, 0.00, 0.00, 0.00, 0.00, 0.02, 0.02, -0.94
104, 0.00, -170901.25, 0.00, 0.00, 0.00, 0.00, 0.00, 0.00, 0.01, 0.02, -0.94
105, 0.00, -171327.92, 0.00, 0.00, 0.00, 0.00, 0.00, 0.00, 0.01, 0.02, -0.94
106, 0.00, -169960.25, 0.00, 0.00, 0.00, 0.00, 0.00, 0.00, 0.01, 0.02, -0.94
107, 0.00, -169314.13, 0.00, 0.00, 0.00, 0.00, 0.00, 0.00, 0.01, 0.02, -0.94
108, 0.00, -170615.42, 0.00, 0.00, 0.00, 0.00, 0.00, 0.00, 0.01, 0.02, -0.94
109, 0.00, -171392.25, 0.00, 0.00, 0.00, 0.00, 0.00, 0.00, 0.01, 0.02, -0.94
110, 0.00, -170217.94, 0.00, 0.00, 0.00, 0.00, 0.00, 0.00, 0.01, 0.02, -0.94
111, 0.00, -169246.33, 0.00, 0.00, 0.00, 0.00, 0.00, 0.00, 0.01, 0.02, -0.94
112, 0.00, -170313.72, 0.00, 0.00, 0.00, 0.00, 0.00, 0.00, 0.01, 0.02, -0.94
113, 0.00, -171381.69, 0.00, 0.00, 0.00, 0.00, 0.00, 0.00, 0.01, 0.02, -0.94
114, 0.00, -170478.89, 0.00, 0.00, 0.00, 0.00, 0.00, 0.00, 0.02, 0.01, -0.94
115, 0.00, -169248.08, 0.00, 0.00, 0.00, 0.00, 0.00, 0.00, 0.02, 0.01, -0.94
116, 0.00, -170034.05, 0.00, 0.00, 0.00, 0.00, 0.00, 0.00, 0.02, 0.01, -0.94
117, 0.00, -171321.84, 0.00, 0.00, 0.00, 0.00, 0.00, 0.00, 0.02, 0.01, -0.94
118, 0.00, -170744.17, 0.00, 0.00, 0.00, 0.00, 0.00, 0.00, 0.02, 0.01, -0.94
119, 0.00, -169338.02, 0.00, 0.00, 0.00, 0.00, 0.00, 0.00, 0.02, 0.01, -0.93
120, 0.00, -169755.61, 0.00, 0.00, 0.00, 0.00, 0.00, 0.00, 0.02, 0.01, -0.93
121, 0.00, -171180.83, 0.00, 0.00, 0.00, 0.00, 0.00, 0.00, 0.02, 0.01, -0.93
122, 0.00, -170965.56, 0.00, 0.00, 0.00, 0.00, 0.00, 0.00, 0.02, 0.01, -0.93
123, 0.00, -169491.66, 0.00, 0.00, 0.00, 0.00, 0.00, 0.00, 0.02, 0.01, -0.93
124, 0.00, -169519.05, 0.00, 0.00, 0.00, 0.00, 0.00, 0.00, 0.02, 0.02, -0.94
125, 0.00, -170992.45, 0.00, 0.00, 0.00, 0.00, 0.00, 0.00, 0.02, 0.02, -0.94
126, 0.00, -171164.58, 0.00, 0.00, 0.00, 0.00, 0.00, 0.00, 0.02, 0.02, -0.94
127, 0.00, -169718.63, 0.00, 0.00, 0.00, 0.00, 0.00, 0.00, 0.02, 0.02, -0.94
128, 0.00, -169353.66, 0.00, 0.00, 0.00, 0.00, 0.00, 0.00, 0.02, 0.02, -0.94
129, 0.00, -170764.61, 0.00, 0.00, 0.00, 0.00, 0.00, 0.00, 0.02, 0.02, -0.94
130, 0.00, -171296.25, 0.00, 0.00, 0.00, 0.00, 0.00, 0.00, 0.02, 0.02, -0.94
131, 0.00, -169978.89, 0.00, 0.00, 0.00, 0.00, 0.00, 0.00, 0.02, 0.02, -0.94
132, 0.00, -169254.75, 0.00, 0.00, 0.00, 0.00, 0.00, 0.00, 0.02, 0.02, -0.94
133, 0.00, -170510.97, 0.00, 0.00, 0.00, 0.00, 0.00, 0.00, 0.02, 0.02, -0.94
134, 0.00, -171367.95, 0.00, 0.00, 0.00, 0.00, 0.00, 0.00, 0.01, 0.02, -0.94
135, 0.00, -170262.42, 0.00, 0.00, 0.00, 0.00, 0.00, 0.00, 0.01, 0.02, -0.94
136, 0.00, -169210.09, 0.00, 0.00, 0.00, 0.00, 0.00, 0.00, 0.01, 0.02, -0.94
137, 0.00, -170212.19, 0.00, 0.00, 0.00, 0.00, 0.00, 0.00, 0.01, 0.02, -0.94
138, 0.00, -171347.22, 0.00, 0.00, 0.00, 0.00, 0.00, 0.00, 0.01, 0.02, -0.94
139, 0.00, -170528.63, 0.00, 0.00, 0.00, 0.00, 0.00, 0.00, 0.02, 0.02, -0.94
140, 0.00, -169251.14, 0.00, 0.00, 0.00, 0.00, 0.00, 0.00, 0.02, 0.02, -0.94
141, 0.00, -169935.17, 0.00, 0.00, 0.00, 0.00, 0.00, 0.00, 0.02, 0.02, -0.94
142, 0.00, -171275.84, 0.00, 0.00, 0.00, 0.00, 0.00, 0.00, 0.02, 0.02, -0.94
143, 0.00, -170796.45, 0.00, 0.00, 0.00, 0.00, 0.00, 0.00, 0.02, 0.02, -0.94
144, 0.00, -169361.33, 0.00, 0.00, 0.00, 0.00, 0.00, 0.00, 0.01, 0.02, -0.94
145, 0.00, -169682.25, 0.00, 0.00, 0.00, 0.00, 0.00, 0.00, 0.01, 0.02, -0.94
146, 0.00, -171130.00, 0.00, 0.00, 0.00, 0.00, 0.00, 0.00, 0.01, 0.02, -0.94
147, 0.00, -171021.33, 0.00, 0.00, 0.00, 0.00, 0.00, 0.00, 0.01, 0.02, -0.94
148, 0.00, -169550.25, 0.00, 0.00, 0.00, 0.00, 0.00, 0.00, 0.01, 0.02, -0.94
149, 0.00, -169476.55, 0.00, 0.00, 0.00, 0.00, 0.00, 0.00, 0.01, 0.01, -0.94
150, 0.00, -170940.23, 0.00, 0.00, 0.00, 0.00, 0.00, 0.00, 0.01, 0.01, -0.94
151, 0.00, -171202.00, 0.00, 0.00, 0.00, 0.00, 0.00, 0.00, 0.01, 0.01, -0.94
152, 0.00, -169777.86, 0.00, 0.00, 0.00, 0.00, 0.00, 0.00, 0.01, 0.01, -0.94
153, 0.00, -169309.81, 0.00, 0.00, 0.00, 0.00, 0.00, 0.00, 0.01, 0.01, -0.94
154, 0.00, -170687.33, 0.00, 0.00, 0.00, 0.00, 0.00, 0.00, 0.01, 0.02, -0.94
155, 0.00, -171313.23, 0.00, 0.00, 0.00, 0.00, 0.00, 0.00, 0.01, 0.02, -0.94
156, 0.00, -170049.42, 0.00, 0.00, 0.00, 0.00, 0.00, 0.00, 0.01, 0.02, -0.94
157, 0.00, -169227.95, 0.00, 0.00, 0.00, 0.00, 0.00, 0.00, 0.01, 0.02, -0.94
158, 0.00, -170419.13, 0.00, 0.00, 0.00, 0.00, 0.00, 0.00, 0.01, 0.02, -0.94
159, 0.00, -171368.19, 0.00, 0.00, 0.00, 0.00, 0.00, 0.00, 0.01, 0.02, -0.95
160, 0.00, -170330.97, 0.00, 0.00, 0.00, 0.00, 0.00, 0.00, 0.01, 0.02, -0.95
161, 0.00, -169212.00, 0.00, 0.00, 0.00, 0.00, 0.00, 0.00, 0.01, 0.02, -0.95
162, 0.00, -170139.19, 0.00, 0.00, 0.00, 0.00, 0.00, 0.00, 0.01, 0.02, -0.95
163, 0.00, -171335.19, 0.00, 0.00, 0.00, 0.00, 0.00, 0.00, 0.01, 0.02, -0.95
164, 0.00, -170609.47, 0.00, 0.00, 0.00, 0.00, 0.00, 0.00, 0.01, 0.02, -0.95
165, 0.00, -169274.25, 0.00, 0.00, 0.00, 0.00, 0.00, 0.00, 0.01, 0.03, -0.94
166, 0.00, -169868.25, 0.00, 0.00, 0.00, 0.00, 0.00, 0.00, 0.01, 0.03, -0.94
167, 0.00, -171239.70, 0.00, 0.00, 0.00, 0.00, 0.00, 0.00, 0.01, 0.03, -0.94
168, 0.00, -170850.69, 0.00, 0.00, 0.00, 0.00, 0.00, 0.00, 0.01, 0.03, -0.94
169, 0.00, -169394.44, 0.00, 0.00, 0.00, 0.00, 0.00, 0.00, 0.01, 0.03, -0.94
170, 0.00, -169604.78, 0.00, 0.00, 0.00, 0.00, 0.00, 0.00, 0.02, 0.02, -0.94
171, 0.00, -171065.97, 0.00, 0.00, 0.00, 0.00, 0.00, 0.00, 0.02, 0.02, -0.94
172, 0.00, -171063.75, 0.00, 0.00, 0.00, 0.00, 0.00, 0.00, 0.02, 0.02, -0.94
173, 0.00, -169593.59, 0.00, 0.00, 0.00, 0.00, 0.00, 0.00, 0.02, 0.02, -0.94
174, 0.00, -169411.27, 0.00, 0.00, 0.00, 0.00, 0.00, 0.00, 0.02, 0.02, -0.94
175, 0.00, -170860.69, 0.00, 0.00, 0.00, 0.00, 0.00, 0.00, 0.02, 0.02, -0.94
176, 0.00, -171224.55, 0.00, 0.00, 0.00, 0.00, 0.00, 0.00, 0.02, 0.02, -0.94
177, 0.00, -169835.88, 0.00, 0.00, 0.00, 0.00, 0.00, 0.00, 0.02, 0.02, -0.94
178, 0.00, -169269.55, 0.00, 0.00, 0.00, 0.00, 0.00, 0.00, 0.02, 0.02, -0.94
179, 0.00, -170610.45, 0.00, 0.00, 0.00, 0.00, 0.00, 0.00, 0.02, 0.02, -0.94
180, 0.00, -171333.94, 0.00, 0.00, 0.00, 0.00, 0.00, 0.00, 0.01, 0.02, -0.95
181, 0.00, -170126.52, 0.00, 0.00, 0.00, 0.00, 0.00, 0.00, 0.01, 0.02, -0.95
182, 0.00, -169217.14, 0.00, 0.00, 0.00, 0.00, 0.00, 0.00, 0.01, 0.02, -0.95
183, 0.00, -170349.14, 0.00, 0.00, 0.00, 0.00, 0.00, 0.00, 0.01, 0.02, -0.95
184, 0.00, -171359.89, 0.00, 0.00, 0.00, 0.00, 0.00, 0.00, 0.01, 0.02, -0.95
185, 0.00, -170403.59, 0.00, 0.00, 0.00, 0.00, 0.00, 0.00, 0.01, 0.02, -0.94
186, 0.00, -169217.61, 0.00, 0.00, 0.00, 0.00, 0.00, 0.00, 0.01, 0.02, -0.94
187, 0.00, -170059.11, 0.00, 0.00, 0.00, 0.00, 0.00, 0.00, 0.01, 0.02, -0.94
188, 0.00, -171316.95, 0.00, 0.00, 0.00, 0.00, 0.00, 0.00, 0.01, 0.02, -0.94
189, 0.00, -170678.36, 0.00, 0.00, 0.00, 0.00, 0.00, 0.00, 0.01, 0.02, -0.94
190, 0.00, -169302.70, 0.00, 0.00, 0.00, 0.00, 0.00, 0.00, 0.02, 0.02, -0.94
191, 0.00, -169789.33, 0.00, 0.00, 0.00, 0.00, 0.00, 0.00, 0.02, 0.02, -0.94
192, 0.00, -171190.91, 0.00, 0.00, 0.00, 0.00, 0.00, 0.00, 0.02, 0.02, -0.94
193, 0.00, -170910.02, 0.00, 0.00, 0.00, 0.00, 0.00, 0.00, 0.02, 0.02, -0.94
194, 0.00, -169440.83, 0.00, 0.00, 0.00, 0.00, 0.00, 0.00, 0.02, 0.02, -0.94
195, 0.00, -169544.45, 0.00, 0.00, 0.00, 0.00, 0.00, 0.00, 0.02, 0.02, -0.94
196, 0.00, -171016.08, 0.00, 0.00, 0.00, 0.00, 0.00, 0.00, 0.02, 0.02, -0.94
197, 0.00, -171111.84, 0.00, 0.00, 0.00, 0.00, 0.00, 0.00, 0.02, 0.02, -0.94
198, 0.00, -169651.55, 0.00, 0.00, 0.00, 0.00, 0.00, 0.00, 0.02, 0.02, -0.94
199, 0.00, -169356.81, 0.00, 0.00, 0.00, 0.00, 0.00, 0.00, 0.02, 0.02, -0.94
200, 0.00, -170777.14, 0.00, 0.00, 0.00, 0.00, 0.00, 0.00, 0.02, 0.01, -0.94
201, 0.00, -171239.92, 0.00, 0.00, 0.00, 0.00, 0.00, 0.00, 0.02, 0.01, -0.94
202, 0.00, -169890.48, 0.00, 0.00, 0.00, 0.00, 0.00, 0.00, 0.02, 0.01, -0.94
203, 0.00, -169223.58, 0.00, 0.00, 0.00, 0.00, 0.00, 0.00, 0.02, 0.01, -0.94
204, 0.00, -170517.00, 0.00, 0.00, 0.00, 0.00, 0.00, 0.00, 0.02, 0.01, -0.94
205, 0.00, -171318.05, 0.00, 0.00, 0.00, 0.00, 0.00, 0.00, 0.02, 0.01, -0.94
206, 0.00, -170170.84, 0.00, 0.00, 0.00, 0.00, 0.00, 0.00, 0.02, 0.01, -0.94
207, 0.00, -169171.75, 0.00, 0.00, 0.00, 0.00, 0.00, 0.00, 0.02, 0.01, -0.94
208, 0.00, -170220.20, 0.00, 0.00, 0.00, 0.00, 0.00, 0.00, 0.02, 0.01, -0.94
209, 0.00, -171307.03, 0.00, 0.00, 0.00, 0.00, 0.00, 0.00, 0.02, 0.01, -0.94
210, 0.00, -170430.75, 0.00, 0.00, 0.00, 0.00, 0.00, 0.00, 0.02, 0.02, -0.94
211, 0.00, -169178.05, 0.00, 0.00, 0.00, 0.00, 0.00, 0.00, 0.02, 0.02, -0.94
212, 0.00, -169930.56, 0.00, 0.00, 0.00, 0.00, 0.00, 0.00, 0.02, 0.02, -0.94
213, 0.00, -171241.56, 0.00, 0.00, 0.00, 0.00, 0.00, 0.00, 0.02, 0.02, -0.94
214, 0.00, -170700.47, 0.00, 0.00, 0.00, 0.00, 0.00, 0.00, 0.02, 0.02, -0.94
215, 0.00, -169284.91, 0.00, 0.00, 0.00, 0.00, 0.00, 0.00, 0.02, 0.01, -0.94
216, 0.00, -169665.84, 0.00, 0.00, 0.00, 0.00, 0.00, 0.00, 0.02, 0.01, -0.94
217, 0.00, -171095.27, 0.00, 0.00, 0.00, 0.00, 0.00, 0.00, 0.02, 0.01, -0.94
218, 0.00, -170916.20, 0.00, 0.00, 0.00, 0.00, 0.00, 0.00, 0.02, 0.01, -0.94
219, 0.00, -169435.78, 0.00, 0.00, 0.00, 0.00, 0.00, 0.00, 0.02, 0.01, -0.94
220, 0.00, -169430.59, 0.00, 0.00, 0.00, 0.00, 0.00, 0.00, 0.02, 0.02, -0.94
221, 0.00, -170895.55, 0.00, 0.00, 0.00, 0.00, 0.00, 0.00, 0.02, 0.02, -0.94
222, 0.00, -171092.52, 0.00, 0.00, 0.00, 0.00, 0.00, 0.00, 0.02, 0.02, -0.94
223, 0.00, -169652.75, 0.00, 0.00, 0.00, 0.00, 0.00, 0.00, 0.02, 0.02, -0.94
224, 0.00, -169243.02, 0.00, 0.00, 0.00, 0.00, 0.00, 0.00, 0.02, 0.02, -0.94
225, 0.00, -170635.69, 0.00, 0.00, 0.00, 0.00, 0.00, 0.00, 0.02, 0.02, -0.94
226, 0.00, -171201.70, 0.00, 0.00, 0.00, 0.00, 0.00, 0.00, 0.02, 0.02, -0.94
227, 0.00, -169897.59, 0.00, 0.00, 0.00, 0.00, 0.00, 0.00, 0.02, 0.02, -0.94
228, 0.00, -169136.41, 0.00, 0.00, 0.00, 0.00, 0.00, 0.00, 0.02, 0.02, -0.94
229, 0.00, -170369.08, 0.00, 0.00, 0.00, 0.00, 0.00, 0.00, 0.02, 0.02, -0.94
230, 0.00, -171256.98, 0.00, 0.00, 0.00, 0.00, 0.00, 0.00, 0.02, 0.02, -0.95
231, 0.00, -170175.69, 0.00, 0.00, 0.00, 0.00, 0.00, 0.00, 0.02, 0.02, -0.95
232, 0.00, -169095.50, 0.00, 0.00, 0.00, 0.00, 0.00, 0.00, 0.02, 0.02, -0.95
233, 0.00, -170073.34, 0.00, 0.00, 0.00, 0.00, 0.00, 0.00, 0.02, 0.02, -0.95
234, 0.00, -171228.42, 0.00, 0.00, 0.00, 0.00, 0.00, 0.00, 0.02, 0.02, -0.95
235, 0.00, -170440.81, 0.00, 0.00, 0.00, 0.00, 0.00, 0.00, 0.01, 0.01, -0.95
236, 0.00, -169140.03, 0.00, 0.00, 0.00, 0.00, 0.00, 0.00, 0.01, 0.01, -0.95
237, 0.00, -169791.58, 0.00, 0.00, 0.00, 0.00, 0.00, 0.00, 0.01, 0.01, -0.95
238, 0.00, -171143.80, 0.00, 0.00, 0.00, 0.00, 0.00, 0.00, 0.01, 0.01, -0.95
239, 0.00, -170700.00, 0.00, 0.00, 0.00, 0.00, 0.00, 0.00, 0.01, 0.01, -0.95
240, 0.00, -169254.27, 0.00, 0.00, 0.00, 0.00, 0.00, 0.00, 0.01, 0.01, -0.94
241, 0.00, -169530.53, 0.00, 0.00, 0.00, 0.00, 0.00, 0.00, 0.01, 0.01, -0.94
242, 0.00, -170983.89, 0.00, 0.00, 0.00, 0.00, 0.00, 0.00, 0.01, 0.01, -0.94
243, 0.00, -170915.56, 0.00, 0.00, 0.00, 0.00, 0.00, 0.00, 0.01, 0.01, -0.94
244, 0.00, -169440.91, 0.00, 0.00, 0.00, 0.00, 0.00, 0.00, 0.01, 0.01, -0.94
245, 0.00, -169324.47, 0.00, 0.00, 0.00, 0.00, 0.00, 0.00, 0.02, 0.02, -0.94
246, 0.00, -170786.36, 0.00, 0.00, 0.00, 0.00, 0.00, 0.00, 0.02, 0.02, -0.94
247, 0.00, -171088.50, 0.00, 0.00, 0.00, 0.00, 0.00, 0.00, 0.02, 0.02, -0.94
248, 0.00, -169670.91, 0.00, 0.00, 0.00, 0.00, 0.00, 0.00, 0.02, 0.02, -0.94
249, 0.00, -169160.50, 0.00, 0.00, 0.00, 0.00, 0.00, 0.00, 0.02, 0.02, -0.94
250, 0.00, -170521.55, 0.00, 0.00, 0.00, 0.00, 0.00, 0.00, 0.02, 0.01, -0.93
251, 0.00, -171178.14, 0.00, 0.00, 0.00, 0.00, 0.00, 0.00, 0.02, 0.01, -0.93
252, 0.00, -169932.86, 0.00, 0.00, 0.00, 0.00, 0.00, 0.00, 0.02, 0.01, -0.93
253, 0.00, -169073.11, 0.00, 0.00, 0.00, 0.00, 0.00, 0.00, 0.02, 0.01, -0.93
254, 0.00, -170231.78, 0.00, 0.00, 0.00, 0.00, 0.00, 0.00, 0.02, 0.01, -0.93
255, 0.00, -171209.80, 0.00, 0.00, 0.00, 0.00, 0.00, 0.00, 0.02, 0.01, -0.93
0, 0.00, -170198.33, 0.00, 0.00, 0.00, 0.00, 0.00, 0.00, 0.02, 0.01, -0.93
1, 0.00, -169054.03, 0.00, 0.00, 0.00, 0.00, 0.00, 0.00, 0.02, 0.01, -0.93
2, 0.00, -169943.92, 0.00, 0.00, 0.00, 0.00, 0.00, 0.00, 0.02, 0.01, -0.93
3, 0.00, -171166.39, 0.00, 0.00, 0.00, 0.00, 0.00, 0.00, 0.02, 0.01, -0.93
4, 0.00, -170475.41, 0.00, 0.00, 0.00, 0.00, 0.00, 0.00, 0.02, 0.01, -0.93
5, 0.00, -169123.00, 0.00, 0.00, 0.00, 0.00, 0.00, 0.00, 0.02, 0.01, -0.93
6, 0.00, -169679.55, 0.00, 0.00, 0.00, 0.00, 0.00, 0.00, 0.02, 0.01, -0.93
7, 0.00, -171065.45, 0.00, 0.00, 0.00, 0.00, 0.00, 0.00, 0.02, 0.01, -0.93
8, 0.00, -170717.59, 0.00, 0.00, 0.00, 0.00, 0.00, 0.00, 0.02, 0.01, -0.93
9, 0.00, -169252.91, 0.00, 0.00, 0.00, 0.00, 0.00, 0.00, 0.02, 0.01, -0.94
10, 0.00, -169423.06, 0.00, 0.00, 0.00, 0.00, 0.00, 0.00, 0.02, 0.01, -0.94
11, 0.00, -170887.89, 0.00, 0.00, 0.00, 0.00, 0.00, 0.00, 0.02, 0.01, -0.94
12, 0.00, -170920.08, 0.00, 0.00, 0.00, 0.00, 0.00, 0.00, 0.02, 0.01, -0.94
13, 0.00, -169452.06, 0.00, 0.00, 0.00, 0.00, 0.00, 0.00, 0.02, 0.01, -0.94
14, 0.00, -169219.73, 0.00, 0.00, 0.00, 0.00, 0.00, 0.00, 0.01, 0.01, -0.93
15, 0.00, -170659.27, 0.00, 0.00, 0.00, 0.00, 0.00, 0.00, 0.01, 0.01, -0.93
16, 0.00, -171061.36, 0.00, 0.00, 0.00, 0.00, 0.00, 0.00, 0.01, 0.01, -0.93
17, 0.00, -169682.50, 0.00, 0.00, 0.00, 0.00, 0.00, 0.00, 0.01, 0.01, -0.93
18, 0.00, -169077.70, 0.00, 0.00, 0.00, 0.00, 0.00, 0.00, 0.01, 0.01, -0.93
19, 0.00, -170396.19, 0.00, 0.00, 0.00, 0.00, 0.00, 0.00, 0.01, 0.02, -0.94
20, 0.00, -171150.39, 0.00, 0.00, 0.00, 0.00, 0.00, 0.00, 0.01, 0.02, -0.94
21, 0.00, -169957.88, 0.00, 0.00, 0.00, 0.00, 0.00, 0.00, 0.01, 0.02, -0.94
22, 0.00, -169015.66, 0.00, 0.00, 0.00, 0.00, 0.00, 0.00, 0.01, 0.02, -0.94
23, 0.00, -170120.44, 0.00, 0.00, 0.00, 0.00, 0.00, 0.00, 0.01, 0.02, -0.94
24, 0.00, -171157.09, 0.00, 0.00, 0.00, 0.00, 0.00, 0.00, 0.01, 0.02, -0.94
25, 0.00, -170227.80, 0.00, 0.00, 0.00, 0.00, 0.00, 0.00, 0.01, 0.02, -0.94
26, 0.00, -169016.02, 0.00, 0.00, 0.00, 0.00, 0.00, 0.00, 0.01, 0.02, -0.94
27, 0.00, -169825.70, 0.00, 0.00, 0.00, 0.00, 0.00, 0.00, 0.01, 0.02, -0.94
