%OpenBCI Raw EEG Data
%
%Sample Rate = 250.0 Hz
%First Column = SampleIndex
%Other Columns = EEG data in microvolts followed by Accel Data (in G) interleaved with Aux Data
0, -176686.22, -111430.48, -175833.86, -187500.02, 169162.20, 169165.33, -187500.02, 169108.23, 0.13, 0.12, -1.17
1, -176998.45, -133176.14, -176175.11, -187500.02, 169138.75, 169141.81, -187500.02, 169084.66, 0.13, 0.12, -1.17
2, -177179.13, -145618.69, -176335.19, -187500.02, 169122.56, 169125.72, -187500.02, 169068.28, 0.04, 0.04, -0.94
3, -176868.72, -124608.27, -176009.30, -187500.02, 169149.38, 169152.56, -187500.02, 169095.36, 0.04, 0.04, -0.94
4, -176608.53, -107342.62, -175819.47, -187500.02, 169169.80, 169172.97, -187500.02, 169115.94, 0.04, 0.04, -0.94
5, -176861.84, -125167.98, -176119.77, -187500.02, 169148.52, 169151.63, -187500.02, 169094.47, 0.04, 0.04, -0.94
6, -177117.94, -142853.19, -176354.66, -187500.02, 169128.27, 169131.42, -187500.02, 169074.02, 0.04, 0.04, -0.94
7, -176872.16, -126372.22, -176088.75, -187500.02, 169149.28, 169152.44, -187500.02, 169095.19, 0.04, 0.04, -0.94
8, -176547.34, -104871.50, -175815.42, -187500.02, 169174.72, 169177.75, -187500.02, 169120.73, 0.04, 0.04, -0.94
9, -176724.16, -117570.62, -176059.09, -187500.02, 169159.50, 169162.59, -187500.02, 169105.45, 0.04, 0.04, -0.94
10, -177041.66, -139417.58, -176360.56, -187500.02, 169133.92, 169137.08, -187500.02, 169079.67, 0.04, 0.04, -0.94
11, -176882.22, -128656.79, -176179.02, -187500.02, 169146.91, 169150.03, -187500.02, 169092.73, 0.04, 0.04, -0.94
12, -176527.02, -104527.95, -175836.31, -187500.02, 169175.86, 169178.94, -187500.02, 169121.86, 0.05, 0.05, -0.94
13, -176621.83, -111370.96, -175993.14, -187500.02, 169168.75, 169171.72, -187500.02, 169114.81, 0.05, 0.05, -0.94
14, -176982.63, -136043.02, -176345.05, -187500.02, 169138.44, 169141.59, -187500.02, 169084.19, 0.05, 0.05, -0.94
15, -176922.03, -131893.50, -176262.44, -187500.02, 169142.64, 169145.80, -187500.02, 169088.42, 0.05, 0.05, -0.94
16, -176556.95, -106965.95, -175875.09, -187500.02, 169171.16, 169174.22, -187500.02, 169117.05, 0.05, 0.05, -0.94
17, -176571.83, -107656.50, -175867.94, -187500.02, 169170.67, 169173.70, -187500.02, 169116.52, 0.06, 0.05, -0.95
18, -176955.25, -133621.47, -176229.70, -187500.02, 169139.53, 169142.70, -187500.02, 169085.33, 0.06, 0.05, -0.95
19, -177001.30, -136484.83, -176253.31, -187500.02, 169136.53, 169139.64, -187500.02, 169082.25, 0.06, 0.05, -0.95
20, -176650.38, -112319.91, -175896.22, -187500.02, 169163.56, 169166.63, -187500.02, 169109.41, 0.06, 0.05, -0.95
21, -176566.39, -106591.64, -175875.72, -187500.02, 169167.19, 169170.25, -187500.02, 169113.25, 0.06, 0.05, -0.95
22, -176938.23, -131690.23, -176254.47, -187500.02, 169137.50, 169140.61, -187500.02, 169083.34, 0.05, 0.05, -0.95
23, -177080.64, -141118.56, -176375.47, -187500.02, 169128.06, 169131.16, -187500.02, 169073.78, 0.05, 0.05, -0.95
24, -176760.78, -119016.46, -176033.80, -187500.02, 169154.80, 169157.84, -187500.02, 169100.64, 0.05, 0.05, -0.95
25, -176594.13, -107113.63, -175845.13, -187500.02, 169167.14, 169170.14, -187500.02, 169113.03, 0.05, 0.05, -0.95
26, -176926.33, -129282.58, -176154.89, -187500.02, 169139.48, 169142.55, -187500.02, 169085.11, 0.05, 0.05, -0.95
27, -177152.86, -144339.72, -176359.97, -187500.02, 169119.95, 169122.97, -187500.02, 169065.39, 0.05, 0.04, -0.94
28, -176883.47, -125522.32, -176069.47, -187500.02, 169141.25, 169144.34, -187500.02, 169086.98, 0.05, 0.04, -0.94
29, -176637.00, -108143.41, -175801.47, -187500.02, 169160.41, 169163.52, -187500.02, 169106.28, 0.05, 0.04, -0.94
30, -176903.03, -125741.30, -176045.64, -187500.02, 169139.98, 169143.05, -187500.02, 169085.78, 0.05, 0.04, -0.94
31, -177198.50, -145457.19, -176319.36, -187500.02, 169116.48, 169119.50, -187500.02, 169062.02, 0.05, 0.04, -0.94
32, -176992.42, -131122.81, -176092.78, -187500.02, 169133.70, 169136.83, -187500.02, 169079.42, 0.06, 0.04, -0.94
33, -176677.22, -109447.48, -175806.55, -187500.02, 169159.31, 169162.48, -187500.02, 169105.16, 0.06, 0.04, -0.94
34, -176852.25, -121196.61, -176032.20, -187500.02, 169143.78, 169147.00, -187500.02, 169089.69, 0.06, 0.04, -0.94
35, -177197.45, -144295.06, -176361.61, -187500.02, 169116.05, 169119.22, -187500.02, 169061.66, 0.06, 0.04, -0.94
36, -177075.31, -135455.70, -176217.28, -187500.02, 169126.59, 169129.67, -187500.02, 169072.17, 0.06, 0.04, -0.94
37, -176723.30, -111034.21, -175844.44, -187500.02, 169154.67, 169157.69, -187500.02, 169100.42, 0.06, 0.05, -0.95
38, -176805.83, -116176.25, -175905.98, -187500.02, 169144.05, 169146.95, -187500.02, 169089.75, 0.06, 0.05, -0.95
39, -177177.69, -141143.34, -176256.06, -187500.02, 169113.69, 169116.72, -187500.02, 169059.25, 0.06, 0.05, -0.95
40, -177142.19, -138478.39, -176197.81, -187500.02, 169116.56, 169119.58, -187500.02, 169062.16, 0.06, 0.05, -0.95
41, -176769.56, -113004.34, -175840.39, -187500.02, 169148.09, 169151.16, -187500.02, 169093.75, 0.06, 0.05, -0.95
42, -176740.77, -111273.95, -175901.52, -187500.02, 169150.08, 169153.09, -187500.02, 169095.77, 0.06, 0.05, -0.94
43, -177110.72, -136400.73, -176273.09, -187500.02, 169121.52, 169124.64, -187500.02, 169067.00, 0.06, 0.05, -0.94
44, -177170.78, -140174.73, -176310.64, -187500.02, 169117.73, 169120.92, -187500.02, 169063.31, 0.06, 0.05, -0.94
45, -176812.00, -115494.01, -175931.89, -187500.02, 169145.05, 169148.20, -187500.02, 169090.83, 0.06, 0.05, -0.94
46, -176692.50, -107225.27, -175826.80, -187500.02, 169155.47, 169158.63, -187500.02, 169101.30, 0.06, 0.05, -0.94
47, -177039.16, -130881.77, -176177.88, -187500.02, 169128.97, 169132.11, -187500.02, 169074.58, 0.05, 0.05, -0.94
48, -177186.97, -141000.92, -176304.31, -187500.02, 169117.45, 169120.47, -187500.02, 169062.94, 0.05, 0.05, -0.94
49, -176861.39, -118814.52, -175964.42, -187500.02, 169140.36, 169143.42, -187500.02, 169086.11, 0.05, 0.05, -0.94
50, -176649.88, -104668.37, -175814.41, -187500.02, 169156.98, 169160.14, -187500.02, 169102.81, 0.05, 0.05, -0.94
51, -176948.00, -125163.55, -176142.30, -187500.02, 169132.50, 169135.53, -187500.02, 169078.06, 0.05, 0.05, -0.94
52, -177182.23, -140969.19, -176354.70, -187500.02, 169114.81, 169117.86, -187500.02, 169060.28, 0.04, 0.05, -0.94
53, -176915.08, -122719.32, -176066.30, -187500.02, 169137.00, 169140.14, -187500.02, 169082.67, 0.04, 0.05, -0.94
54, -176636.94, -103734.69, -175794.92, -187500.02, 169158.64, 169161.77, -187500.02, 169104.38, 0.04, 0.05, -0.94
55, -176870.48, -119690.95, -176051.55, -187500.02, 169139.06, 169142.27, -187500.02, 169084.86, 0.04, 0.05, -0.94
56, -177172.58, -140282.52, -176336.17, -187500.02, 169113.98, 169117.05, -187500.02, 169059.41, 0.04, 0.05, -0.94
57, -176983.09, -127252.21, -176125.80, -187500.02, 169130.19, 169133.28, -187500.02, 169075.61, 0.05, 0.05, -0.94
58, -176655.55, -104781.60, -175801.45, -187500.02, 169155.73, 169158.84, -187500.02, 169101.31, 0.05, 0.05, -0.94
59, -176808.17, -115108.22, -175990.67, -187500.02, 169141.81, 169144.83, -187500.02, 169087.30, 0.05, 0.05, -0.94
60, -177166.25, -139200.38, -176335.44, -187500.02, 169113.94, 169116.98, -187500.02, 169059.36, 0.05, 0.05, -0.94
61, -177069.50, -132306.34, -176216.77, -187500.02, 169122.64, 169125.66, -187500.02, 169068.13, 0.05, 0.05, -0.94
62, -176717.63, -107945.55, -175842.91, -187500.02, 169149.38, 169152.44, -187500.02, 169094.97, 0.05, 0.06, -0.94
63, -176783.66, -112004.63, -175887.64, -187500.02, 169143.98, 169147.14, -187500.02, 169089.58, 0.05, 0.06, -0.94
64, -177168.09, -137938.94, -176251.08, -187500.02, 169113.88, 169117.06, -187500.02, 169059.33, 0.05, 0.06, -0.94
65, -177169.58, -137704.11, -176230.67, -187500.02, 169117.27, 169120.36, -187500.02, 169062.69, 0.05, 0.06, -0.94
66, -176813.56, -113149.58, -175863.86, -187500.02, 169147.92, 169150.94, -187500.02, 169093.38, 0.05, 0.06, -0.94
67, -176780.88, -110712.12, -175876.64, -187500.02, 169150.42, 169153.45, -187500.02, 169095.92, 0.05, 0.05, -0.95
68, -177167.00, -136693.58, -176266.91, -187500.02, 169117.73, 169120.83, -187500.02, 169063.14, 0.05, 0.05, -0.95
69, -177268.91, -143190.80, -176345.84, -187500.02, 169108.22, 169111.30, -187500.02, 169053.56, 0.05, 0.05, -0.95
70, -176935.22, -120039.23, -175990.05, -187500.02, 169133.77, 169136.69, -187500.02, 169079.23, 0.05, 0.05, -0.95
71, -176813.38, -111237.79, -175847.19, -187500.02, 169142.47, 169145.44, -187500.02, 169088.02, 0.05, 0.05, -0.95
72, -177171.25, -135296.56, -176183.38, -187500.02, 169115.27, 169118.33, -187500.02, 169060.61, 0.05, 0.04, -0.95
73, -177362.19, -147985.02, -176352.73, -187500.02, 169100.63, 169103.72, -187500.02, 169045.86, 0.05, 0.04, -0.95
74, -177067.98, -127579.33, -176036.28, -187500.02, 169123.03, 169126.06, -187500.02, 169068.44, 0.05, 0.04, -0.95
75, -176860.11, -112858.16, -175806.70, -187500.02, 169140.86, 169143.94, -187500.02, 169086.41, 0.05, 0.04, -0.95
76, -177163.81, -133008.41, -176089.31, -187500.02, 169114.98, 169118.19, -187500.02, 169060.45, 0.05, 0.04, -0.95
77, -177431.16, -150768.69, -176335.00, -187500.02, 169093.05, 169096.27, -187500.02, 169038.33, 0.05, 0.04, -0.94
78, -177193.14, -134198.44, -176075.22, -187500.02, 169110.86, 169113.94, -187500.02, 169056.30, 0.05, 0.04, -0.94
79, -176909.58, -114447.43, -175770.48, -187500.02, 169134.44, 169137.56, -187500.02, 169079.83, 0.05, 0.04, -0.94
80, -177131.27, -129174.84, -175971.41, -187500.02, 169115.70, 169118.91, -187500.02, 169061.08, 0.05, 0.04, -0.94
81, -177453.78, -150703.14, -176272.31, -187500.02, 169088.28, 169091.33, -187500.02, 169033.41, 0.05, 0.04, -0.94
82, -177286.30, -138924.48, -176084.02, -187500.02, 169102.03, 169105.00, -187500.02, 169047.22, 0.05, 0.04, -0.95
83, -176944.67, -115476.53, -175771.81, -187500.02, 169127.84, 169131.00, -187500.02, 169073.31, 0.05, 0.04, -0.95
84, -177068.25, -123767.55, -175968.23, -187500.02, 169116.05, 169119.16, -187500.02, 169061.48, 0.05, 0.04, -0.95
85, -177427.41, -147880.70, -176317.58, -187500.02, 169087.52, 169090.67, -187500.02, 169032.92, 0.05, 0.04, -0.95
86, -177345.53, -141967.81, -176213.80, -187500.02, 169096.08, 169099.17, -187500.02, 169041.39, 0.05, 0.04, -0.95
87, -176979.31, -116616.22, -175824.98, -187500.02, 169126.97, 169130.06, -187500.02, 169072.17, 0.05, 0.04, -0.95
88, -177006.88, -118094.34, -175830.97, -187500.02, 169125.97, 169129.08, -187500.02, 169071.19, 0.05, 0.04, -0.95
89, -177378.55, -143126.33, -176181.31, -187500.02, 169094.67, 169097.72, -187500.02, 169039.94, 0.05, 0.04, -0.95
90, -177388.17, -143492.52, -176169.72, -187500.02, 169091.59, 169094.70, -187500.02, 169036.92, 0.05, 0.04, -0.95
91, -177015.13, -117990.79, -175817.52, -187500.02, 169121.63, 169124.67, -187500.02, 169067.00, 0.05, 0.04, -0.95
92, -176933.55, -112628.49, -175840.67, -187500.02, 169128.84, 169131.89, -187500.02, 169074.31, 0.04, 0.04, -0.94
93, -177290.48, -136870.20, -176202.08, -187500.02, 169098.77, 169101.69, -187500.02, 169044.00, 0.04, 0.04, -0.94
94, -177390.97, -143510.17, -176279.91, -187500.02, 169090.88, 169093.88, -187500.02, 169035.98, 0.04, 0.04, -0.94
95, -177038.70, -119493.00, -175915.98, -187500.02, 169118.55, 169121.70, -187500.02, 169063.92, 0.04, 0.04, -0.94
96, -176860.09, -107724.07, -175804.05, -187500.02, 169131.73, 169134.84, -187500.02, 169077.11, 0.04, 0.04, -0.94
97, -177177.38, -129563.88, -176146.27, -187500.02, 169104.83, 169108.02, -187500.02, 169050.22, 0.04, 0.05, -0.95
98, -177365.13, -142334.16, -176312.25, -187500.02, 169089.41, 169092.61, -187500.02, 169034.72, 0.04, 0.05, -0.95
99, -177060.48, -121626.90, -175988.72, -187500.02, 169113.16, 169116.33, -187500.02, 169058.59, 0.04, 0.05, -0.95
100, -176806.63, -104466.13, -175769.28, -187500.02, 169130.95, 169134.13, -187500.02, 169076.45, 0.04, 0.05, -0.95
101, -177067.52, -122482.52, -176064.44, -187500.02, 169109.47, 169112.59, -187500.02, 169054.89, 0.04, 0.05, -0.95
102, -177333.50, -140654.52, -176310.48, -187500.02, 169086.77, 169089.80, -187500.02, 169031.91, 0.05, 0.04, -0.95
103, -177098.47, -124713.19, -176055.39, -187500.02, 169109.27, 169112.27, -187500.02, 169054.58, 0.05, 0.04, -0.95
104, -176782.44, -103485.02, -175776.66, -187500.02, 169138.02, 169140.94, -187500.02, 169083.31, 0.05, 0.04, -0.95
105, -176968.80, -116450.84, -176017.02, -187500.02, 169121.92, 169124.98, -187500.02, 169067.22, 0.05, 0.04, -0.95
106, -177298.55, -138845.83, -176330.45, -187500.02, 169093.48, 169096.58, -187500.02, 169038.70, 0.05, 0.04, -0.95
107, -177152.59, -128743.95, -176162.27, -187500.02, 169105.06, 169108.05, -187500.02, 169050.33, 0.05, 0.05, -0.95
108, -176809.20, -104997.49, -175796.91, -187500.02, 169132.50, 169135.39, -187500.02, 169077.70, 0.05, 0.05, -0.95
109, -176919.66, -112099.52, -175886.41, -187500.02, 169124.77, 169127.78, -187500.02, 169070.02, 0.05, 0.05, -0.95
110, -177293.89, -137325.16, -176239.41, -187500.02, 169097.72, 169100.80, -187500.02, 169042.86, 0.05, 0.05, -0.95
111, -177247.30, -133861.94, -176171.34, -187500.02, 169100.47, 169103.50, -187500.02, 169045.55, 0.05, 0.05, -0.95
112, -176889.59, -109306.11, -175815.66, -187500.02, 169129.13, 169132.14, -187500.02, 169074.42, 0.05, 0.05, -0.95
113, -176905.83, -110214.93, -175887.06, -187500.02, 169127.00, 169130.14, -187500.02, 169072.39, 0.05, 0.05, -0.95
114, -177298.97, -136601.88, -176276.13, -187500.02, 169094.56, 169097.67, -187500.02, 169039.73, 0.05, 0.05, -0.95
115, -177359.81, -140125.52, -176314.31, -187500.02, 169088.81, 169091.92, -187500.02, 169033.94, 0.05, 0.05, -0.95
116, -177022.30, -116429.92, -175953.98, -187500.02, 169117.19, 169120.20, -187500.02, 169062.52, 0.05, 0.05, -0.95
117, -176954.13, -110959.64, -175865.08, -187500.02, 169122.17, 169125.23, -187500.02, 169067.52, 0.05, 0.05, -0.95
118, -177339.88, -136555.56, -176229.50, -187500.02, 169091.80, 169094.88, -187500.02, 169036.94, 0.05, 0.05, -0.95
119, -177500.92, -146841.81, -176369.11, -187500.02, 169078.17, 169081.22, -187500.02, 169023.22, 0.05, 0.05, -0.95
120, -177196.38, -125481.64, -176042.89, -187500.02, 169101.98, 169105.05, -187500.02, 169047.27, 0.05, 0.05, -0.95
121, -177040.05, -114010.01, -175865.27, -187500.02, 169113.92, 169116.94, -187500.02, 169059.22, 0.05, 0.05, -0.95
122, -177384.08, -136700.72, -176187.34, -187500.02, 169086.92, 169089.95, -187500.02, 169032.11, 0.05, 0.05, -0.94
123, -177628.33, -152607.67, -176410.06, -187500.02, 169066.75, 169069.95, -187500.02, 169011.84, 0.05, 0.05, -0.94
124, -177372.98, -134496.39, -176133.55, -187500.02, 169087.23, 169090.34, -187500.02, 169032.47, 0.05, 0.05, -0.94
125, -177132.89, -117352.80, -175872.89, -187500.02, 169105.31, 169108.39, -187500.02, 169050.59, 0.05, 0.05, -0.94
126, -177404.66, -135120.78, -176123.61, -187500.02, 169081.95, 169085.08, -187500.02, 169027.00, 0.05, 0.05, -0.94
127, -177711.77, -155337.83, -176409.48, -187500.02, 169058.00, 169061.08, -187500.02, 169002.94, 0.04, 0.05, -0.93
128, -177514.39, -141447.36, -176189.97, -187500.02, 169075.92, 169078.95, -187500.02, 169021.06, 0.04, 0.05, -0.93
129, -177204.42, -119741.15, -175858.73, -187500.02, 169101.77, 169104.78, -187500.02, 169047.06, 0.04, 0.05, -0.93
130, -177383.69, -131290.44, -176017.34, -187500.02, 169085.59, 169088.73, -187500.02, 169030.80, 0.04, 0.05, -0.93
131, -177733.52, -154491.72, -176345.78, -187500.02, 169057.84, 169061.06, -187500.02, 169002.81, 0.04, 0.05, -0.93
132, -177614.05, -145820.63, -176203.58, -187500.02, 169066.98, 169070.17, -187500.02, 169012.02, 0.05, 0.05, -0.94
133, -177259.88, -121174.01, -175827.88, -187500.02, 169096.33, 169099.48, -187500.02, 169041.50, 0.05, 0.05, -0.94
134, -177338.47, -125867.77, -175884.84, -187500.02, 169090.36, 169093.42, -187500.02, 169035.47, 0.05, 0.05, -0.94
135, -177709.34, -150602.89, -176235.16, -187500.02, 169060.30, 169063.31, -187500.02, 169005.25, 0.05, 0.05, -0.94
136, -177674.13, -147904.50, -176178.33, -187500.02, 169061.64, 169064.77, -187500.02, 169006.67, 0.05, 0.05, -0.94
137, -177300.56, -122185.72, -175795.44, -187500.02, 169091.30, 169094.52, -187500.02, 169036.36, 0.05, 0.05, -0.95
138, -177269.83, -119904.84, -175811.38, -187500.02, 169093.38, 169096.50, -187500.02, 169038.44, 0.05, 0.05, -0.95
139, -177637.08, -144646.63, -176181.06, -187500.02, 169064.97, 169068.05, -187500.02, 169009.83, 0.05, 0.05, -0.95
140, -177697.06, -148308.53, -176219.67, -187500.02, 169057.06, 169060.19, -187500.02, 169001.89, 0.05, 0.05, -0.95
141, -177332.50, -123294.66, -175847.00, -187500.02, 169084.13, 169087.20, -187500.02, 169029.11, 0.05, 0.05, -0.95
142, -177198.77, -114268.38, -175782.47, -187500.02, 169095.25, 169098.34, -187500.02, 169040.34, 0.05, 0.05, -0.95
143, -177537.42, -137310.53, -176138.64, -187500.02, 169071.11, 169074.13, -187500.02, 169016.20, 0.05, 0.05, -0.95
144, -177684.53, -147208.00, -176263.89, -187500.02, 169057.06, 169060.08, -187500.02, 169001.95, 0.05, 0.05, -0.95
145, -177354.97, -124701.30, -175919.48, -187500.02, 169080.80, 169083.88, -187500.02, 169025.86, 0.05, 0.05, -0.95
146, -177133.56, -109827.38, -175756.08, -187500.02, 169099.72, 169102.77, -187500.02, 169044.77, 0.05, 0.05, -0.95
147, -177423.20, -129718.81, -176081.67, -187500.02, 169077.64, 169080.69, -187500.02, 169022.67, 0.05, 0.05, -0.95
148, -177656.38, -145411.75, -176293.86, -187500.02, 169057.72, 169060.81, -187500.02, 169002.70, 0.05, 0.05, -0.95
149, -177387.59, -127033.14, -176004.02, -187500.02, 169079.16, 169082.25, -187500.02, 169024.17, 0.05, 0.05, -0.95
150, -177100.44, -107505.90, -175730.09, -187500.02, 169099.97, 169102.98, -187500.02, 169045.03, 0.05, 0.05, -0.95
151, -177324.55, -122913.06, -175985.05, -187500.02, 169080.53, 169083.52, -187500.02, 169025.50, 0.05, 0.05, -0.95
152, -177624.88, -143352.70, -176267.17, -187500.02, 169059.61, 169062.59, -187500.02, 169004.47, 0.05, 0.05, -0.94
153, -177433.95, -130274.30, -176055.44, -187500.02, 169077.16, 169080.19, -187500.02, 169022.13, 0.05, 0.05, -0.94
154, -177097.48, -107420.42, -175745.72, -187500.02, 169104.53, 169107.53, -187500.02, 169049.55, 0.05, 0.05, -0.94
155, -177239.14, -117238.47, -175951.73, -187500.02, 169091.77, 169094.83, -187500.02, 169036.94, 0.05, 0.05, -0.94
156, -177594.58, -141207.50, -176294.94, -187500.02, 169063.77, 169066.88, -187500.02, 169008.69, 0.05, 0.05, -0.94
157, -177499.41, -134461.00, -176177.58, -187500.02, 169070.09, 169073.23, -187500.02, 169015.08, 0.05, 0.05, -0.95
158, -177144.13, -109967.59, -175801.14, -187500.02, 169098.09, 169101.30, -187500.02, 169043.13, 0.05, 0.05, -0.95
159, -177204.98, -113623.75, -175841.22, -187500.02, 169092.84, 169096.00, -187500.02, 169037.75, 0.05, 0.05, -0.95
160, -177590.28, -139521.69, -176204.97, -187500.02, 169061.53, 169064.59, -187500.02, 169006.25, 0.05, 0.05, -0.95
161, -177598.27, -139626.00, -176190.34, -187500.02, 169060.44, 169063.56, -187500.02, 169005.28, 0.05, 0.05, -0.95
162, -177246.58, -115175.54, -175817.30, -187500.02, 169087.80, 169090.83, -187500.02, 169032.67, 0.05, 0.05, -0.94
163, -177218.39, -112487.77, -175768.30, -187500.02, 169091.70, 169094.63, -187500.02, 169036.58, 0.05, 0.05, -0.94
164, -177613.75, -138553.52, -176141.39, -187500.02, 169061.55, 169064.67, -187500.02, 169006.45, 0.05, 0.05, -0.94
165, -177727.08, -145554.95, -176232.75, -187500.02, 169052.58, 169055.72, -187500.02, 168997.36, 0.05, 0.05, -0.94
166, -177399.91, -122721.31, -175884.06, -187500.02, 169077.64, 169080.75, -187500.02, 169022.48, 0.05, 0.05, -0.94
167, -177281.77, -113821.16, -175744.25, -187500.02, 169084.92, 169088.13, -187500.02, 169029.78, 0.05, 0.05, -0.94
168, -177647.02, -137972.63, -176088.64, -187500.02, 169054.95, 169058.06, -187500.02, 168999.80, 0.05, 0.05, -0.94
169, -177854.83, -151239.52, -176274.88, -187500.02, 169039.89, 169042.97, -187500.02, 168984.64, 0.05, 0.05, -0.94
170, -177569.45, -131366.42, -175968.91, -187500.02, 169061.70, 169064.75, -187500.02, 169006.58, 0.05, 0.05, -0.94
171, -177366.25, -116689.65, -175744.70, -187500.02, 169079.16, 169082.14, -187500.02, 169024.09, 0.05, 0.05, -0.94
172, -177677.94, -136920.05, -176036.16, -187500.02, 169053.75, 169056.92, -187500.02, 168998.72, 0.05, 0.05, -0.94
173, -177962.33, -155261.83, -176298.44, -187500.02, 169027.03, 169030.17, -187500.02, 168971.88, 0.05, 0.05, -0.94
174, -177734.45, -139287.02, -176048.48, -187500.02, 169043.47, 169046.59, -187500.02, 168988.41, 0.05, 0.05, -0.94
175, -177454.66, -119607.55, -175747.27, -187500.02, 169066.38, 169069.50, -187500.02, 169011.34, 0.05, 0.05, -0.94
176, -177680.92, -134265.69, -175952.45, -187500.02, 169047.44, 169050.64, -187500.02, 168992.33, 0.05, 0.05, -0.94
177, -178017.67, -156315.11, -176267.91, -187500.02, 169021.72, 169024.84, -187500.02, 168966.53, 0.06, 0.05, -0.94
178, -177861.50, -145174.44, -176089.92, -187500.02, 169035.63, 169038.69, -187500.02, 168980.44, 0.06, 0.05, -0.94
179, -177526.58, -121830.57, -175733.59, -187500.02, 169061.86, 169065.08, -187500.02, 169006.73, 0.06, 0.05, -0.94
180, -177656.78, -129937.23, -175843.72, -187500.02, 169051.33, 169054.42, -187500.02, 168996.14, 0.06, 0.05, -0.94
181, -178026.20, -154278.42, -176192.38, -187500.02, 169022.13, 169025.25, -187500.02, 168966.94, 0.06, 0.05, -0.94
182, -177953.81, -148838.86, -176097.56, -187500.02, 169025.81, 169028.98, -187500.02, 168970.58, 0.06, 0.05, -0.94
183, -177585.08, -123578.97, -175736.50, -187500.02, 169055.98, 169059.22, -187500.02, 169000.78, 0.05, 0.05, -0.94
184, -177601.61, -124746.34, -175827.22, -187500.02, 169055.53, 169058.69, -187500.02, 169000.27, 0.05, 0.05, -0.94
185, -177978.08, -149821.64, -176203.44, -187500.02, 169024.84, 169028.00, -187500.02, 168969.55, 0.05, 0.05, -0.94
186, -177996.92, -150590.17, -176200.34, -187500.02, 169025.58, 169028.67, -187500.02, 168970.38, 0.05, 0.05, -0.94
187, -177628.61, -125256.87, -175809.78, -187500.02, 169057.59, 169060.72, -187500.02, 169002.50, 0.05, 0.05, -0.94
188, -177555.25, -119636.30, -175715.23, -187500.02, 169062.89, 169066.00, -187500.02, 169007.66, 0.05, 0.05, -0.94
189, -177919.41, -143850.56, -176058.56, -187500.02, 169034.08, 169037.16, -187500.02, 168978.88, 0.05, 0.05, -0.94
190, -178031.95, -150928.20, -176149.11, -187500.02, 169022.05, 169025.19, -187500.02, 168966.84, 0.05, 0.05, -0.94
191, -177683.20, -127224.41, -175800.39, -187500.02, 169050.34, 169053.53, -187500.02, 168995.20, 0.05, 0.05, -0.94
192, -177500.58, -115241.03, -175728.00, -187500.02, 169066.00, 169069.22, -187500.02, 169010.81, 0.05, 0.05, -0.94
193, -177820.81, -136955.28, -176082.66, -187500.02, 169038.53, 169041.72, -187500.02, 168983.27, 0.06, 0.04, -0.94
194, -178019.55, -150085.72, -176259.88, -187500.02, 169019.84, 169022.95, -187500.02, 168964.55, 0.06, 0.04, -0.94
195, -177719.42, -129690.31, -175939.66, -187500.02, 169043.41, 169046.53, -187500.02, 168988.28, 0.06, 0.04, -0.94
196, -177465.45, -112310.41, -175703.45, -187500.02, 169066.16, 169069.19, -187500.02, 169010.92, 0.06, 0.04, -0.94
197, -177726.53, -130031.07, -175992.52, -187500.02, 169045.13, 169048.16, -187500.02, 168989.89, 0.06, 0.04, -0.94
198, -178002.83, -148397.72, -176248.44, -187500.02, 169022.67, 169025.77, -187500.02, 168967.38, 0.05, 0.04, -0.94
199, -177771.48, -132731.52, -175995.97, -187500.02, 169040.84, 169043.95, -187500.02, 168985.63, 0.05, 0.04, -0.94
200, -177454.16, -111280.64, -175699.81, -187500.02, 169065.39, 169068.44, -187500.02, 169010.14, 0.05, 0.04, -0.94
201, -177636.61, -123803.63, -175931.17, -187500.02, 169050.81, 169053.84, -187500.02, 168995.72, 0.05, 0.04, -0.94
202, -177972.61, -146261.97, -176252.23, -187500.02, 169022.80, 169025.92, -187500.02, 168967.58, 0.05, 0.04, -0.94
203, -177830.88, -136405.19, -176088.16, -187500.02, 169034.39, 169037.52, -187500.02, 168979.16, 0.05, 0.04, -0.94
204, -177483.44, -112513.02, -175720.30, -187500.02, 169062.84, 169065.95, -187500.02, 169007.59, 0.05, 0.04, -0.94
205, -177588.02, -119077.22, -175804.00, -187500.02, 169056.23, 169059.30, -187500.02, 169001.02, 0.05, 0.04, -0.94
206, -177966.13, -144163.53, -176160.17, -187500.02, 169025.41, 169028.56, -187500.02, 168970.23, 0.05, 0.04, -0.94
207, -177924.28, -140871.89, -176095.34, -187500.02, 169030.28, 169033.41, -187500.02, 168975.06, 0.05, 0.04, -0.94
208, -177563.23, -116151.84, -175735.89, -187500.02, 169056.50, 169059.61, -187500.02, 169001.28, 0.05, 0.04, -0.94
209, -177569.81, -116441.88, -175807.63, -187500.02, 169055.00, 169058.11, -187500.02, 168999.80, 0.05, 0.04, -0.94
210, -177963.95, -142614.16, -176201.91, -187500.02, 169023.28, 169026.44, -187500.02, 168968.00, 0.05, 0.04, -0.94
211, -178029.72, -146344.84, -176244.91, -187500.02, 169020.31, 169023.50, -187500.02, 168965.03, 0.05, 0.04, -0.94
212, -177687.78, -122556.31, -175881.27, -187500.02, 169048.70, 169051.89, -187500.02, 168993.67, 0.05, 0.04, -0.94
213, -177610.42, -116526.26, -175783.41, -187500.02, 169054.38, 169057.48, -187500.02, 168999.28, 0.05, 0.04, -0.95
214, -177993.58, -141709.55, -176145.84, -187500.02, 169023.02, 169026.20, -187500.02, 168967.73, 0.05, 0.04, -0.95
215, -178157.80, -152001.52, -176288.02, -187500.02, 169007.14, 169010.34, -187500.02, 168951.83, 0.05, 0.04, -0.95
216, -177846.92, -130489.63, -175955.08, -187500.02, 169032.80, 169035.89, -187500.02, 168977.69, 0.05, 0.04, -0.95
217, -177679.73, -118365.27, -175767.00, -187500.02, 169044.63, 169047.75, -187500.02, 168989.47, 0.05, 0.04, -0.95
218, -178018.97, -140538.59, -176085.72, -187500.02, 169017.94, 169021.22, -187500.02, 168962.78, 0.05, 0.05, -0.94
219, -178266.58, -156500.77, -176312.23, -187500.02, 168998.72, 169001.91, -187500.02, 168943.42, 0.05, 0.05, -0.94
220, -178009.33, -138398.00, -176034.11, -187500.02, 169019.86, 169023.02, -187500.02, 168964.61, 0.05, 0.05, -0.94
221, -177759.78, -120769.27, -175764.02, -187500.02, 169038.97, 169042.23, -187500.02, 168983.88, 0.05, 0.05, -0.94
222, -178027.25, -138053.59, -176010.22, -187500.02, 169015.61, 169018.81, -187500.02, 168960.45, 0.05, 0.05, -0.94
223, -178339.58, -158406.30, -176300.89, -187500.02, 168990.89, 168994.06, -187500.02, 168935.64, 0.05, 0.05, -0.94
224, -178146.45, -144777.97, -176085.73, -187500.02, 169007.03, 169010.16, -187500.02, 168951.67, 0.05, 0.05, -0.94
225, -177832.02, -122881.13, -175750.95, -187500.02, 169031.89, 169035.02, -187500.02, 168976.61, 0.05, 0.05, -0.94
226, -178009.89, -134104.45, -175907.75, -187500.02, 169016.69, 169019.81, -187500.02, 168961.38, 0.05, 0.05, -0.94
227, -178367.23, -157548.92, -176243.86, -187500.02, 168989.28, 168992.44, -187500.02, 168933.94, 0.05, 0.05, -0.94
228, -178256.25, -149352.77, -176111.88, -187500.02, 168997.31, 169000.39, -187500.02, 168941.91, 0.05, 0.04, -0.94
229, -177901.42, -124771.13, -175735.64, -187500.02, 169023.39, 169026.52, -187500.02, 168968.08, 0.05, 0.04, -0.94
230, -177978.11, -129240.27, -175791.45, -187500.02, 169016.33, 169019.42, -187500.02, 168961.02, 0.05, 0.04, -0.94
231, -178357.45, -154234.19, -176149.38, -187500.02, 168986.67, 168989.84, -187500.02, 168931.19, 0.05, 0.04, -0.94
232, -178332.97, -152122.75, -176103.38, -187500.02, 168990.45, 168993.58, -187500.02, 168934.95, 0.05, 0.04, -0.94
233, -177961.98, -126631.73, -175721.61, -187500.02, 169020.44, 169023.53, -187500.02, 168964.94, 0.05, 0.05, -0.94
234, -177930.66, -124216.53, -175729.39, -187500.02, 169023.19, 169026.34, -187500.02, 168967.73, 0.05, 0.05, -0.94
235, -178306.59, -149118.19, -176105.45, -187500.02, 168992.95, 168996.08, -187500.02, 168937.56, 0.05, 0.05, -0.94
236, -178377.58, -153291.56, -176154.11, -187500.02, 168986.27, 168989.42, -187500.02, 168930.91, 0.05, 0.05, -0.94
237, -178017.06, -128625.81, -175780.39, -187500.02, 169013.38, 169016.52, -187500.02, 168958.02, 0.05, 0.05, -0.94
238, -177884.98, -119584.20, -175698.20, -187500.02, 169024.42, 169027.53, -187500.02, 168968.92, 0.05, 0.05, -0.94
239, -178230.70, -142727.38, -176061.83, -187500.02, 168995.31, 168998.38, -187500.02, 168939.80, 0.05, 0.05, -0.94
240, -178388.81, -153138.33, -176199.48, -187500.02, 168982.95, 168986.09, -187500.02, 168927.45, 0.05, 0.05, -0.94
241, -178063.94, -130988.26, -175855.41, -187500.02, 169008.42, 169011.53, -187500.02, 168952.97, 0.05, 0.05, -0.94
242, -177844.98, -116025.63, -175658.75, -187500.02, 169025.86, 169029.00, -187500.02, 168970.42, 0.05, 0.05, -0.94
243, -178141.34, -135884.83, -175977.14, -187500.02, 169004.03, 169007.25, -187500.02, 168948.78, 0.05, 0.05, -0.95
244, -178388.17, -152031.78, -176203.63, -187500.02, 168985.17, 168988.34, -187500.02, 168929.77, 0.05, 0.05, -0.95
245, -178126.50, -134058.63, -175921.50, -187500.02, 169007.08, 169010.23, -187500.02, 168951.72, 0.05, 0.05, -0.95
246, -177838.98, -114469.31, -175654.17, -187500.02, 169028.27, 169031.42, -187500.02, 168972.92, 0.05, 0.05, -0.95
247, -178066.63, -129757.82, -175920.31, -187500.02, 169010.66, 169013.73, -187500.02, 168955.36, 0.05, 0.05, -0.95
248, -178382.16, -150673.03, -176218.63, -187500.02, 168987.30, 168990.38, -187500.02, 168931.86, 0.05, 0.05, -0.94
249, -178201.36, -138120.28, -176015.94, -187500.02, 169001.16, 169004.23, -187500.02, 168945.83, 0.05, 0.05, -0.94
250, -177871.84, -115327.84, -175665.64, -187500.02, 169026.30, 169029.31, -187500.02, 168970.83, 0.05, 0.05, -0.94
251, -178026.50, -125031.77, -175799.17, -187500.02, 169013.52, 169016.48, -187500.02, 168957.97, 0.05, 0.05, -0.94
252, -178397.06, -149335.83, -176149.06, -187500.02, 168984.30, 168987.44, -187500.02, 168928.88, 0.05, 0.05, -0.94
253, -178312.48, -143060.19, -176042.47, -187500.02, 168990.53, 168993.69, -187500.02, 168935.13, 0.05, 0.05, -0.95
254, -177956.45, -118601.48, -175684.08, -187500.02, 169017.89, 169021.03, -187500.02, 168962.39, 0.05, 0.05, -0.95
255, -178011.61, -121967.25, -175789.00, -187500.02, 169012.89, 169016.00, -187500.02, 168957.45, 0.05, 0.05, -0.95
0, -178404.52, -147964.52, -176177.61, -187500.02, 168981.03, 168984.14, -187500.02, 168925.61, 0.05, 0.05, -0.95
1, -178421.34, -148406.17, -176171.64, -187500.02, 168982.47, 168985.64, -187500.02, 168926.98, 0.05, 0.05, -0.95
2, -178067.78, -123926.72, -175796.94, -187500.02, 169011.23, 169014.36, -187500.02, 168955.80, 0.05, 0.05, -0.94
3, -178033.89, -120817.73, -175742.28, -187500.02, 169013.69, 169016.86, -187500.02, 168958.34, 0.05, 0.05, -0.94
4, -178429.08, -146633.89, -176116.58, -187500.02, 168983.63, 168986.84, -187500.02, 168928.28, 0.05, 0.05, -0.94
5, -178545.27, -153730.39, -176211.09, -187500.02, 168972.67, 168975.81, -187500.02, 168917.27, 0.05, 0.05, -0.94
6, -178214.86, -130741.18, -175858.88, -187500.02, 168999.19, 169002.34, -187500.02, 168943.94, 0.05, 0.05, -0.94
7, -178084.81, -121233.60, -175708.53, -187500.02, 169008.89, 169012.06, -187500.02, 168953.67, 0.05, 0.05, -0.95
8, -178445.39, -144943.95, -176048.95, -187500.02, 168979.72, 168982.88, -187500.02, 168924.38, 0.05, 0.05, -0.95
9, -178652.17, -158186.44, -176233.34, -187500.02, 168963.72, 168966.73, -187500.02, 168908.19, 0.05, 0.05, -0.95
10, -178366.64, -138192.83, -175925.30, -187500.02, 168985.84, 168988.81, -187500.02, 168930.44, 0.05, 0.05, -0.95
11, -178152.56, -123049.61, -175691.64, -187500.02, 169001.83, 169004.91, -187500.02, 168946.45, 0.05, 0.05, -0.95
12, -178459.14, -142890.36, -175978.11, -187500.02, 168977.23, 168980.36, -187500.02, 168921.81, 0.05, 0.05, -0.94
13, -178741.66, -161264.61, -176238.72, -187500.02, 168954.33, 168957.52, -187500.02, 168898.89, 0.05, 0.05, -0.94
14, -178516.38, -145342.30, -175992.25, -187500.02, 168970.55, 168973.69, -187500.02, 168915.03, 0.05, 0.05, -0.94
15, -178230.92, -125438.03, -175686.05, -187500.02, 168991.98, 168995.03, -187500.02, 168936.38, 0.05, 0.05, -0.94
16, -178453.95, -139861.83, -175889.67, -187500.02, 168975.03, 168978.17, -187500.02, 168919.55, 0.05, 0.05, -0.94
17, -178791.94, -162023.83, -176205.97, -187500.02, 168949.05, 168952.27, -187500.02, 168893.53, 0.05, 0.05, -0.95
18, -178641.38, -151145.27, -176033.70, -187500.02, 168963.00, 168966.17, -187500.02, 168907.44, 0.05, 0.05, -0.95
19, -178304.83, -127802.62, -175676.70, -187500.02, 168989.80, 168993.02, -187500.02, 168934.28, 0.05, 0.05, -0.95
20, -178435.95, -135791.16, -175787.13, -187500.02, 168978.59, 168981.81, -187500.02, 168923.14, 0.05, 0.05, -0.95
21, -178808.73, -160336.95, -176138.16, -187500.02, 168949.09, 168952.22, -187500.02, 168893.59, 0.05, 0.05, -0.95
22, -178742.89, -155265.92, -176050.80, -187500.02, 168952.34, 168955.41, -187500.02, 168896.72, 0.05, 0.04, -0.94
23, -178375.20, -130030.77, -175662.89, -187500.02, 168979.73, 168982.83, -187500.02, 168924.05, 0.05, 0.04, -0.94
24, -178396.89, -130994.98, -175664.86, -187500.02, 168977.22, 168980.30, -187500.02, 168921.48, 0.05, 0.04, -0.94
25, -178777.11, -156188.17, -176024.34, -187500.02, 168945.72, 168948.92, -187500.02, 168890.11, 0.05, 0.04, -0.94
26, -178802.17, -157320.31, -176026.89, -187500.02, 168942.59, 168945.86, -187500.02, 168886.94, 0.05, 0.04, -0.94
27, -178430.59, -131982.22, -175667.52, -187500.02, 168974.47, 168977.58, -187500.02, 168918.75, 0.05, 0.05, -0.93
28, -178339.94, -126026.28, -175676.64, -187500.02, 168982.52, 168985.53, -187500.02, 168926.77, 0.05, 0.05, -0.93
29, -178701.97, -150197.42, -176047.91, -187500.02, 168954.06, 168957.19, -187500.02, 168898.45, 0.05, 0.05, -0.93
30, -178816.92, -157600.11, -176140.91, -187500.02, 168947.36, 168950.42, -187500.02, 168891.72, 0.05, 0.05, -0.93
31, -178470.00, -133921.34, -175777.52, -187500.02, 168975.69, 168978.75, -187500.02, 168920.02, 0.05, 0.05, -0.93
32, -178284.80, -121545.74, -175637.56, -187500.02, 168991.88, 168994.88, -187500.02, 168936.16, 0.04, 0.05, -0.94
33, -178603.38, -143048.09, -175979.81, -187500.02, 168966.73, 168969.81, -187500.02, 168911.09, 0.04, 0.05, -0.94
34, -178804.20, -156391.28, -176159.61, -187500.02, 168947.58, 168950.73, -187500.02, 168891.92, 0.04, 0.05, -0.94
35, -178506.08, -136032.11, -175843.20, -187500.02, 168968.66, 168971.78, -187500.02, 168913.09, 0.04, 0.05, -0.94
36, -178243.27, -118291.82, -175624.78, -187500.02, 168990.83, 168993.95, -187500.02, 168935.27, 0.04, 0.05, -0.94
37, -178500.94, -135712.91, -175920.42, -187500.02, 168971.20, 168974.33, -187500.02, 168915.70, 0.05, 0.04, -0.94
38, -178778.05, -154245.22, -176177.61, -187500.02, 168949.14, 168952.22, -187500.02, 168893.53, 0.05, 0.04, -0.94
39, -178550.64, -138669.86, -175929.05, -187500.02, 168967.73, 168970.91, -187500.02, 168912.08, 0.05, 0.04, -0.94
40, -178227.00, -116927.70, -175627.59, -187500.02, 168993.73, 168996.91, -187500.02, 168938.03, 0.05, 0.04, -0.94
41, -178407.80, -129131.52, -175857.23, -187500.02, 168978.59, 168981.81, -187500.02, 168923.03, 0.05, 0.04, -0.94
42, -178747.34, -151711.48, -176181.78, -187500.02, 168949.77, 168952.94, -187500.02, 168894.16, 0.05, 0.05, -0.94
43, -178610.81, -142015.56, -176022.81, -187500.02, 168959.48, 168962.55, -187500.02, 168903.81, 0.05, 0.05, -0.94
44, -178259.64, -117857.01, -175651.09, -187500.02, 168987.19, 168990.22, -187500.02, 168931.53, 0.05, 0.05, -0.94
45, -178360.97, -124058.95, -175731.39, -187500.02, 168979.45, 168982.63, -187500.02, 168923.81, 0.05, 0.05, -0.94
46, -178740.80, -149163.84, -176089.45, -187500.02, 168948.92, 168952.20, -187500.02, 168893.34, 0.05, 0.05, -0.94
47, -178702.41, -146024.41, -176028.97, -187500.02, 168949.81, 168953.09, -187500.02, 168894.31, 0.05, 0.05, -0.94
48, -178337.95, -121042.88, -175659.61, -187500.02, 168977.59, 168980.66, -187500.02, 168921.92, 0.05, 0.05, -0.94
49, -178337.52, -120733.41, -175716.28, -187500.02, 168978.16, 168981.17, -187500.02, 168922.61, 0.05, 0.05, -0.94
50, -178728.81, -146562.28, -176109.86, -187500.02, 168946.44, 168949.59, -187500.02, 168890.94, 0.05, 0.05, -0.94
51, -178793.25, -150166.33, -176151.75, -187500.02, 168943.17, 168946.28, -187500.02, 168887.50, 0.05, 0.05, -0.94
52, -178446.89, -126039.29, -175784.64, -187500.02, 168971.20, 168974.22, -187500.02, 168915.50, 0.05, 0.04, -0.94
53, -178359.61, -119398.25, -175676.69, -187500.02, 168977.53, 168980.59, -187500.02, 168921.88, 0.05, 0.04, -0.94
54, -178736.56, -144114.44, -176032.94, -187500.02, 168946.64, 168949.77, -187500.02, 168891.03, 0.05, 0.04, -0.94
55, -178896.31, -154152.44, -176170.55, -187500.02, 168934.05, 168937.23, -187500.02, 168878.52, 0.05, 0.04, -0.94
56, -178583.92, -132374.05, -175836.34, -187500.02, 168959.25, 168962.44, -187500.02, 168903.70, 0.05, 0.04, -0.94
57, -178407.27, -119830.47, -175640.77, -187500.02, 168971.27, 168974.44, -187500.02, 168915.61, 0.05, 0.04, -0.95
58, -178743.23, -141722.34, -175956.48, -187500.02, 168942.55, 168945.67, -187500.02, 168886.95, 0.05, 0.04, -0.95
59, -178991.41, -157706.70, -176182.19, -187500.02, 168922.81, 168926.00, -187500.02, 168867.27, 0.05, 0.04, -0.95
60, -178738.48, -139725.38, -175907.55, -187500.02, 168943.67, 168946.84, -187500.02, 168888.09, 0.05, 0.04, -0.95
61, -178488.42, -122085.38, -175637.13, -187500.02, 168964.36, 168967.53, -187500.02, 168908.89, 0.05, 0.04, -0.95
62, -178756.94, -139416.36, -175885.61, -187500.02, 168943.78, 168947.02, -187500.02, 168888.23, 0.05, 0.04, -0.95
63, -179072.45, -160063.73, -176179.17, -187500.02, 168918.00, 168921.22, -187500.02, 168862.38, 0.05, 0.04, -0.95
64, -178886.02, -146776.08, -175970.83, -187500.02, 168930.45, 168933.67, -187500.02, 168874.89, 0.05, 0.04, -0.95
65, -178571.75, -124945.78, -175636.58, -187500.02, 168957.08, 168960.27, -187500.02, 168901.48, 0.05, 0.04, -0.95
66, -178749.39, -136180.48, -175794.05, -187500.02, 168944.63, 168947.88, -187500.02, 168889.17, 0.05, 0.04, -0.95
67, -179110.05, -159902.59, -176133.02, -187500.02, 168916.27, 168919.50, -187500.02, 168860.66, 0.05, 0.04, -0.94
68, -179006.13, -152079.41, -176007.28, -187500.02, 168924.44, 168927.61, -187500.02, 168868.78, 0.05, 0.04, -0.94
69, -178652.69, -127548.23, -175634.09, -187500.02, 168950.44, 168953.59, -187500.02, 168894.73, 0.05, 0.04, -0.94
70, -178728.16, -131929.53, -175690.94, -187500.02, 168943.67, 168946.86, -187500.02, 168887.97, 0.05, 0.04, -0.94
71, -179109.00, -157139.75, -176051.16, -187500.02, 168912.02, 168915.23, -187500.02, 168856.42, 0.05, 0.04, -0.94
72, -179092.67, -155436.08, -176012.81, -187500.02, 168912.47, 168915.64, -187500.02, 168856.78, 0.05, 0.04, -0.94
73, -178724.19, -130021.12, -175642.77, -187500.02, 168942.88, 168945.97, -187500.02, 168887.08, 0.05, 0.04, -0.94
74, -178688.80, -127416.36, -175673.78, -187500.02, 168944.69, 168947.78, -187500.02, 168889.02, 0.05, 0.04, -0.94
75, -179066.09, -152448.75, -176056.17, -187500.02, 168914.42, 168917.56, -187500.02, 168858.69, 0.05, 0.04, -0.94
76, -179146.03, -157072.55, -176113.36, -187500.02, 168908.80, 168911.97, -187500.02, 168853.09, 0.05, 0.04, -0.94
77, -178792.56, -132526.75, -175738.59, -187500.02, 168936.53, 168939.70, -187500.02, 168880.92, 0.05, 0.04, -0.94
78, -178663.64, -123269.62, -175590.52, -187500.02, 168945.97, 168949.16, -187500.02, 168890.30, 0.05, 0.04, -0.94
79, -179014.16, -146415.92, -175920.83, -187500.02, 168918.44, 168921.47, -187500.02, 168862.69, 0.05, 0.04, -0.94
80, -179179.83, -157176.36, -176064.75, -187500.02, 168904.81, 168907.83, -187500.02, 168849.13, 0.05, 0.04, -0.94
81, -178861.83, -135189.81, -175734.34, -187500.02, 168929.16, 168932.31, -187500.02, 168873.38, 0.05, 0.04, -0.94
82, -178636.83, -119967.84, -175579.08, -187500.02, 168946.13, 168949.20, -187500.02, 168890.27, 0.05, 0.05, -0.94
83, -178930.80, -139586.50, -175910.02, -187500.02, 168923.42, 168926.48, -187500.02, 168867.63, 0.05, 0.05, -0.94
84, -179179.80, -155844.97, -176137.91, -187500.02, 168903.50, 168906.78, -187500.02, 168847.80, 0.05, 0.05, -0.94
85, -178922.44, -137901.19, -175859.09, -187500.02, 168925.38, 168928.63, -187500.02, 168869.61, 0.05, 0.05, -0.94
86, -178629.97, -117915.41, -175572.44, -187500.02, 168950.48, 168953.70, -187500.02, 168894.56, 0.05, 0.05, -0.94
87, -178852.81, -132759.64, -175822.09, -187500.02, 168932.75, 168935.95, -187500.02, 168877.03, 0.05, 0.04, -0.94
88, -179165.00, -153605.36, -176117.41, -187500.02, 168909.09, 168912.23, -187500.02, 168853.30, 0.05, 0.04, -0.94
89, -178985.91, -141003.11, -175916.92, -187500.02, 168922.92, 168926.13, -187500.02, 168867.20, 0.05, 0.04, -0.94
90, -178646.58, -117766.35, -175587.08, -187500.02, 168950.80, 168953.91, -187500.02, 168894.92, 0.05, 0.04, -0.94
91, -178784.59, -126885.24, -175770.83, -187500.02, 168939.31, 168942.38, -187500.02, 168883.56, 0.05, 0.04, -0.94
92, -179149.25, -150956.72, -176122.73, -187500.02, 168907.61, 168910.72, -187500.02, 168851.91, 0.05, 0.04, -0.94
93, -179064.78, -144599.52, -176016.06, -187500.02, 168913.22, 168916.31, -187500.02, 168857.55, 0.05, 0.04, -0.94
94, -178705.86, -119794.88, -175636.22, -187500.02, 168942.55, 168945.75, -187500.02, 168886.78, 0.05, 0.04, -0.94
95, -178756.86, -122608.21, -175667.58, -187500.02, 168938.39, 168941.56, -187500.02, 168882.58, 0.05, 0.04, -0.94
96, -179144.73, -148291.44, -176033.86, -187500.02, 168908.80, 168911.92, -187500.02, 168853.09, 0.05, 0.04, -0.94
97, -179160.98, -148630.98, -176027.02, -187500.02, 168906.89, 168910.00, -187500.02, 168851.22, 0.05, 0.04, -0.95
98, -178803.83, -123848.76, -175653.50, -187500.02, 168935.70, 168938.80, -187500.02, 168880.00, 0.05, 0.04, -0.95
99, -178756.94, -120153.67, -175627.78, -187500.02, 168939.27, 168942.39, -187500.02, 168883.58, 0.05, 0.04, -0.95
100, -179144.47, -145643.45, -176015.83, -187500.02, 168907.36, 168910.47, -187500.02, 168851.63, 0.05, 0.04, -0.95
101, -179261.25, -152713.17, -176110.53, -187500.02, 168895.20, 168898.31, -187500.02, 168839.42, 0.05, 0.04, -0.95
102, -178932.38, -129600.77, -175759.78, -187500.02, 168920.73, 168923.84, -187500.02, 168864.92, 0.05, 0.04, -0.95
103, -178797.77, -119698.08, -175604.50, -187500.02, 168932.00, 168935.16, -187500.02, 168876.20, 0.05, 0.04, -0.95
104, -179155.27, -143117.48, -175941.81, -187500.02, 168902.83, 168905.94, -187500.02, 168846.97, 0.05, 0.04, -0.95
105, -179362.44, -156390.09, -176127.89, -187500.02, 168886.72, 168889.73, -187500.02, 168830.86, 0.05, 0.04, -0.95
106, -179080.30, -136386.52, -175824.89, -187500.02, 168909.52, 168912.58, -187500.02, 168853.81, 0.05, 0.04, -0.95
107, -178864.27, -120914.53, -175589.98, -187500.02, 168925.66, 168928.84, -187500.02, 168869.97, 0.05, 0.05, -0.95
108, -179168.78, -140563.66, -175874.52, -187500.02, 168901.08, 168904.22, -187500.02, 168845.47, 0.05, 0.05, -0.95
109, -179456.42, -159218.88, -176140.33, -187500.02, 168878.36, 168881.48, -187500.02, 168822.67, 0.05, 0.05, -0.95
110, -179240.23, -143614.47, -175902.61, -187500.02, 168895.05, 168898.22, -187500.02, 168839.28, 0.05, 0.05, -0.95
111, -178958.61, -123638.58, -175600.39, -187500.02, 168916.67, 168919.84, -187500.02, 168860.89, 0.05, 0.05, -0.95
112, -179181.23, -138017.44, -175803.11, -187500.02, 168897.91, 168901.02, -187500.02, 168842.13, 0.05, 0.05, -0.95
113, -179526.80, -160648.17, -176125.34, -187500.02, 168871.77, 168874.89, -187500.02, 168815.92, 0.05, 0.05, -0.95
114, -179387.20, -150278.97, -175963.88, -187500.02, 168885.69, 168888.80, -187500.02, 168829.89, 0.05, 0.05, -0.95
115, -179056.02, -126954.69, -175612.78, -187500.02, 168911.36, 168914.50, -187500.02, 168855.64, 0.05, 0.05, -0.95
116, -179184.77, -134803.98, -175722.53, -187500.02, 168900.58, 168903.75, -187500.02, 168844.84, 0.05, 0.05, -0.95
117, -179561.58, -159662.39, -176077.78, -187500.02, 168870.58, 168873.77, -187500.02, 168814.86, 0.05, 0.04, -0.95
118, -179506.56, -155073.69, -176000.27, -187500.02, 168872.77, 168876.00, -187500.02, 168817.09, 0.05, 0.04, -0.95
119, -179146.52, -129930.84, -175619.48, -187500.02, 168901.16, 168904.33, -187500.02, 168845.30, 0.05, 0.04, -0.95
120, -179167.33, -130732.35, -175621.22, -187500.02, 168897.53, 168900.64, -187500.02, 168841.66, 0.05, 0.04, -0.95
121, -179550.13, -156126.75, -175983.56, -187500.02, 168864.50, 168867.61, -187500.02, 168808.70, 0.05, 0.04, -0.95
122, -179585.55, -157748.69, -175996.25, -187500.02, 168861.98, 168865.13, -187500.02, 168806.17, 0.05, 0.04, -0.94
123, -179224.66, -132576.03, -175619.77, -187500.02, 168892.53, 168895.70, -187500.02, 168836.53, 0.05, 0.04, -0.94
124, -179141.00, -126455.93, -175565.44, -187500.02, 168898.11, 168901.27, -187500.02, 168842.23, 0.05, 0.04, -0.94
125, -179505.13, -150744.56, -175934.53, -187500.02, 168868.23, 168871.38, -187500.02, 168812.48, 0.05, 0.04, -0.94
126, -179632.06, -158653.89, -176038.56, -187500.02, 168857.92, 168861.17, -187500.02, 168802.25, 0.05, 0.04, -0.94
127, -179295.45, -135249.80, -175684.53, -187500.02, 168885.55, 168888.75, -187500.02, 168829.78, 0.05, 0.04, -0.95
128, -179114.38, -122774.75, -175535.27, -187500.02, 168899.83, 168902.98, -187500.02, 168843.86, 0.05, 0.04, -0.95
129, -179434.80, -144326.38, -175875.28, -187500.02, 168875.22, 168878.42, -187500.02, 168819.45, 0.05, 0.04, -0.95
130, -179645.88, -158105.44, -176065.94, -187500.02, 168858.33, 168861.52, -187500.02, 168802.47, 0.05, 0.04, -0.95
131, -179360.27, -138082.41, -175760.09, -187500.02, 168881.61, 168884.77, -187500.02, 168825.72, 0.05, 0.04, -0.95
132, -179105.61, -120336.09, -175523.27, -187500.02, 168902.06, 168905.27, -187500.02, 168846.08, 0.05, 0.04, -0.95
133, -179366.38, -137719.89, -175811.78, -187500.02, 168880.14, 168883.36, -187500.02, 168824.31, 0.05, 0.04, -0.94
134, -179651.77, -156534.72, -176077.67, -187500.02, 168857.44, 168860.67, -187500.02, 168801.64, 0.05, 0.04, -0.94
135, -179435.95, -141319.38, -175840.56, -187500.02, 168873.59, 168876.83, -187500.02, 168817.78, 0.05, 0.04, -0.94
136, -179122.50, -119695.95, -175524.16, -187500.02, 168897.64, 168900.80, -187500.02, 168841.66, 0.05, 0.04, -0.94
137, -179304.61, -131805.70, -175730.77, -187500.02, 168881.13, 168884.28, -187500.02, 168825.20, 0.05, 0.04, -0.94
138, -179646.94, -154527.39, -176058.69, -187500.02, 168853.56, 168856.69, -187500.02, 168797.69, 0.05, 0.04, -0.94
139, -179518.28, -145156.47, -175908.31, -187500.02, 168864.83, 168868.03, -187500.02, 168808.97, 0.05, 0.04, -0.94
140, -179173.05, -121053.04, -175543.70, -187500.02, 168892.77, 168895.94, -187500.02, 168836.75, 0.05, 0.04, -0.94
141, -179271.47, -127035.22, -175621.77, -187500.02, 168886.59, 168889.63, -187500.02, 168830.63, 0.05, 0.04, -0.94
142, -179650.70, -152152.77, -175978.86, -187500.02, 168856.73, 168859.88, -187500.02, 168800.80, 0.05, 0.04, -0.94
143, -179617.47, -149213.22, -175923.78, -187500.02, 168861.86, 168864.98, -187500.02, 168805.94, 0.05, 0.04, -0.95
144, -179254.53, -124176.74, -175564.08, -187500.02, 168889.44, 168892.56, -187500.02, 168833.50, 0.05, 0.04, -0.95
145, -179248.05, -123506.44, -175625.63, -187500.02, 168891.08, 168894.22, -187500.02, 168835.08, 0.05, 0.04, -0.95
146, -179634.86, -149270.08, -176013.09, -187500.02, 168858.61, 168861.70, -187500.02, 168802.77, 0.05, 0.04, -0.95
147, -179703.86, -153113.95, -176058.78, -187500.02, 168852.36, 168855.38, -187500.02, 168796.48, 0.05, 0.04, -0.95
148, -179359.89, -128894.62, -175694.00, -187500.02, 168878.06, 168881.02, -187500.02, 168822.08, 0.05, 0.05, -0.94
149, -179265.98, -121754.22, -175580.72, -187500.02, 168884.56, 168887.67, -187500.02, 168828.63, 0.05, 0.05, -0.94
150, -179637.67, -146266.61, -175931.11, -187500.02, 168853.75, 168856.89, -187500.02, 168797.86, 0.05, 0.05, -0.94
151, -179802.03, -156557.89, -176073.25, -187500.02, 168843.23, 168846.38, -187500.02, 168787.22, 0.05, 0.05, -0.94
152, -179492.06, -134760.09, -175742.34, -187500.02, 168871.20, 168874.31, -187500.02, 168815.20, 0.05, 0.05, -0.94
153, -179311.67, -121729.70, -175542.89, -187500.02, 168886.44, 168889.64, -187500.02, 168830.52, 0.05, 0.05, -0.94
154, -179640.42, -143256.69, -175851.53, -187500.02, 168859.28, 168862.42, -187500.02, 168803.30, 0.05, 0.05, -0.94
155, -179891.33, -159309.73, -176080.05, -187500.02, 168839.66, 168842.70, -187500.02, 168783.67, 0.05, 0.05, -0.94
156, -179641.34, -141282.44, -175809.00, -187500.02, 168859.13, 168862.27, -187500.02, 168803.23, 0.05, 0.05, -0.94
157, -179386.80, -123149.84, -175536.11, -187500.02, 168878.27, 168881.39, -187500.02, 168822.34, 0.05, 0.05, -0.94
158, -179647.48, -140044.06, -175777.22, -187500.02, 168855.83, 168859.02, -187500.02, 168799.91, 0.05, 0.04, -0.95
159, -179967.33, -160838.14, -176074.50, -187500.02, 168831.13, 168834.25, -187500.02, 168775.20, 0.05, 0.04, -0.95
160, -179787.69, -147750.80, -175872.70, -187500.02, 168844.36, 168847.42, -187500.02, 168788.50, 0.05, 0.04, -0.95
161, -179476.34, -125687.16, -175541.14, -187500.02, 168867.84, 168870.98, -187500.02, 168811.92, 0.05, 0.04, -0.95
162, -179650.27, -136645.31, -175696.06, -187500.02, 168851.53, 168854.70, -187500.02, 168795.56, 0.05, 0.04, -0.95
163, -180016.08, -160621.17, -176040.05, -187500.02, 168822.67, 168825.83, -187500.02, 168766.80, 0.05, 0.05, -0.96
164, -179922.70, -153234.14, -175924.67, -187500.02, 168832.23, 168835.44, -187500.02, 168776.52, 0.05, 0.05, -0.96
165, -179575.86, -128802.62, -175559.52, -187500.02, 168858.84, 168861.95, -187500.02, 168802.92, 0.05, 0.05, -0.96
166, -179651.72, -133101.53, -175616.83, -187500.02, 168851.64, 168854.84, -187500.02, 168795.78, 0.05, 0.05, -0.96
167, -180037.75, -158611.61, -175981.31, -187500.02, 168820.08, 168823.33, -187500.02, 168764.30, 0.05, 0.05, -0.96
168, -180034.00, -157436.42, -175952.91, -187500.02, 168821.48, 168824.69, -187500.02, 168765.70, 0.05, 0.04, -0.95
169, -179674.22, -132266.13, -175573.81, -187500.02, 168851.89, 168855.08, -187500.02, 168795.94, 0.05, 0.04, -0.95
170, -179646.27, -129622.77, -175528.48, -187500.02, 168852.98, 168856.19, -187500.02, 168796.97, 0.05, 0.04, -0.95
171, -180028.67, -154853.91, -175889.47, -187500.02, 168822.25, 168825.42, -187500.02, 168766.34, 0.05, 0.04, -0.95
172, -180118.31, -159960.08, -175955.75, -187500.02, 168818.14, 168821.33, -187500.02, 168762.23, 0.05, 0.04, -0.95
173, -179770.78, -135711.36, -175594.22, -187500.02, 168845.47, 168848.63, -187500.02, 168789.44, 0.05, 0.04, -0.94
174, -179637.98, -126417.62, -175504.02, -187500.02, 168853.20, 168856.34, -187500.02, 168797.11, 0.05, 0.04, -0.94
175, -179983.55, -149578.05, -175866.73, -187500.02, 168825.14, 168828.22, -187500.02, 168769.09, 0.05, 0.04, -0.94
176, -180156.48, -160601.81, -176016.16, -187500.02, 168813.36, 168816.44, -187500.02, 168757.34, 0.05, 0.04, -0.94
177, -179844.83, -138829.05, -175683.70, -187500.02, 168838.61, 168841.70, -187500.02, 168782.67, 0.05, 0.04, -0.94
178, -179626.75, -123544.66, -175447.58, -187500.02, 168855.53, 168858.69, -187500.02, 168799.41, 0.05, 0.05, -0.94
179, -179920.45, -143063.28, -175721.39, -187500.02, 168831.61, 168834.81, -187500.02, 168775.67, 0.05, 0.05, -0.94
180, -180173.42, -159548.02, -175951.72, -187500.02, 168809.75, 168812.89, -187500.02, 168753.78, 0.05, 0.05, -0.94
181, -179920.47, -141822.63, -175683.55, -187500.02, 168830.61, 168833.69, -187500.02, 168774.50, 0.05, 0.05, -0.94
182, -179622.03, -121651.40, -175461.66, -187500.02, 168854.34, 168857.50, -187500.02, 168798.16, 0.05, 0.05, -0.94
183, -179833.17, -136139.02, -175732.16, -187500.02, 168836.16, 168839.28, -187500.02, 168780.13, 0.05, 0.05, -0.94
184, -180144.48, -156962.23, -176022.75, -187500.02, 168813.91, 168817.05, -187500.02, 168757.91, 0.05, 0.05, -0.94
185, -179966.36, -144391.75, -175822.55, -187500.02, 168828.38, 168831.53, -187500.02, 168772.36, 0.05, 0.05, -0.94
186, -179621.00, -120723.73, -175480.14, -187500.02, 168855.80, 168858.91, -187500.02, 168799.63, 0.05, 0.05, -0.94
187, -179744.09, -129108.34, -175644.27, -187500.02, 168846.66, 168849.88, -187500.02, 168790.72, 0.05, 0.05, -0.94
188, -180097.31, -152742.34, -175986.52, -187500.02, 168820.00, 168823.09, -187500.02, 168764.05, 0.05, 0.05, -0.94
189, -180005.97, -146103.77, -175873.33, -187500.02, 168825.31, 168828.39, -187500.02, 168769.25, 0.05, 0.05, -0.94
190, -179632.81, -120563.43, -175507.48, -187500.02, 168851.70, 168854.86, -187500.02, 168795.66, 0.05, 0.05, -0.94
191, -179655.53, -122262.41, -175596.61, -187500.02, 168848.22, 168851.39, -187500.02, 168792.25, 0.05, 0.05, -0.94
192, -180023.33, -147120.00, -175960.66, -187500.02, 168819.17, 168822.36, -187500.02, 168763.22, 0.05, 0.05, -0.94
193, -180028.41, -146966.20, -175942.47, -187500.02, 168819.30, 168822.41, -187500.02, 168763.22, 0.05, 0.05, -0.94
194, -179656.36, -121372.78, -175559.84, -187500.02, 168849.09, 168852.17, -187500.02, 168793.16, 0.05, 0.05, -0.94
195, -179585.89, -116456.20, -175537.19, -187500.02, 168852.06, 168855.16, -187500.02, 168796.03, 0.05, 0.05, -0.94
196, -179950.92, -140923.98, -175909.94, -187500.02, 168821.45, 168824.52, -187500.02, 168765.56, 0.05, 0.05, -0.94
197, -180055.70, -147393.05, -175991.39, -187500.02, 168814.77, 168817.89, -187500.02, 168758.81, 0.05, 0.05, -0.94
198, -179712.17, -123516.45, -175627.34, -187500.02, 168843.86, 168847.03, -187500.02, 168787.84, 0.05, 0.05, -0.94
0, 0.00, -146537.56, -176126.42, -187500.02, 168829.38, 168832.42, -187500.02, 168763.52, 0.06, 0.05, -0.94
1, 0.00, -125203.02, -175769.11, -187500.02, 168856.05, 168859.11, -187500.02, 168790.17, 0.06, 0.05, -0.94
2, 0.00, -110216.56, -175518.16, -187500.02, 168873.81, 168876.86, -187500.02, 168807.88, 0.05, 0.05, -0.94
3, 0.00, -130174.34, -175834.16, -187500.02, 168845.67, 168848.73, -187500.02, 168779.89, 0.05, 0.05, -0.94
4, 0.00, -147240.91, -176102.70, -187500.02, 168822.31, 168825.36, -187500.02, 168756.42, 0.05, 0.05, -0.94
5, 0.00, -130159.50, -175815.89, -187500.02, 168844.98, 168847.95, -187500.02, 168779.09, 0.05, 0.05, -0.94
6, 0.00, -110623.92, -175489.84, -187500.02, 168870.98, 168874.06, -187500.02, 168805.02, 0.05, 0.05, -0.94
7, 0.00, -125784.37, -175727.16, -187500.02, 168851.73, 168854.91, -187500.02, 168785.91, 0.05, 0.04, -0.94
8, 0.00, -147342.50, -176065.17, -187500.02, 168822.45, 168825.64, -187500.02, 168756.63, 0.05, 0.04, -0.94
9, 0.00, -135601.41, -175863.50, -187500.02, 168837.31, 168840.41, -187500.02, 168771.38, 0.05, 0.04, -0.94
10, 0.00, -112829.95, -175485.27, -187500.02, 168864.03, 168867.17, -187500.02, 168798.02, 0.05, 0.04, -0.94
11, 0.00, -122099.69, -175628.98, -187500.02, 168849.81, 168852.94, -187500.02, 168783.83, 0.05, 0.04, -0.94
12, 0.00, -146728.00, -176020.73, -187500.02, 168817.63, 168820.86, -187500.02, 168751.73, 0.05, 0.04, -0.95
13, 0.00, -141158.89, -175919.53, -187500.02, 168824.23, 168827.41, -187500.02, 168758.30, 0.05, 0.04, -0.95
14, 0.00, -116589.71, -175512.23, -187500.02, 168855.48, 168858.66, -187500.02, 168789.33, 0.05, 0.04, -0.95
15, 0.00, -119246.51, -175548.83, -187500.02, 168850.13, 168853.25, -187500.02, 168784.03, 0.05, 0.04, -0.95
16, 0.00, -145172.27, -175958.78, -187500.02, 168814.11, 168817.31, -187500.02, 168748.22, 0.05, 0.04, -0.95
17, 0.00, -146131.00, -175964.42, -187500.02, 168812.02, 168815.14, -187500.02, 168746.08, 0.05, 0.04, -0.95
18, 0.00, -121508.95, -175562.13, -187500.02, 168842.61, 168845.67, -187500.02, 168776.50, 0.05, 0.04, -0.95
19, 0.00, -117426.20, -175541.25, -187500.02, 168847.55, 168850.80, -187500.02, 168781.50, 0.05, 0.04, -0.95
20, 0.00, -142767.45, -175967.36, -187500.02, 168813.58, 168816.86, -187500.02, 168747.69, 0.05, 0.04, -0.95
21, 0.00, -150126.47, -176076.94, -187500.02, 168800.95, 168804.23, -187500.02, 168735.03, 0.05, 0.04, -0.95
22, 0.00, -126977.57, -175690.98, -187500.02, 168829.94, 168833.20, -187500.02, 168764.00, 0.04, 0.04, -0.95
23, 0.00, -116474.18, -175512.17, -187500.02, 168842.02, 168845.34, -187500.02, 168775.98, 0.04, 0.04, -0.95
24, 0.00, -139310.42, -175871.09, -187500.02, 168809.80, 168813.02, -187500.02, 168743.80, 0.04, 0.04, -0.95
25, 0.00, -152464.53, -176073.22, -187500.02, 168790.11, 168793.27, -187500.02, 168724.16, 0.04, 0.04, -0.95
26, 0.00, -132240.88, -175732.06, -187500.02, 168818.16, 168821.33, -187500.02, 168752.11, 0.04, 0.04, -0.95
27, 0.00, -116033.42, -175459.00, -187500.02, 168839.69, 168842.86, -187500.02, 168773.50, 0.04, 0.05, -0.94
28, 0.00, -134740.20, -175752.77, -187500.02, 168815.34, 168818.58, -187500.02, 168749.31, 0.04, 0.05, -0.94
29, 0.00, -152829.28, -176034.16, -187500.02, 168791.16, 168794.36, -187500.02, 168725.22, 0.04, 0.05, -0.94
30, 0.00, -136769.41, -175760.41, -187500.02, 168811.16, 168814.42, -187500.02, 168745.25, 0.04, 0.05, -0.94
31, 0.00, -115865.94, -175452.73, -187500.02, 168838.95, 168842.19, -187500.02, 168772.94, 0.04, 0.05, -0.94
32, 0.00, -129145.65, -175719.70, -187500.02, 168822.58, 168825.80, -187500.02, 168756.67, 0.05, 0.05, -0.94
33, 0.00, -151328.86, -176070.30, -187500.02, 168793.28, 168796.48, -187500.02, 168727.38, 0.05, 0.05, -0.94
34, 0.00, -140751.61, -175884.64, -187500.02, 168804.92, 168808.11, -187500.02, 168738.98, 0.05, 0.05, -0.94
35, 0.00, -116803.30, -175483.86, -187500.02, 168837.53, 168840.67, -187500.02, 168771.42, 0.05, 0.05, -0.94
36, 0.00, -123809.82, -175587.28, -187500.02, 168827.55, 168830.75, -187500.02, 168761.56, 0.05, 0.05, -0.94
37, 0.00, -148431.58, -175973.58, -187500.02, 168792.39, 168795.55, -187500.02, 168726.45, 0.05, 0.04, -0.95
38, 0.00, -144059.47, -175888.95, -187500.02, 168795.36, 168798.53, -187500.02, 168729.47, 0.05, 0.04, -0.95
39, 0.00, -118780.20, -175489.63, -187500.02, 168827.59, 168830.78, -187500.02, 168761.41, 0.05, 0.04, -0.95
40, 0.00, -119114.81, -175567.16, -187500.02, 168828.33, 168831.48, -187500.02, 168762.19, 0.05, 0.04, -0.95
41, 0.00, -144542.67, -175986.95, -187500.02, 168795.42, 168798.52, -187500.02, 168729.36, 0.05, 0.04, -0.95
42, 0.00, -146681.63, -176008.61, -187500.02, 168790.88, 168793.97, -187500.02, 168724.80, 0.05, 0.04, -0.94
43, 0.00, -121834.51, -175592.14, -187500.02, 168823.45, 168826.52, -187500.02, 168757.19, 0.05, 0.04, -0.94
44, 0.00, -115645.59, -175482.89, -187500.02, 168831.70, 168834.83, -187500.02, 168765.45, 0.05, 0.04, -0.94
45, 0.00, -140028.02, -175866.78, -187500.02, 168798.02, 168801.17, -187500.02, 168731.97, 0.05, 0.04, -0.94
46, 0.00, -148479.28, -175991.81, -187500.02, 168784.78, 168788.00, -187500.02, 168718.77, 0.05, 0.04, -0.94
47, 0.00, -125662.64, -175612.27, -187500.02, 168811.48, 168814.70, -187500.02, 168745.41, 0.05, 0.05, -0.94
48, 0.00, -113388.77, -175458.38, -187500.02, 168826.31, 168829.45, -187500.02, 168760.11, 0.05, 0.05, -0.94
49, 0.00, -135045.25, -175840.45, -187500.02, 168797.08, 168800.22, -187500.02, 168730.98, 0.05, 0.05, -0.94
50, 0.00, -149326.41, -176062.83, -187500.02, 168778.03, 168781.28, -187500.02, 168712.09, 0.05, 0.05, -0.94
51, 0.00, -130016.05, -175738.81, -187500.02, 168802.11, 168805.38, -187500.02, 168736.20, 0.05, 0.05, -0.94
52, 0.00, -112544.31, -175447.58, -187500.02, 168822.91, 168826.14, -187500.02, 168756.69, 0.05, 0.05, -0.94
53, 0.00, -129982.63, -175721.55, -187500.02, 168800.91, 168804.19, -187500.02, 168734.91, 0.05, 0.05, -0.94
54, 0.00, -149267.42, -176025.23, -187500.02, 168776.30, 168779.45, -187500.02, 168710.22, 0.05, 0.05, -0.94
55, 0.00, -134688.08, -175778.22, -187500.02, 168792.44, 168795.61, -187500.02, 168726.36, 0.05, 0.05, -0.94
56, 0.00, -113150.49, -175418.25, -187500.02, 168817.83, 168821.09, -187500.02, 168751.55, 0.05, 0.05, -0.94
57, 0.00, -125153.20, -175605.14, -187500.02, 168801.63, 168804.81, -187500.02, 168735.45, 0.05, 0.06, -0.94
58, 0.00, -148346.38, -175972.78, -187500.02, 168770.47, 168773.61, -187500.02, 168704.45, 0.05, 0.06, -0.94
59, 0.00, -139580.20, -175821.44, -187500.02, 168782.53, 168785.66, -187500.02, 168716.50, 0.05, 0.06, -0.94
60, 0.00, -115447.25, -175447.27, -187500.02, 168812.34, 168815.39, -187500.02, 168746.03, 0.05, 0.06, -0.94
61, 0.00, -121109.81, -175602.25, -187500.02, 168801.17, 168804.33, -187500.02, 168735.08, 0.05, 0.06, -0.94
62, 0.00, -146439.06, -176018.23, -187500.02, 168767.47, 168770.70, -187500.02, 168701.47, 0.05, 0.05, -0.94
63, 0.00, -144015.56, -175968.95, -187500.02, 168770.39, 168773.59, -187500.02, 168704.33, 0.05, 0.05, -0.94
64, 0.00, -119019.26, -175553.59, -187500.02, 168800.14, 168803.30, -187500.02, 168734.00, 0.05, 0.05, -0.94
65, 0.00, -117997.45, -175530.44, -187500.02, 168801.23, 168804.39, -187500.02, 168735.13, 0.05, 0.05, -0.94
66, 0.00, -143555.81, -175936.77, -187500.02, 168766.02, 168769.20, -187500.02, 168699.98, 0.05, 0.05, -0.94
67, 0.00, -147507.67, -175992.41, -187500.02, 168761.16, 168764.36, -187500.02, 168695.06, 0.05, 0.05, -0.94
68, 0.00, -123282.14, -175590.66, -187500.02, 168793.63, 168796.70, -187500.02, 168727.41, 0.05, 0.05, -0.94
69, 0.00, -115754.74, -175462.44, -187500.02, 168800.56, 168803.70, -187500.02, 168734.30, 0.05, 0.05, -0.94
70, 0.00, -139854.17, -175845.38, -187500.02, 168768.05, 168771.22, -187500.02, 168701.94, 0.05, 0.05, -0.94
71, 0.00, -150051.55, -176000.98, -187500.02, 168755.19, 168758.39, -187500.02, 168689.06, 0.05, 0.05, -0.94
72, 0.00, -128147.44, -175633.28, -187500.02, 168783.88, 168787.00, -187500.02, 168717.59, 0.05, 0.05, -0.95
73, 0.00, -114579.33, -175404.86, -187500.02, 168798.31, 168801.47, -187500.02, 168731.84, 0.05, 0.05, -0.95
74, 0.00, -135592.20, -175736.81, -187500.02, 168770.27, 168773.48, -187500.02, 168704.02, 0.05, 0.05, -0.95
75, 0.00, -151681.53, -175988.16, -187500.02, 168750.05, 168753.30, -187500.02, 168683.84, 0.05, 0.05, -0.95
76, 0.00, -133682.92, -175686.97, -187500.02, 168772.56, 168775.84, -187500.02, 168706.33, 0.05, 0.05, -0.95
77, 0.00, -115054.13, -175376.88, -187500.02, 168794.06, 168797.27, -187500.02, 168727.56, 0.05, 0.04, -0.94
78, 0.00, -131392.73, -175634.02, -187500.02, 168768.36, 168771.52, -187500.02, 168702.02, 0.05, 0.04, -0.94
79, 0.00, -152157.78, -175959.34, -187500.02, 168740.22, 168743.28, -187500.02, 168673.95, 0.05, 0.04, -0.94
80, 0.00, -139187.66, -175736.77, -187500.02, 168757.13, 168760.25, -187500.02, 168690.94, 0.05, 0.04, -0.94
81, 0.00, -116881.20, -175402.83, -187500.02, 168787.27, 168790.33, -187500.02, 168720.91, 0.05, 0.04, -0.94
82, 0.00, -127454.65, -175635.84, -187500.02, 168774.31, 168777.34, -187500.02, 168708.03, 0.04, 0.04, -0.94
83, 0.00, -151537.83, -176023.77, -187500.02, 168743.55, 168746.64, -187500.02, 168677.30, 0.04, 0.04, -0.94
84, 0.00, -144500.88, -175900.00, -187500.02, 168750.88, 168753.98, -187500.02, 168684.67, 0.04, 0.04, -0.94
85, 0.00, -120111.32, -175493.84, -187500.02, 168781.17, 168784.28, -187500.02, 168714.92, 0.04, 0.04, -0.94
86, 0.00, -124183.88, -175551.67, -187500.02, 168774.17, 168777.33, -187500.02, 168707.94, 0.04, 0.04, -0.94
87, 0.00, -149824.45, -175956.41, -187500.02, 168738.39, 168741.53, -187500.02, 168672.25, 0.04, 0.05, -0.94
88, 0.00, -149111.92, -175931.36, -187500.02, 168739.08, 168742.17, -187500.02, 168672.88, 0.04, 0.05, -0.94
89, 0.00, -124196.26, -175515.64, -187500.02, 168773.44, 168776.50, -187500.02, 168707.09, 0.04, 0.05, -0.94
90, 0.00, -121440.91, -175462.39, -187500.02, 168775.88, 168779.00, -187500.02, 168709.58, 0.04, 0.05, -0.94
91, 0.00, -146831.89, -175864.44, -187500.02, 168740.89, 168744.11, -187500.02, 168674.78, 0.04, 0.05, -0.94
92, 0.00, -152518.67, -175948.02, -187500.02, 168729.56, 168732.78, -187500.02, 168663.48, 0.05, 0.05, -0.94
93, 0.00, -128723.55, -175551.64, -187500.02, 168759.13, 168762.50, -187500.02, 168693.03, 0.05, 0.05, -0.94
94, 0.00, -119471.97, -175394.78, -187500.02, 168769.64, 168772.94, -187500.02, 168703.39, 0.05, 0.05, -0.94
95, 0.00, -142877.05, -175765.08, -187500.02, 168739.69, 168742.98, -187500.02, 168673.66, 0.05, 0.05, -0.94
96, 0.00, -154676.75, -175944.88, -187500.02, 168724.47, 168727.70, -187500.02, 168658.39, 0.05, 0.05, -0.94
97, 0.00, -133568.45, -175594.30, -187500.02, 168754.38, 168757.63, -187500.02, 168688.13, 0.05, 0.05, -0.94
98, 0.00, -118383.38, -175391.94, -187500.02, 168773.72, 168776.92, -187500.02, 168707.36, 0.05, 0.05, -0.94
99, 0.00, -138045.31, -175750.52, -187500.02, 168744.58, 168747.78, -187500.02, 168678.39, 0.05, 0.05, -0.94
100, 0.00, -155203.28, -176022.27, -187500.02, 168719.81, 168723.03, -187500.02, 168653.70, 0.05, 0.05, -0.94
101, 0.00, -138141.42, -175734.66, -187500.02, 168741.88, 168745.03, -187500.02, 168675.73, 0.05, 0.05, -0.94
102, 0.00, -118097.78, -175400.30, -187500.02, 168766.11, 168769.25, -187500.02, 168699.89, 0.05, 0.05, -0.94
103, 0.00, -132645.16, -175627.03, -187500.02, 168746.55, 168749.72, -187500.02, 168680.36, 0.05, 0.05, -0.94
104, 0.00, -154031.98, -175961.39, -187500.02, 168718.27, 168721.42, -187500.02, 168652.02, 0.05, 0.05, -0.94
105, 0.00, -142151.05, -175756.72, -187500.02, 168733.25, 168736.53, -187500.02, 168667.02, 0.05, 0.05, -0.94
106, 0.00, -118745.72, -175380.44, -187500.02, 168761.19, 168764.42, -187500.02, 168694.78, 0.05, 0.05, -0.94
107, 0.00, -127205.45, -175555.58, -187500.02, 168748.22, 168751.38, -187500.02, 168682.00, 0.05, 0.05, -0.94
108, 0.00, -151407.56, -175947.58, -187500.02, 168718.78, 168721.98, -187500.02, 168652.56, 0.05, 0.05, -0.94
109, 0.00, -145562.13, -175840.81, -187500.02, 168725.36, 168728.58, -187500.02, 168659.13, 0.05, 0.05, -0.94
110, 0.00, -120447.87, -175422.27, -187500.02, 168755.17, 168758.41, -187500.02, 168688.81, 0.05, 0.05, -0.94
111, 0.00, -122287.95, -175442.69, -187500.02, 168751.22, 168754.44, -187500.02, 168684.88, 0.05, 0.05, -0.94
112, 0.00, -147678.75, -175840.92, -187500.02, 168716.45, 168719.66, -187500.02, 168650.30, 0.05, 0.05, -0.94
113, 0.00, -148339.25, -175838.39, -187500.02, 168715.98, 168719.25, -187500.02, 168650.02, 0.05, 0.05, -0.94
114, 0.00, -123263.98, -175438.92, -187500.02, 168748.25, 168751.53, -187500.02, 168682.11, 0.05, 0.05, -0.94
115, 0.00, -118473.61, -175450.39, -187500.02, 168755.13, 168758.39, -187500.02, 168688.98, 0.05, 0.05, -0.94
116, 0.00, -143364.39, -175878.20, -187500.02, 168722.11, 168725.36, -187500.02, 168656.11, 0.05, 0.05, -0.94
117, 0.00, -150652.94, -175985.20, -187500.02, 168710.72, 168713.91, -187500.02, 168644.58, 0.05, 0.05, -0.94
118, 0.00, -127342.16, -175596.58, -187500.02, 168740.16, 168743.27, -187500.02, 168673.88, 0.05, 0.05, -0.94
119, 0.00, -116334.16, -175410.11, -187500.02, 168753.78, 168756.98, -187500.02, 168687.53, 0.05, 0.05, -0.94
120, 0.00, -138945.75, -175766.45, -187500.02, 168722.36, 168725.67, -187500.02, 168656.25, 0.05, 0.05, -0.94
121, 0.00, -152389.86, -175974.66, -187500.02, 168702.13, 168705.38, -187500.02, 168636.06, 0.05, 0.05, -0.94
122, 0.00, -132393.00, -175640.77, -187500.02, 168725.56, 168728.73, -187500.02, 168659.39, 0.05, 0.05, -0.94
123, 0.00, -115969.52, -175367.64, -187500.02, 168745.66, 168748.80, -187500.02, 168679.25, 0.05, 0.05, -0.94
124, 0.00, -134671.83, -175665.33, -187500.02, 168722.42, 168725.53, -187500.02, 168656.06, 0.05, 0.05, -0.94
125, 0.00, -153412.56, -175960.75, -187500.02, 168699.16, 168702.27, -187500.02, 168632.91, 0.05, 0.05, -0.94
126, 0.00, -137979.77, -175701.67, -187500.02, 168719.95, 168723.23, -187500.02, 168653.83, 0.05, 0.05, -0.94
127, 0.00, -117277.92, -175358.64, -187500.02, 168744.02, 168747.22, -187500.02, 168677.66, 0.05, 0.05, -0.94
128, 0.00, -130723.03, -175568.91, -187500.02, 168723.91, 168727.13, -187500.02, 168657.70, 0.05, 0.05, -0.94
129, 0.00, -153426.92, -175928.55, -187500.02, 168695.34, 168698.53, -187500.02, 168629.13, 0.05, 0.05, -0.94
130, 0.00, -143513.75, -175758.84, -187500.02, 168707.97, 168711.14, -187500.02, 168641.73, 0.05, 0.05, -0.94
131, 0.00, -119940.46, -175368.78, -187500.02, 168736.95, 168740.08, -187500.02, 168670.50, 0.05, 0.05, -0.94
132, 0.00, -127152.34, -175481.66, -187500.02, 168728.73, 168731.95, -187500.02, 168662.44, 0.05, 0.05, -0.94
133, 0.00, -152206.72, -175879.59, -187500.02, 168694.94, 168698.28, -187500.02, 168628.80, 0.05, 0.05, -0.94
134, 0.00, -148373.31, -175808.52, -187500.02, 168697.94, 168701.19, -187500.02, 168631.75, 0.05, 0.05, -0.94
135, 0.00, -123435.63, -175395.19, -187500.02, 168727.97, 168731.17, -187500.02, 168661.55, 0.05, 0.05, -0.94
136, 0.00, -123840.55, -175392.55, -187500.02, 168728.23, 168731.33, -187500.02, 168661.81, 0.05, 0.05, -0.94
137, 0.00, -149469.66, -175798.19, -187500.02, 168692.91, 168696.05, -187500.02, 168626.67, 0.05, 0.05, -0.94
138, 0.00, -151991.25, -175829.17, -187500.02, 168688.94, 168692.14, -187500.02, 168622.58, 0.05, 0.05, -0.94
139, 0.00, -127303.48, -175435.80, -187500.02, 168723.36, 168726.50, -187500.02, 168656.80, 0.05, 0.05, -0.94
140, 0.00, -120937.62, -175417.06, -187500.02, 168732.13, 168735.41, -187500.02, 168665.67, 0.05, 0.05, -0.94
141, 0.00, -145419.13, -175837.33, -187500.02, 168697.80, 168701.16, -187500.02, 168631.44, 0.05, 0.05, -0.94
142, 0.00, -154320.22, -175970.61, -187500.02, 168684.05, 168687.30, -187500.02, 168617.70, 0.04, 0.04, -0.94
143, 0.00, -131648.13, -175590.92, -187500.02, 168710.83, 168714.06, -187500.02, 168644.42, 0.04, 0.04, -0.94
144, 0.00, -119076.16, -175376.72, -187500.02, 168724.13, 168727.53, -187500.02, 168657.77, 0.04, 0.04, -0.94
145, 0.00, -140676.17, -175716.52, -187500.02, 168694.41, 168697.69, -187500.02, 168627.97, 0.04, 0.04, -0.94
146, 0.00, -155390.03, -175944.09, -187500.02, 168674.39, 168677.67, -187500.02, 168608.09, 0.04, 0.04, -0.94
147, 0.00, -136207.64, -175620.69, -187500.02, 168697.19, 168700.44, -187500.02, 168630.89, 0.05, 0.05, -0.94
148, 0.00, -118356.22, -175322.67, -187500.02, 168717.95, 168721.11, -187500.02, 168651.42, 0.05, 0.05, -0.94
149, 0.00, -135556.52, -175592.53, -187500.02, 168695.09, 168698.38, -187500.02, 168628.78, 0.05, 0.05, -0.94
150, 0.00, -155136.19, -175899.13, -187500.02, 168669.41, 168672.72, -187500.02, 168603.19, 0.05, 0.05, -0.94
151, 0.00, -140710.84, -175653.17, -187500.02, 168688.00, 168691.27, -187500.02, 168621.70, 0.05, 0.05, -0.94
152, 0.00, -118815.84, -175320.48, -187500.02, 168717.00, 168720.14, -187500.02, 168650.48, 0.05, 0.04, -0.94
153, 0.00, -130397.13, -175559.41, -187500.02, 168702.88, 168706.02, -187500.02, 168636.50, 0.05, 0.04, -0.94
154, 0.00, -153548.56, -175929.34, -187500.02, 168671.48, 168674.59, -187500.02, 168605.13, 0.05, 0.04, -0.94
155, 0.00, -144818.13, -175775.14, -187500.02, 168678.53, 168681.66, -187500.02, 168612.19, 0.05, 0.04, -0.94
156, 0.00, -120455.71, -175370.22, -187500.02, 168707.30, 168710.53, -187500.02, 168640.86, 0.05, 0.04, -0.94
157, 0.00, -125690.05, -175446.13, -187500.02, 168698.80, 168702.00, -187500.02, 168632.47, 0.04, 0.05, -0.94
158, 0.00, -150885.72, -175841.92, -187500.02, 168667.39, 168670.69, -187500.02, 168601.19, 0.04, 0.05, -0.94
159, 0.00, -148525.17, -175790.05, -187500.02, 168673.98, 168677.20, -187500.02, 168607.78, 0.04, 0.05, -0.94
160, 0.00, -123378.41, -175379.73, -187500.02, 168706.22, 168709.33, -187500.02, 168639.75, 0.04, 0.05, -0.94
161, 0.00, -121947.78, -175409.02, -187500.02, 168705.39, 168708.50, -187500.02, 168638.98, 0.04, 0.05, -0.94
162, 0.00, -147470.08, -175834.17, -187500.02, 168671.69, 168674.80, -187500.02, 168605.45, 0.05, 0.05, -0.94
163, 0.00, -151724.28, -175891.25, -187500.02, 168663.84, 168666.95, -187500.02, 168597.50, 0.05, 0.05, -0.94
164, 0.00, -127508.67, -175487.94, -187500.02, 168695.31, 168698.52, -187500.02, 168628.95, 0.05, 0.05, -0.94
165, 0.00, -119570.23, -175350.88, -187500.02, 168704.91, 168708.08, -187500.02, 168638.50, 0.05, 0.05, -0.94
166, 0.00, -143611.39, -175731.08, -187500.02, 168671.98, 168675.11, -187500.02, 168605.64, 0.05, 0.05, -0.94
167, 0.00, -154204.72, -175892.73, -187500.02, 168659.28, 168662.44, -187500.02, 168592.97, 0.05, 0.05, -0.94
168, 0.00, -132433.20, -175528.52, -187500.02, 168686.11, 168689.19, -187500.02, 168619.72, 0.05, 0.05, -0.94
169, 0.00, -118532.86, -175295.42, -187500.02, 168699.25, 168702.36, -187500.02, 168632.75, 0.05, 0.05, -0.94
170, 0.00, -139310.50, -175623.55, -187500.02, 168671.41, 168674.66, -187500.02, 168605.11, 0.05, 0.05, -0.94
171, 0.00, -155504.72, -175877.13, -187500.02, 168651.02, 168654.17, -187500.02, 168584.73, 0.05, 0.05, -0.94
172, 0.00, -137573.78, -175577.84, -187500.02, 168673.81, 168676.83, -187500.02, 168607.45, 0.05, 0.04, -0.94
173, 0.00, -118694.20, -175288.03, -187500.02, 168696.45, 168699.55, -187500.02, 168629.91, 0.05, 0.04, -0.94
174, 0.00, -134731.94, -175582.20, -187500.02, 168673.81, 168676.92, -187500.02, 168607.42, 0.05, 0.04, -0.94
175, 0.00, -155476.19, -175913.61, -187500.02, 168647.06, 168650.28, -187500.02, 168580.73, 0.05, 0.04, -0.94
176, 0.00, -142558.11, -175692.27, -187500.02, 168663.59, 168666.97, -187500.02, 168597.38, 0.05, 0.04, -0.94
177, 0.00, -120022.47, -175317.11, -187500.02, 168692.75, 168696.00, -187500.02, 168626.25, 0.05, 0.04, -0.94
178, 0.00, -130218.15, -175475.06, -187500.02, 168679.88, 168683.06, -187500.02, 168613.48, 0.04, 0.04, -0.93
179, 0.00, -154177.66, -175854.52, -187500.02, 168648.78, 168652.09, -187500.02, 168582.58, 0.04, 0.04, -0.93
180, 0.00, -147160.73, -175732.97, -187500.02, 168656.38, 168659.58, -187500.02, 168590.16, 0.04, 0.04, -0.93
181, 0.00, -122593.86, -175325.53, -187500.02, 168685.45, 168688.63, -187500.02, 168618.94, 0.04, 0.04, -0.93
182, 0.00, -126304.92, -175379.31, -187500.02, 168677.02, 168680.34, -187500.02, 168610.52, 0.04, 0.04, -0.93
183, 0.00, -151828.20, -175783.59, -187500.02, 168643.23, 168646.50, -187500.02, 168576.89, 0.05, 0.04, -0.94
184, 0.00, -151251.09, -175763.36, -187500.02, 168644.17, 168647.42, -187500.02, 168577.80, 0.05, 0.04, -0.94
185, 0.00, -126279.02, -175358.34, -187500.02, 168675.89, 168679.06, -187500.02, 168609.27, 0.05, 0.04, -0.94
186, 0.00, -123271.86, -175362.81, -187500.02, 168677.72, 168680.94, -187500.02, 168611.20, 0.05, 0.04, -0.94
187, 0.00, -148656.89, -175791.44, -187500.02, 168643.70, 168646.88, -187500.02, 168577.39, 0.05, 0.04, -0.94
188, 0.00, -154633.23, -175881.77, -187500.02, 168634.70, 168637.89, -187500.02, 168568.45, 0.05, 0.05, -0.93
189, 0.00, -130999.63, -175490.25, -187500.02, 168665.16, 168668.47, -187500.02, 168598.86, 0.05, 0.05, -0.93
190, 0.00, -121678.58, -175334.31, -187500.02, 168676.11, 168679.31, -187500.02, 168609.58, 0.05, 0.05, -0.93
191, 0.00, -145159.91, -175708.64, -187500.02, 168645.05, 168648.16, -187500.02, 168578.61, 0.05, 0.05, -0.93
192, 0.00, -157353.86, -175897.30, -187500.02, 168628.91, 168632.06, -187500.02, 168562.56, 0.05, 0.05, -0.93
193, 0.00, -136560.42, -175550.91, -187500.02, 168654.81, 168658.02, -187500.02, 168588.42, 0.05, 0.05, -0.94
194, 0.00, -121486.20, -175300.52, -187500.02, 168672.00, 168675.17, -187500.02, 168605.44, 0.05, 0.05, -0.94
195, 0.00, -141345.47, -175617.22, -187500.02, 168645.97, 168649.14, -187500.02, 168579.63, 0.05, 0.05, -0.94
196, 0.00, -158984.67, -175897.92, -187500.02, 168620.97, 168624.28, -187500.02, 168554.72, 0.05, 0.05, -0.94
197, 0.00, -142379.28, -175620.02, -187500.02, 168640.58, 168643.80, -187500.02, 168574.19, 0.05, 0.05, -0.94
198, 0.00, -122617.51, -175292.64, -187500.02, 168665.81, 168669.09, -187500.02, 168599.34, 0.05, 0.05, -0.95
199, 0.00, -137404.27, -175524.94, -187500.02, 168643.91, 168647.22, -187500.02, 168577.56, 0.05, 0.05, -0.95
200, 0.00, -159276.20, -175869.33, -187500.02, 168614.05, 168617.33, -187500.02, 168547.81, 0.05, 0.05, -0.95
201, 0.00, -147913.73, -175674.73, -187500.02, 168630.06, 168633.31, -187500.02, 168563.75, 0.05, 0.05, -0.95
202, 0.00, -124805.34, -175292.34, -187500.02, 168658.53, 168661.83, -187500.02, 168592.00, 0.05, 0.05, -0.95
203, 0.00, -133461.30, -175427.42, -187500.02, 168646.20, 168649.56, -187500.02, 168579.88, 0.05, 0.05, -0.94
204, 0.00, -158087.56, -175819.13, -187500.02, 168611.63, 168614.88, -187500.02, 168545.41, 0.05, 0.05, -0.94
205, 0.00, -152715.70, -175722.72, -187500.02, 168618.41, 168621.58, -187500.02, 168552.17, 0.05, 0.05, -0.94
206, 0.00, -127902.80, -175311.41, -187500.02, 168650.03, 168653.22, -187500.02, 168583.53, 0.05, 0.05, -0.94
207, 0.00, -129869.62, -175336.48, -187500.02, 168644.55, 168647.73, -187500.02, 168578.06, 0.05, 0.05, -0.94
208, 0.00, -155533.42, -175742.13, -187500.02, 168609.75, 168612.86, -187500.02, 168543.39, 0.05, 0.05, -0.94
209, 0.00, -156533.42, -175747.45, -187500.02, 168608.77, 168611.88, -187500.02, 168542.39, 0.05, 0.05, -0.94
210, 0.00, -131576.63, -175340.08, -187500.02, 168639.34, 168642.39, -187500.02, 168572.81, 0.05, 0.05, -0.94
211, 0.00, -126675.65, -175303.77, -187500.02, 168644.22, 168647.44, -187500.02, 168577.70, 0.05, 0.05, -0.94
212, 0.00, -151532.63, -175722.84, -187500.02, 168609.91, 168613.16, -187500.02, 168543.50, 0.05, 0.05, -0.94
213, 0.00, -158858.98, -175830.86, -187500.02, 168599.19, 168602.31, -187500.02, 168532.84, 0.05, 0.05, -0.94
214, 0.00, -135424.00, -175438.81, -187500.02, 168631.66, 168634.81, -187500.02, 168565.16, 0.05, 0.05, -0.94
215, 0.00, -124058.81, -175245.30, -187500.02, 168645.61, 168648.80, -187500.02, 168579.00, 0.05, 0.05, -0.94
216, 0.00, -146300.13, -175594.56, -187500.02, 168615.66, 168618.84, -187500.02, 168549.27, 0.05, 0.05, -0.94
217, 0.00, -159436.84, -175794.97, -187500.02, 168597.61, 168600.61, -187500.02, 168531.05, 0.05, 0.05, -0.94
218, 0.00, -139016.92, -175456.41, -187500.02, 168623.75, 168626.77, -187500.02, 168557.05, 0.05, 0.05, -0.95
219, 0.00, -122024.45, -175243.13, -187500.02, 168645.50, 168648.67, -187500.02, 168578.77, 0.05, 0.05, -0.95
220, 0.00, -140101.56, -175587.25, -187500.02, 168620.09, 168623.28, -187500.02, 168553.67, 0.05, 0.05, -0.95
221, 0.00, -158292.83, -175872.66, -187500.02, 168595.42, 168598.64, -187500.02, 168528.97, 0.05, 0.05, -0.95
222, 0.00, -142298.58, -175600.13, -187500.02, 168617.95, 168621.17, -187500.02, 168551.39, 0.05, 0.05, -0.95
223, 0.00, -120901.95, -175241.33, -187500.02, 168645.84, 168649.00, -187500.02, 168579.11, 0.04, 0.04, -0.94
224, 0.00, -133610.91, -175435.45, -187500.02, 168627.45, 168630.56, -187500.02, 168560.95, 0.04, 0.04, -0.94
225, 0.00, -155741.83, -175782.06, -187500.02, 168596.61, 168599.78, -187500.02, 168530.06, 0.04, 0.04, -0.94
226, 0.00, -145315.34, -175600.34, -187500.02, 168609.86, 168613.02, -187500.02, 168543.28, 0.04, 0.04, -0.94
227, 0.00, -121086.64, -175245.20, -187500.02, 168641.58, 168644.75, -187500.02, 168574.81, 0.04, 0.04, -0.94
228, 0.00, -127587.59, -175440.36, -187500.02, 168634.19, 168637.36, -187500.02, 168567.50, 0.05, 0.05, -0.94
229, 0.00, -152257.64, -175841.97, -187500.02, 168602.42, 168605.53, -187500.02, 168535.97, 0.05, 0.05, -0.94
230, 0.00, -148200.52, -175764.52, -187500.02, 168606.75, 168609.89, -187500.02, 168540.27, 0.05, 0.05, -0.94
231, 0.00, -122896.39, -175341.63, -187500.02, 168636.39, 168639.56, -187500.02, 168569.77, 0.05, 0.05, -0.94
232, 0.00, -122848.40, -175330.63, -187500.02, 168635.84, 168638.97, -187500.02, 168569.16, 0.05, 0.05, -0.94
233, 0.00, -148282.78, -175732.19, -187500.02, 168602.95, 168606.09, -187500.02, 168536.53, 0.04, 0.05, -0.94
0, 0.00, -118782.30, 0.00, -187500.02, 168635.22, 168638.27, -187500.02, 168576.03, 0.05, 0.05, -0.94
1, 0.00, -142625.84, 0.00, -187500.02, 168592.75, 168595.84, -187500.02, 168533.69, 0.05, 0.05, -0.94
2, 0.00, -153989.80, 0.00, -187500.02, 168569.91, 168573.13, -187500.02, 168510.89, 0.04, 0.05, -0.95
3, 0.00, -132553.86, 0.00, -187500.02, 168601.69, 168604.91, -187500.02, 168542.70, 0.04, 0.05, -0.95
4, 0.00, -118115.71, 0.00, -187500.02, 168626.05, 168629.25, -187500.02, 168567.13, 0.04, 0.05, -0.95
5, 0.00, -138683.81, 0.00, -187500.02, 168588.97, 168592.11, -187500.02, 168529.98, 0.04, 0.05, -0.95
6, 0.00, -155777.73, 0.00, -187500.02, 168557.52, 168560.84, -187500.02, 168498.64, 0.04, 0.05, -0.95
7, 0.00, -138559.00, 0.00, -187500.02, 168585.44, 168588.77, -187500.02, 168526.63, 0.04, 0.05, -0.95
8, 0.00, -119408.47, 0.00, -187500.02, 168617.31, 168620.45, -187500.02, 168558.39, 0.04, 0.05, -0.95
9, 0.00, -135171.86, 0.00, -187500.02, 168588.41, 168591.56, -187500.02, 168529.48, 0.04, 0.05, -0.95
10, 0.00, -156758.86, 0.00, -187500.02, 168548.70, 168552.02, -187500.02, 168489.95, 0.04, 0.05, -0.95
11, 0.00, -144705.20, 0.00, -187500.02, 168567.23, 168570.61, -187500.02, 168508.52, 0.04, 0.05, -0.95
12, 0.00, -122005.09, 0.00, -187500.02, 168603.25, 168606.56, -187500.02, 168544.47, 0.04, 0.05, -0.95
13, 0.00, -131749.25, 0.00, -187500.02, 168583.94, 168587.27, -187500.02, 168525.17, 0.04, 0.05, -0.95
14, 0.00, -156329.91, 0.00, -187500.02, 168539.66, 168543.03, -187500.02, 168480.88, 0.04, 0.05, -0.95
15, 0.00, -150239.50, 0.00, -187500.02, 168549.53, 168552.91, -187500.02, 168490.78, 0.04, 0.05, -0.95
16, 0.00, -125588.93, 0.00, -187500.02, 168590.95, 168594.20, -187500.02, 168532.02, 0.04, 0.05, -0.95
17, 0.00, -128646.11, 0.00, -187500.02, 168583.28, 168586.55, -187500.02, 168524.38, 0.05, 0.04, -0.94
18, 0.00, -154509.20, 0.00, -187500.02, 168538.72, 168542.05, -187500.02, 168479.75, 0.05, 0.04, -0.94
19, 0.00, -154815.23, 0.00, -187500.02, 168535.52, 168538.78, -187500.02, 168476.61, 0.05, 0.04, -0.94
20, 0.00, -129839.18, 0.00, -187500.02, 168575.75, 168579.16, -187500.02, 168516.92, 0.05, 0.04, -0.94
21, 0.00, -125993.74, 0.00, -187500.02, 168579.59, 168583.02, -187500.02, 168520.81, 0.05, 0.04, -0.94
22, 0.00, -151328.81, 0.00, -187500.02, 168536.59, 168540.03, -187500.02, 168477.91, 0.04, 0.04, -0.94
23, 0.00, -158068.64, 0.00, -187500.02, 168523.56, 168527.00, -187500.02, 168464.89, 0.04, 0.04, -0.94
24, 0.00, -134444.17, 0.00, -187500.02, 168562.97, 168566.44, -187500.02, 168504.23, 0.04, 0.04, -0.94
25, 0.00, -124066.35, 0.00, -187500.02, 168577.23, 168580.66, -187500.02, 168518.41, 0.04, 0.04, -0.94
26, 0.00, -147092.28, 0.00, -187500.02, 168535.17, 168538.55, -187500.02, 168476.36, 0.04, 0.04, -0.94
27, 0.00, -159873.03, 0.00, -187500.02, 168511.97, 168515.27, -187500.02, 168453.22, 0.05, 0.05, -0.95
28, 0.00, -139224.56, 0.00, -187500.02, 168546.25, 168549.66, -187500.02, 168487.41, 0.05, 0.05, -0.95
29, 0.00, -123117.63, 0.00, -187500.02, 168573.59, 168577.05, -187500.02, 168514.80, 0.05, 0.05, -0.95
30, 0.00, -142214.16, 0.00, -187500.02, 168540.33, 168543.72, -187500.02, 168481.52, 0.05, 0.05, -0.95
31, 0.00, -160254.61, 0.00, -187500.02, 168510.31, 168513.66, -187500.02, 168451.59, 0.05, 0.05, -0.95
32, 0.00, -143917.20, 0.00, -187500.02, 168536.44, 168539.80, -187500.02, 168477.72, 0.05, 0.05, -0.95
33, 0.00, -123269.22, 0.00, -187500.02, 168569.47, 168572.92, -187500.02, 168510.67, 0.05, 0.05, -0.95
34, 0.00, -137125.80, 0.00, -187500.02, 168543.39, 168546.88, -187500.02, 168484.56, 0.05, 0.05, -0.95
35, 0.00, -159247.70, 0.00, -187500.02, 168502.27, 168505.69, -187500.02, 168443.50, 0.05, 0.05, -0.95
36, 0.00, -148312.63, 0.00, -187500.02, 168518.61, 168522.00, -187500.02, 168459.91, 0.05, 0.05, -0.95
37, 0.00, -124527.20, 0.00, -187500.02, 168557.50, 168560.80, -187500.02, 168498.64, 0.04, 0.04, -0.95
38, 0.00, -132146.34, 0.00, -187500.02, 168543.28, 168546.52, -187500.02, 168484.34, 0.04, 0.04, -0.95
39, 0.00, -156828.11, 0.00, -187500.02, 168499.20, 168502.48, -187500.02, 168440.38, 0.04, 0.04, -0.95
40, 0.00, -152020.69, 0.00, -187500.02, 168504.91, 168508.13, -187500.02, 168446.00, 0.04, 0.04, -0.95
41, 0.00, -126739.70, 0.00, -187500.02, 168550.08, 168553.38, -187500.02, 168491.11, 0.04, 0.04, -0.95
42, 0.00, -127623.83, 0.00, -187500.02, 168548.05, 168551.28, -187500.02, 168489.08, 0.05, 0.04, -0.95
43, 0.00, -153199.97, 0.00, -187500.02, 168502.16, 168505.53, -187500.02, 168443.28, 0.05, 0.04, -0.95
44, 0.00, -154906.33, 0.00, -187500.02, 168496.94, 168500.23, -187500.02, 168438.05, 0.05, 0.04, -0.95
45, 0.00, -129839.65, 0.00, -187500.02, 168537.83, 168541.09, -187500.02, 168478.89, 0.05, 0.04, -0.95
46, 0.00, -124015.59, 0.00, -187500.02, 168546.36, 168549.58, -187500.02, 168487.42, 0.05, 0.04, -0.95
47, 0.00, -148694.80, 0.00, -187500.02, 168504.30, 168507.53, -187500.02, 168445.42, 0.05, 0.04, -0.95
48, 0.00, -156870.77, 0.00, -187500.02, 168489.52, 168492.67, -187500.02, 168430.63, 0.05, 0.04, -0.95
49, 0.00, -133738.03, 0.00, -187500.02, 168525.02, 168528.19, -187500.02, 168466.09, 0.05, 0.04, -0.95
50, 0.00, -121720.45, 0.00, -187500.02, 168540.91, 168544.11, -187500.02, 168481.92, 0.05, 0.04, -0.95
51, 0.00, -143812.59, 0.00, -187500.02, 168501.81, 168505.02, -187500.02, 168442.77, 0.05, 0.04, -0.95
52, 0.00, -158030.67, 0.00, -187492.19, 168476.73, 168480.05, -187500.02, 168417.73, 0.05, 0.04, -0.94
53, 0.00, -138397.84, 0.00, -187500.02, 168507.30, 168510.56, -187500.02, 168448.19, 0.05, 0.04, -0.94
54, 0.00, -121084.00, 0.00, -187500.02, 168534.89, 168538.20, -187500.02, 168475.95, 0.05, 0.04, -0.94
55, 0.00, -139052.44, 0.00, -187500.02, 168504.63, 168507.81, -187500.02, 168445.67, 0.05, 0.04, -0.94
56, 0.00, -158434.66, 0.00, -187475.05, 168470.59, 168473.72, -187500.02, 168411.66, 0.05, 0.04, -0.94
57, 0.00, -143569.47, 0.00, -187500.02, 168495.00, 168498.17, -187500.02, 168436.02, 0.05, 0.05, -0.94
58, 0.00, -122147.27, 0.00, -187500.02, 168527.75, 168531.00, -187500.02, 168468.75, 0.05, 0.05, -0.94
59, 0.00, -134657.31, 0.00, -187500.02, 168503.63, 168506.94, -187500.02, 168444.66, 0.05, 0.05, -0.94
60, 0.00, -157835.09, 0.00, -187471.47, 168464.48, 168467.73, -187500.02, 168405.55, 0.05, 0.05, -0.94
61, 0.00, -148650.19, 0.00, -187500.02, 168481.05, 168484.36, -187500.02, 168422.13, 0.05, 0.05, -0.94
62, 0.00, -124586.63, 0.00, -187500.02, 168520.61, 168523.83, -187500.02, 168461.58, 0.05, 0.05, -0.94
63, 0.00, -130776.37, 0.00, -187500.02, 168505.53, 168508.70, -187500.02, 168446.56, 0.05, 0.05, -0.94
64, 0.00, -156119.05, 0.00, -187484.17, 168459.45, 168462.64, -187500.02, 168400.61, 0.05, 0.05, -0.94
65, 0.00, -153208.00, 0.00, -187500.02, 168461.09, 168464.27, -187500.02, 168402.13, 0.05, 0.05, -0.94
66, 0.00, -128076.70, 0.00, -187500.02, 168503.89, 168507.14, -187500.02, 168444.94, 0.05, 0.05, -0.94
67, 0.00, -127464.66, 0.00, -187500.02, 168505.17, 168508.39, -187500.02, 168446.11, 0.05, 0.04, -0.94
68, 0.00, -153252.81, 0.00, -187500.02, 168459.53, 168462.70, -187500.02, 168400.52, 0.05, 0.04, -0.94
69, 0.00, -156907.44, 0.00, -187461.33, 168450.67, 168453.89, -187500.02, 168391.69, 0.05, 0.04, -0.94
70, 0.00, -132441.88, 0.00, -187500.02, 168490.70, 168493.97, -187500.02, 168431.70, 0.05, 0.04, -0.94
71, 0.00, -125148.69, 0.00, -187500.02, 168502.83, 168506.06, -187500.02, 168443.81, 0.05, 0.04, -0.94
72, 0.00, -149520.58, 0.00, -187500.02, 168460.31, 168463.61, -187500.02, 168401.44, 0.05, 0.05, -0.94
73, 0.00, -159485.14, 0.00, -187413.30, 168441.64, 168444.84, -187500.02, 168382.75, 0.05, 0.05, -0.94
74, 0.00, -137235.59, 0.00, -187500.02, 168478.03, 168481.25, -187500.02, 168419.03, 0.05, 0.05, -0.94
75, 0.00, -123838.85, 0.00, -187500.02, 168498.98, 168502.23, -187500.02, 168439.91, 0.05, 0.05, -0.94
76, 0.00, -145046.52, 0.00, -187500.02, 168460.80, 168464.00, -187500.02, 168401.72, 0.05, 0.05, -0.94
77, 0.00, -160654.41, 0.00, -187380.08, 168430.20, 168433.38, -187500.02, 168371.23, 0.05, 0.04, -0.94
78, 0.00, -142061.63, 0.00, -187500.02, 168458.16, 168461.36, -187500.02, 168399.06, 0.05, 0.04, -0.94
79, 0.00, -123465.24, 0.00, -187500.02, 168490.17, 168493.30, -187500.02, 168431.09, 0.05, 0.04, -0.94
80, 0.00, -140005.22, 0.00, -187500.02, 168462.34, 168465.50, -187500.02, 168403.16, 0.05, 0.04, -0.94
81, 0.00, -160306.64, 0.00, -187372.92, 168426.72, 168429.95, -187500.02, 168367.77, 0.05, 0.04, -0.94
82, 0.00, -146600.45, 0.00, -187500.02, 168448.08, 168451.30, -187500.02, 168389.14, 0.05, 0.04, -0.94
83, 0.00, -124150.99, 0.00, -187500.02, 168483.95, 168487.20, -187500.02, 168424.92, 0.05, 0.04, -0.94
84, 0.00, -134896.28, 0.00, -187500.02, 168467.14, 168470.25, -187500.02, 168408.05, 0.05, 0.04, -0.94
85, 0.00, -158546.14, 0.00, -187388.08, 168427.97, 168431.08, -187500.02, 168368.94, 0.05, 0.04, -0.94
86, 0.00, -150696.38, 0.00, -187499.86, 168441.80, 168445.00, -187500.02, 168382.70, 0.05, 0.04, -0.94
87, 0.00, -125993.36, 0.00, -187500.02, 168482.55, 168485.77, -187500.02, 168423.45, 0.05, 0.04, -0.94
88, 0.00, -130271.59, 0.00, -187500.02, 168472.16, 168475.39, -187500.02, 168413.11, 0.05, 0.04, -0.94
89, 0.00, -155676.23, 0.00, -187414.56, 168426.67, 168429.94, -187500.02, 168367.59, 0.05, 0.04, -0.94
90, 0.00, -154229.41, 0.00, -187432.53, 168426.67, 168429.91, -187500.02, 168367.59, 0.05, 0.04, -0.94
91, 0.00, -128952.69, 0.00, -187500.02, 168467.19, 168470.23, -187500.02, 168408.08, 0.05, 0.04, -0.94
92, 0.00, -126471.77, 0.00, -187500.02, 168468.48, 168471.70, -187500.02, 168409.45, 0.05, 0.04, -0.95
93, 0.00, -151886.45, 0.00, -187450.75, 168423.47, 168426.61, -187500.02, 168364.39, 0.05, 0.04, -0.95
94, 0.00, -156984.03, 0.00, -187375.25, 168411.88, 168415.11, -187500.02, 168352.86, 0.05, 0.04, -0.95
95, 0.00, -132775.11, 0.00, -187500.02, 168449.84, 168453.17, -187500.02, 168390.86, 0.05, 0.04, -0.95
96, 0.00, -123801.57, 0.00, -187500.02, 168462.14, 168465.36, -187500.02, 168402.94, 0.05, 0.04, -0.95
97, 0.00, -147447.23, 0.00, -187496.16, 168421.53, 168424.72, -187500.02, 168362.44, 0.04, 0.05, -0.94
98, 0.00, -158841.06, 0.00, -187333.27, 168401.30, 168404.45, -187500.02, 168342.34, 0.04, 0.05, -0.94
99, 0.00, -137355.20, 0.00, -187500.02, 168436.75, 168439.86, -187500.02, 168377.67, 0.04, 0.05, -0.94
100, 0.00, -122585.68, 0.00, -187500.02, 168459.42, 168462.55, -187500.02, 168400.30, 0.04, 0.05, -0.94
101, 0.00, -142808.02, 0.00, -187500.02, 168421.63, 168424.70, -187500.02, 168362.47, 0.04, 0.05, -0.94
102, 0.00, -159795.50, 0.00, -187303.75, 168390.91, 168394.03, -187500.02, 168331.86, 0.05, 0.04, -0.95
103, 0.00, -142433.64, 0.00, -187500.02, 168420.19, 168423.31, -187500.02, 168361.14, 0.05, 0.04, -0.95
104, 0.00, -122833.76, 0.00, -187500.02, 168452.89, 168456.06, -187500.02, 168393.66, 0.05, 0.04, -0.95
105, 0.00, -138126.47, 0.00, -187500.02, 168425.78, 168428.97, -187500.02, 168366.61, 0.05, 0.04, -0.95
106, 0.00, -159552.41, 0.00, -187295.41, 168386.84, 168389.97, -187500.02, 168327.83, 0.05, 0.04, -0.95
107, 0.00, -147399.48, 0.00, -187466.67, 168406.38, 168409.56, -187500.02, 168347.34, 0.05, 0.05, -0.94
108, 0.00, -124355.42, 0.00, -187500.02, 168442.94, 168446.27, -187500.02, 168383.86, 0.05, 0.05, -0.94
109, 0.00, -133643.33, 0.00, -187500.02, 168426.05, 168429.23, -187500.02, 168366.88, 0.05, 0.05, -0.94
110, 0.00, -158038.39, 0.00, -187303.80, 168383.73, 168386.89, -187500.02, 168324.64, 0.05, 0.05, -0.94
111, 0.00, -151910.00, 0.00, -187390.97, 168394.17, 168397.33, -187500.02, 168335.03, 0.05, 0.05, -0.94
112, 0.00, -127018.01, 0.00, -187500.02, 168436.03, 168439.20, -187500.02, 168376.84, 0.05, 0.05, -0.94
113, 0.00, -129687.99, 0.00, -187500.02, 168430.52, 168433.69, -187500.02, 168371.42, 0.05, 0.05, -0.94
114, 0.00, -155403.42, 0.00, -187328.38, 168382.61, 168385.77, -187500.02, 168323.52, 0.05, 0.05, -0.94
115, 0.00, -155759.41, 0.00, -187321.97, 168380.38, 168383.64, -187500.02, 168321.34, 0.05, 0.05, -0.94
116, 0.00, -130692.73, 0.00, -187500.02, 168421.86, 168425.00, -187500.02, 168362.75, 0.05, 0.05, -0.94
117, 0.00, -126620.10, 0.00, -187500.02, 168425.64, 168428.80, -187500.02, 168366.52, 0.05, 0.05, -0.94
118, 0.00, -151846.48, 0.00, -187365.92, 168382.14, 168385.41, -187500.02, 168323.31, 0.05, 0.05, -0.94
119, 0.00, -158676.14, 0.00, -187266.75, 168368.27, 168371.50, -187500.02, 168309.41, 0.05, 0.05, -0.94
120, 0.00, -135079.77, 0.00, -187500.02, 168407.25, 168410.44, -187500.02, 168348.23, 0.05, 0.05, -0.94
121, 0.00, -124578.49, 0.00, -187500.02, 168423.66, 168426.80, -187500.02, 168364.55, 0.05, 0.05, -0.94
122, 0.00, -147523.67, 0.00, -187414.44, 168383.52, 168386.66, -187500.02, 168324.39, 0.05, 0.05, -0.94
123, 0.00, -160448.39, 0.00, -187227.97, 168358.58, 168361.78, -187500.02, 168299.53, 0.05, 0.05, -0.94
124, 0.00, -139907.14, 0.00, -187500.02, 168390.91, 168394.02, -187500.02, 168331.77, 0.05, 0.05, -0.94
125, 0.00, -123779.09, 0.00, -187500.02, 168417.77, 168420.81, -187500.02, 168358.58, 0.05, 0.05, -0.94
126, 0.00, -142834.27, 0.00, -187468.59, 168385.28, 168388.45, -187500.02, 168326.20, 0.05, 0.05, -0.94
127, 0.00, -161019.48, 0.00, -187208.92, 168353.63, 168356.80, -187500.02, 168294.58, 0.05, 0.04, -0.93
128, 0.00, -144876.27, 0.00, -187436.22, 168379.53, 168382.75, -187500.02, 168320.39, 0.05, 0.04, -0.93
129, 0.00, -124314.50, 0.00, -187500.02, 168412.25, 168415.38, -187500.02, 168353.02, 0.05, 0.04, -0.93
130, 0.00, -138155.91, 0.00, -187500.02, 168387.44, 168390.53, -187500.02, 168328.23, 0.05, 0.04, -0.93
131, 0.00, -160336.02, 0.00, -187203.14, 168346.69, 168349.84, -187500.02, 168287.58, 0.05, 0.04, -0.93
132, 0.00, -149556.14, 0.00, -187353.48, 168362.19, 168365.31, -187500.02, 168303.06, 0.05, 0.05, -0.94
133, 0.00, -125843.02, 0.00, -187500.02, 168400.09, 168403.25, -187500.02, 168341.02, 0.05, 0.05, -0.94
134, 0.00, -133408.66, 0.00, -187500.02, 168387.63, 168390.80, -187500.02, 168328.52, 0.05, 0.05, -0.94
135, 0.00, -158245.20, 0.00, -187220.38, 168345.36, 168348.50, -187500.02, 168286.28, 0.05, 0.05, -0.94
136, 0.00, -153707.17, 0.00, -187281.89, 168350.19, 168353.27, -187500.02, 168291.00, 0.05, 0.05, -0.94
137, 0.00, -128537.19, 0.00, -187500.02, 168389.41, 168392.52, -187500.02, 168330.17, 0.05, 0.05, -0.94
138, 0.00, -129365.12, 0.00, -187500.02, 168385.92, 168389.09, -187500.02, 168326.72, 0.05, 0.05, -0.94
139, 0.00, -155049.22, 0.00, -187246.95, 168339.52, 168342.78, -187500.02, 168280.44, 0.05, 0.05, -0.94
140, 0.00, -157050.38, 0.00, -187217.59, 168334.92, 168338.22, -187500.02, 168275.97, 0.05, 0.05, -0.94
141, 0.00, -132168.92, 0.00, -187500.02, 168378.09, 168381.47, -187500.02, 168319.11, 0.05, 0.05, -0.94
142, 0.00, -126294.88, 0.00, -187500.02, 168388.17, 168391.39, -187500.02, 168329.02, 0.04, 0.05, -0.95
143, 0.00, -151033.13, 0.00, -187295.39, 168344.75, 168347.83, -187500.02, 168285.52, 0.04, 0.05, -0.95
144, 0.00, -159489.58, 0.00, -187172.58, 168327.81, 168330.84, -187500.02, 168268.67, 0.04, 0.05, -0.95
145, 0.00, -136519.80, 0.00, -187494.66, 168363.55, 168366.81, -187500.02, 168304.39, 0.04, 0.05, -0.95
146, 0.00, -124373.23, 0.00, -187500.02, 168381.58, 168384.72, -187500.02, 168322.22, 0.04, 0.05, -0.95
147, 0.00, -146385.48, 0.00, -187343.86, 168342.06, 168345.38, -187500.02, 168282.88, 0.05, 0.05, -0.94
148, 0.00, -160764.47, 0.00, -187137.67, 168315.98, 168319.27, -187500.02, 168256.89, 0.05, 0.05, -0.94
149, 0.00, -141226.39, 0.00, -187412.42, 168346.94, 168350.19, -187500.02, 168287.75, 0.05, 0.05, -0.94
150, 0.00, -123697.70, 0.00, -187500.02, 168372.41, 168375.73, -187500.02, 168313.28, 0.05, 0.05, -0.94
151, 0.00, -141428.44, 0.00, -187396.64, 168339.78, 168343.14, -187500.02, 168280.67, 0.05, 0.05, -0.94
152, 0.00, -160827.41, 0.00, -187119.83, 168306.50, 168309.81, -187500.02, 168247.50, 0.05, 0.05, -0.94
153, 0.00, -146028.86, 0.00, -187330.36, 168332.39, 168335.55, -187500.02, 168273.27, 0.05, 0.05, -0.94
154, 0.00, -124370.40, 0.00, -187500.02, 168366.39, 168369.50, -187500.02, 168307.17, 0.05, 0.05, -0.94
155, 0.00, -136544.55, 0.00, -187452.31, 168341.58, 168344.73, -187500.02, 168282.45, 0.05, 0.05, -0.94
156, 0.00, -159672.59, 0.00, -187120.86, 168300.31, 168303.47, -187500.02, 168241.27, 0.05, 0.05, -0.94
157, 0.00, -150559.56, 0.00, -187249.59, 168314.95, 168318.22, -187500.02, 168255.97, 0.04, 0.05, -0.94
158, 0.00, -126291.94, 0.00, -187500.02, 168357.42, 168360.69, -187500.02, 168298.34, 0.04, 0.05, -0.94
159, 0.00, -132110.97, 0.00, -187500.02, 168344.30, 168347.64, -187500.02, 168285.25, 0.04, 0.05, -0.94
160, 0.00, -157362.28, 0.00, -187141.34, 168299.11, 168302.44, -187500.02, 168240.08, 0.04, 0.05, -0.94
161, 0.00, -154584.38, 0.00, -187180.45, 168303.41, 168306.64, -187500.02, 168244.22, 0.04, 0.05, -0.94
162, 0.00, -129355.44, 0.00, -187500.02, 168345.58, 168348.70, -187500.02, 168286.30, 0.04, 0.06, -0.94
163, 0.00, -128413.98, 0.00, -187500.02, 168343.08, 168346.25, -187500.02, 168283.91, 0.04, 0.06, -0.94
164, 0.00, -154042.09, 0.00, -187172.98, 168296.19, 168299.38, -187500.02, 168237.08, 0.04, 0.06, -0.94
165, 0.00, -157772.44, 0.00, -187118.25, 168287.89, 168291.13, -187500.02, 168228.67, 0.04, 0.06, -0.94
166, 0.00, -133231.91, 0.00, -187466.00, 168330.11, 168333.28, -187500.02, 168270.88, 0.04, 0.06, -0.94
167, 0.00, -125658.04, 0.00, -187500.02, 168340.39, 168343.50, -187500.02, 168281.14, 0.04, 0.05, -0.94
168, 0.00, -149846.97, 0.00, -187218.78, 168296.58, 168299.75, -187500.02, 168237.42, 0.04, 0.05, -0.94
169, 0.00, -159911.61, 0.00, -187075.28, 168279.02, 168282.19, -187500.02, 168219.92, 0.04, 0.05, -0.94
170, 0.00, -137692.84, 0.00, -187386.72, 168313.45, 168316.67, -187500.02, 168254.36, 0.04, 0.05, -0.94
171, 0.00, -124059.58, 0.00, -187500.02, 168333.50, 168336.77, -187500.02, 168274.39, 0.04, 0.05, -0.94
172, 0.00, -145060.09, 0.00, -187271.67, 168296.42, 168299.75, -187500.02, 168237.39, 0.04, 0.05, -0.94
173, 0.00, -160799.03, 0.00, -187045.50, 168267.30, 168270.66, -187500.02, 168208.22, 0.04, 0.05, -0.94
174, 0.00, -142358.20, 0.00, -187306.27, 168297.98, 168301.23, -187500.02, 168238.80, 0.04, 0.05, -0.94
175, 0.00, -123622.17, 0.00, -187500.02, 168329.38, 168332.53, -187500.02, 168270.09, 0.04, 0.05, -0.94
176, 0.00, -139995.75, 0.00, -187330.02, 168298.27, 168301.44, -187500.02, 168239.09, 0.04, 0.05, -0.94
177, 0.00, -160475.33, 0.00, -187037.47, 168262.56, 168265.78, -187500.02, 168203.44, 0.04, 0.05, -0.94
178, 0.00, -147057.47, 0.00, -187226.30, 168283.91, 168287.08, -187500.02, 168224.67, 0.05, 0.05, -0.94
179, 0.00, -124582.30, 0.00, -187500.02, 168320.88, 168324.09, -187500.02, 168261.73, 0.05, 0.05, -0.94
180, 0.00, -135150.63, 0.00, -187387.98, 168302.30, 168305.50, -187500.02, 168243.16, 0.05, 0.05, -0.94
181, 0.00, -158952.56, 0.00, -187047.81, 168261.20, 168264.44, -187500.02, 168201.92, 0.05, 0.05, -0.94
182, 0.00, -151414.02, 0.00, -187153.25, 168272.55, 168275.86, -187500.02, 168213.34, 0.05, 0.05, -0.94
183, 0.00, -126730.32, 0.00, -187500.02, 168313.23, 168316.61, -187500.02, 168254.11, 0.04, 0.05, -0.94
184, 0.00, -130759.16, 0.00, -187437.55, 168303.83, 168307.17, -187500.02, 168244.80, 0.04, 0.05, -0.94
185, 0.00, -156240.23, 0.00, -187070.58, 168257.78, 168261.16, -187500.02, 168198.41, 0.04, 0.05, -0.94
186, 0.00, -155131.27, 0.00, -187085.39, 168258.73, 168262.03, -187500.02, 168199.31, 0.04, 0.05, -0.94
187, 0.00, -129910.48, 0.00, -187440.30, 168299.83, 168303.13, -187500.02, 168240.66, 0.04, 0.05, -0.94
188, 0.00, -127165.87, 0.00, -187473.59, 168302.19, 168305.45, -187500.02, 168243.00, 0.05, 0.04, -0.94
189, 0.00, -152581.67, 0.00, -187107.45, 168256.53, 168259.72, -187500.02, 168196.89, 0.05, 0.04, -0.94
190, 0.00, -158017.13, 0.00, -187028.66, 168245.78, 168248.95, -187500.02, 168185.83, 0.05, 0.04, -0.94
191, 0.00, -133945.19, 0.00, -187366.73, 168284.20, 168287.44, -187500.02, 168225.02, 0.05, 0.04, -0.94
192, 0.00, -124693.65, 0.00, -187492.66, 168297.66, 168300.98, -187500.02, 168238.58, 0.05, 0.04, -0.94
193, 0.00, -148214.72, 0.00, -187153.59, 168255.80, 168259.08, -187500.02, 168196.17, 0.05, 0.05, -0.94
194, 0.00, -159903.84, 0.00, -186987.95, 168236.45, 168239.70, -187500.02, 168175.70, 0.05, 0.05, -0.94
195, 0.00, -138602.77, 0.00, -187288.75, 168271.55, 168274.81, -187500.02, 168212.27, 0.05, 0.05, -0.94
196, 0.00, -123518.77, 0.00, -187495.81, 168292.72, 168295.91, -187500.02, 168233.48, 0.05, 0.05, -0.94
197, 0.00, -143501.23, 0.00, -187207.83, 168257.53, 168260.70, -187500.02, 168197.78, 0.05, 0.05, -0.94
198, 0.00, -160726.05, 0.00, -186961.55, 168227.11, 168230.27, -187500.02, 168165.31, 0.05, 0.05, -0.94
199, 0.00, -143618.73, 0.00, -187202.77, 168254.56, 168257.64, -187500.02, 168194.91, 0.05, 0.05, -0.94
200, 0.00, -123828.28, 0.00, -187479.88, 168286.84, 168290.02, -187500.02, 168227.56, 0.05, 0.05, -0.94
201, 0.00, -138861.95, 0.00, -187261.91, 168259.92, 168263.05, -187500.02, 168200.11, 0.05, 0.05, -0.94
202, 0.00, -160468.27, 0.00, -186951.19, 168220.31, 168223.42, -187500.02, 168156.59, 0.05, 0.05, -0.94
203, 0.00, -148631.98, 0.00, -187119.00, 168239.66, 168242.88, -187500.02, 168178.94, 0.05, 0.05, -0.95
204, 0.00, -125494.05, 0.00, -187444.50, 168277.34, 168280.59, -187500.02, 168218.16, 0.05, 0.05, -0.95
205, 0.00, -134482.53, 0.00, -187311.33, 168260.03, 168263.30, -187500.02, 168200.58, 0.05, 0.05, -0.95
206, 0.00, -158977.11, 0.00, -186959.17, 168215.98, 168219.17, -187500.02, 168152.38, 0.05, 0.05, -0.95
207, 0.00, -153185.38, 0.00, -187040.27, 168224.05, 168227.14, -187500.02, 168162.05, 0.05, 0.05, -0.95
208, 0.00, -128261.62, 0.00, -187392.28, 168266.11, 168269.11, -187500.02, 168206.81, 0.05, 0.04, -0.94
209, 0.00, -130601.22, 0.00, -187351.72, 168258.05, 168261.16, -187500.02, 168198.56, 0.05, 0.04, -0.94
210, 0.00, -156269.02, 0.00, -186980.94, 168210.48, 168213.77, -187500.02, 168148.25, 0.05, 0.04, -0.94
211, 0.00, -156885.22, 0.00, -186973.14, 168210.34, 168213.55, -187500.02, 168148.14, 0.05, 0.04, -0.94
212, 0.00, -131813.69, 0.00, -187328.78, 168253.94, 168257.17, -187500.02, 168194.55, 0.05, 0.04, -0.94
213, 0.00, -127311.48, 0.00, -187388.02, 168260.44, 168263.64, -187500.02, 168201.19, 0.05, 0.05, -0.94
214, 0.00, -152329.33, 0.00, -187025.73, 168213.72, 168216.98, -187500.02, 168152.50, 0.05, 0.05, -0.94
215, 0.00, -159358.92, 0.00, -186924.77, 168201.19, 168204.47, -187500.02, 168138.84, 0.05, 0.05, -0.94
216, 0.00, -135817.33, 0.00, -187255.00, 168238.36, 168241.70, -187500.02, 168178.70, 0.05, 0.05, -0.94
217, 0.00, -124950.54, 0.00, -187403.48, 168254.41, 168257.67, -187500.02, 168195.00, 0.05, 0.05, -0.94
218, 0.00, -147620.34, 0.00, -187080.11, 168217.77, 168221.06, -187500.02, 168157.11, 0.05, 0.04, -0.94
219, 0.00, -160698.23, 0.00, -186893.25, 168194.84, 168198.06, -187500.02, 168132.52, 0.05, 0.04, -0.94
220, 0.00, -140275.34, 0.00, -187180.19, 168227.22, 168230.38, -187500.02, 168167.34, 0.05, 0.04, -0.94
221, 0.00, -123849.76, 0.00, -187411.39, 168256.06, 168259.19, -187500.02, 168196.78, 0.05, 0.04, -0.94
222, 0.00, -142570.75, 0.00, -187139.91, 168222.22, 168225.34, -187500.02, 168162.03, 0.05, 0.04, -0.94
223, 0.00, -160917.72, 0.00, -186874.50, 168186.95, 168190.05, -187500.02, 168124.73, 0.05, 0.05, -0.94
224, 0.00, -144979.13, 0.00, -187099.92, 168213.28, 168216.52, -187500.02, 168152.70, 0.05, 0.05, -0.94
225, 0.00, -124131.44, 0.00, -187392.08, 168247.31, 168250.56, -187500.02, 168188.06, 0.05, 0.05, -0.94
226, 0.00, -137579.70, 0.00, -187196.08, 168223.09, 168226.28, -187500.02, 168163.20, 0.05, 0.05, -0.94
227, 0.00, -160001.14, 0.00, -186873.92, 168182.50, 168185.69, -187500.02, 168120.97, 0.05, 0.05, -0.94
228, 0.00, -149604.33, 0.00, -187019.23, 168197.63, 168200.84, -187500.02, 168136.75, 0.05, 0.05, -0.94
229, 0.00, -125817.63, 0.00, -187352.56, 168235.41, 168238.63, -187500.02, 168175.95, 0.05, 0.05, -0.94
230, 0.00, -133050.14, 0.00, -187245.83, 168222.42, 168225.69, -187500.02, 168162.77, 0.05, 0.05, -0.94
231, 0.00, -157995.63, 0.00, -186889.67, 168179.73, 168182.91, -187500.02, 168118.59, 0.05, 0.05, -0.94
232, 0.00, -153859.17, 0.00, -186947.56, 168185.61, 168188.69, -187500.02, 168124.42, 0.05, 0.05, -0.94
233, 0.00, -128802.95, 0.00, -187301.72, 168227.89, 168231.09, -187500.02, 168168.42, 0.05, 0.04, -0.93
234, 0.00, -129367.22, 0.00, -187286.27, 168222.38, 168225.59, -187500.02, 168162.86, 0.05, 0.04, -0.93
235, 0.00, -155116.55, 0.00, -186917.19, 168177.25, 168180.42, -187500.02, 168116.50, 0.05, 0.04, -0.93
236, 0.00, -157542.91, 0.00, -186882.70, 168172.59, 168175.77, -187500.02, 168111.58, 0.05, 0.04, -0.93
237, 0.00, -132821.02, 0.00, -187230.67, 168212.41, 168215.72, -187500.02, 168152.70, 0.05, 0.04, -0.93
238, 0.00, -126657.09, 0.00, -187312.33, 168219.92, 168223.20, -187500.02, 168160.50, 0.05, 0.04, -0.94
239, 0.00, -151364.20, 0.00, -186956.59, 168175.72, 168178.83, -187500.02, 168115.48, 0.05, 0.04, -0.94
240, 0.00, -160161.67, 0.00, -186829.70, 168158.97, 168162.14, -187500.02, 168098.19, 0.05, 0.04, -0.94
241, 0.00, -137407.75, 0.00, -187147.97, 168193.36, 168196.53, -187500.02, 168133.42, 0.05, 0.04, -0.94
242, 0.00, -125008.25, 0.00, -187319.95, 168213.17, 168216.34, -187500.02, 168153.75, 0.05, 0.04, -0.94
243, 0.00, -146888.58, 0.00, -187006.28, 168176.05, 168179.27, -187500.02, 168115.73, 0.05, 0.04, -0.93
244, 0.00, -161598.92, 0.00, -186795.78, 168149.39, 168152.64, -187500.02, 168088.98, 0.05, 0.04, -0.93
245, 0.00, -142334.61, 0.00, -187065.56, 168178.75, 168181.94, -187500.02, 168118.59, 0.05, 0.04, -0.93
246, 0.00, -124606.55, 0.00, -187311.69, 168205.95, 168209.08, -187500.02, 168146.56, 0.05, 0.04, -0.93
247, 0.00, -142103.94, 0.00, -187059.13, 168175.48, 168178.56, -187500.02, 168115.42, 0.05, 0.04, -0.93
248, 0.00, -161748.84, 0.00, -186780.30, 168142.88, 168145.95, -187500.02, 168082.67, 0.05, 0.05, -0.94
249, 0.00, -147250.81, 0.00, -186984.45, 168165.67, 168168.75, -187500.02, 168105.25, 0.05, 0.05, -0.94
250, 0.00, -125480.81, 0.00, -187291.30, 168202.44, 168205.50, -187500.02, 168142.98, 0.05, 0.05, -0.94
251, 0.00, -137409.16, 0.00, -187119.44, 168182.97, 168186.05, -187500.02, 168123.06, 0.05, 0.05, -0.94
252, 0.00, -160722.45, 0.00, -186782.61, 168138.52, 168141.63, -187500.02, 168078.36, 0.05, 0.05, -0.94
253, 0.00, -151981.69, 0.00, -186904.97, 168151.25, 168154.52, -187500.02, 168090.80, 0.05, 0.05, -0.95
254, 0.00, -127658.19, 0.00, -187247.70, 168191.66, 168194.77, -187500.02, 168132.03, 0.05, 0.05, -0.95
255, 0.00, -133116.72, 0.00, -187163.02, 168178.30, 168181.41, -187500.02, 168118.59, 0.05, 0.05, -0.95
0, 0.00, -158437.58, 0.00, -186801.70, 168135.47, 168138.63, -187500.02, 168075.36, 0.05, 0.05, -0.95
1, 0.00, -155999.38, 0.00, -186836.50, 168139.45, 168142.53, -187500.02, 168079.09, 0.05, 0.05, -0.95
2, 0.00, -130794.23, 0.00, -187192.25, 168181.42, 168184.56, -187500.02, 168121.81, 0.04, 0.05, -0.95
3, 0.00, -129522.37, 0.00, -187207.36, 168183.64, 168186.80, -187500.02, 168124.09, 0.04, 0.05, -0.95
4, 0.00, -155044.03, 0.00, -186842.06, 168139.66, 168142.88, -187500.02, 168079.48, 0.04, 0.05, -0.95
5, 0.00, -158995.44, 0.00, -186783.33, 168130.17, 168133.44, -187500.02, 168069.89, 0.04, 0.05, -0.95
6, 0.00, -134522.88, 0.00, -187125.41, 168167.23, 168170.50, -187500.02, 168107.44, 0.04, 0.05, -0.95
7, 0.00, -126589.15, 0.00, -187231.75, 168177.45, 168180.70, -187500.02, 168117.98, 0.05, 0.04, -0.93
8, 0.00, -150601.83, 0.00, -186885.98, 168134.91, 168138.06, -187500.02, 168074.72, 0.05, 0.04, -0.93
9, 0.00, -160967.11, 0.00, -186736.39, 168115.05, 168118.22, -187500.02, 168054.95, 0.05, 0.04, -0.93
10, 0.00, -138930.81, 0.00, -187046.61, 168150.58, 168153.80, -187500.02, 168090.44, 0.05, 0.04, -0.93
11, 0.00, -125047.86, 0.00, -187238.83, 168172.13, 168175.23, -187500.02, 168112.63, 0.05, 0.04, -0.93
12, 0.00, -145886.39, 0.00, -186940.47, 168137.23, 168140.34, -187500.02, 168077.09, 0.05, 0.05, -0.94
13, 0.00, -161954.09, 0.00, -186711.72, 168109.52, 168112.66, -187500.02, 168049.59, 0.05, 0.05, -0.94
14, 0.00, -143806.56, 0.00, -186964.63, 168135.78, 168138.88, -187500.02, 168075.45, 0.05, 0.05, -0.94
15, 0.00, -124939.45, 0.00, -187227.61, 168165.05, 168168.19, -187500.02, 168105.77, 0.05, 0.05, -0.94
16, 0.00, -141086.73, 0.00, -186992.20, 168134.78, 168138.05, -187500.02, 168074.89, 0.05, 0.05, -0.94
17, 0.00, -161872.58, 0.00, -186697.41, 168100.36, 168103.55, -187500.02, 168040.59, 0.04, 0.05, -0.94
18, 0.00, -148821.64, 0.00, -186883.28, 168122.80, 168125.92, -187500.02, 168062.56, 0.04, 0.05, -0.94
19, 0.00, -126250.38, 0.00, -187198.30, 168157.38, 168160.53, -187500.02, 168097.92, 0.04, 0.05, -0.94
20, 0.00, -136519.52, 0.00, -187048.08, 168138.72, 168141.80, -187500.02, 168078.72, 0.04, 0.05, -0.94
21, 0.00, -160517.53, 0.00, -186704.42, 168096.25, 168099.44, -187500.02, 168036.34, 0.04, 0.05, -0.94
22, 0.00, -153346.95, 0.00, -186804.72, 168106.41, 168109.72, -187500.02, 168046.28, 0.05, 0.05, -0.95
23, 0.00, -128648.84, 0.00, -187153.59, 168148.06, 168151.30, -187500.02, 168088.52, 0.05, 0.05, -0.95
24, 0.00, -132369.48, 0.00, -187094.36, 168138.67, 168141.97, -187500.02, 168078.78, 0.05, 0.05, -0.95
25, 0.00, -157874.86, 0.00, -186725.84, 168090.95, 168094.28, -187500.02, 168030.80, 0.05, 0.05, -0.95
26, 0.00, -157052.58, 0.00, -186736.17, 168090.75, 168093.89, -187500.02, 168030.53, 0.05, 0.05, -0.95
27, 0.00, -131872.30, 0.00, -187090.84, 168131.89, 168135.11, -187500.02, 168071.95, 0.05, 0.05, -0.94
28, 0.00, -128801.92, 0.00, -187129.95, 168135.72, 168138.94, -187500.02, 168076.02, 0.05, 0.05, -0.94
29, 0.00, -154117.31, 0.00, -186766.00, 168090.91, 168094.13, -187500.02, 168030.66, 0.05, 0.05, -0.94
30, 0.00, -159832.98, 0.00, -186684.52, 168080.83, 168084.05, -187500.02, 168020.94, 0.05, 0.05, -0.94
31, 0.00, -135861.16, 0.00, -187022.72, 168120.25, 168123.45, -187500.02, 168060.23, 0.05, 0.05, -0.94
32, 0.00, -126262.02, 0.00, -187153.25, 168133.75, 168136.98, -187500.02, 168074.16, 0.04, 0.04, -0.94
33, 0.00, -149649.94, 0.00, -186814.91, 168090.41, 168093.67, -187500.02, 168030.19, 0.04, 0.04, -0.94
34, 0.00, -161658.36, 0.00, -186641.11, 168066.53, 168069.84, -187500.02, 168006.81, 0.04, 0.04, -0.94
35, 0.00, -140573.61, 0.00, -186939.50, 168101.58, 168104.77, -187500.02, 168041.34, 0.04, 0.04, -0.94
36, 0.00, -125258.77, 0.00, -187154.09, 168126.98, 168130.11, -187500.02, 168067.31, 0.04, 0.04, -0.94
37, 0.00, -145052.28, 0.00, -186867.08, 168090.09, 168093.27, -187500.02, 168029.70, 0.04, 0.04, -0.94
38, 0.00, -162587.44, 0.00, -186617.66, 168059.78, 168062.94, -187500.02, 168000.05, 0.04, 0.04, -0.94
39, 0.00, -145771.08, 0.00, -186857.83, 168089.50, 168092.73, -187500.02, 168028.94, 0.04, 0.04, -0.94
40, 0.00, -125839.45, 0.00, -187136.84, 168121.28, 168124.52, -187500.02, 168061.69, 0.04, 0.04, -0.94
41, 0.00, -140620.23, 0.00, -186920.56, 168092.63, 168095.80, -187500.02, 168032.20, 0.04, 0.04, -0.94
42, 0.00, -162466.59, 0.00, -186607.42, 168053.06, 168056.23, -187500.02, 167993.34, 0.06, 0.05, -0.93
43, 0.00, -150968.42, 0.00, -186769.77, 168071.02, 168074.23, -187500.02, 168010.53, 0.06, 0.05, -0.93
44, 0.00, -127737.55, 0.00, -187097.30, 168109.52, 168112.69, -187500.02, 168049.78, 0.06, 0.05, -0.93
45, 0.00, -136423.94, 0.00, -186970.33, 168094.09, 168097.34, -187500.02, 168034.11, 0.06, 0.05, -0.93
46, 0.00, -161043.48, 0.00, -186617.66, 168050.56, 168053.80, -187500.02, 167990.92, 0.06, 0.05, -0.93
47, 0.00, -155576.20, 0.00, -186692.84, 168056.86, 168060.09, -187500.02, 167996.63, 0.05, 0.04, -0.94
48, 0.00, -130621.22, 0.00, -187043.02, 168096.69, 168099.84, -187500.02, 168036.70, 0.05, 0.04, -0.94
49, 0.00, -132577.64, 0.00, -187009.31, 168090.66, 168093.86, -187500.02, 168030.69, 0.05, 0.04, -0.94
50, 0.00, -158265.91, 0.00, -186638.38, 168043.03, 168046.31, -187500.02, 167983.25, 0.05, 0.04, -0.94
51, 0.00, -159238.34, 0.00, -186624.31, 168040.70, 168043.94, -187500.02, 167980.86, 0.05, 0.04, -0.94
52, 0.00, -134223.70, 0.00, -186976.41, 168081.05, 168084.36, -187500.02, 168020.78, 0.05, 0.05, -0.94
53, 0.00, -129436.76, 0.00, -187041.05, 168088.78, 168092.02, -187500.02, 168028.92, 0.05, 0.05, -0.94
54, 0.00, -154436.41, 0.00, -186680.41, 168043.19, 168046.33, -187500.02, 167983.03, 0.05, 0.05, -0.94
55, 0.00, -161863.59, 0.00, -186574.19, 168029.59, 168032.83, -187500.02, 167969.91, 0.05, 0.05, -0.94
56, 0.00, -138499.09, 0.00, -186904.31, 168068.33, 168071.66, -187500.02, 168008.09, 0.05, 0.05, -0.94
57, 0.00, -127392.89, 0.00, -187058.88, 168086.77, 168089.98, -187500.02, 168027.17, 0.05, 0.05, -0.94
58, 0.00, -149939.75, 0.00, -186735.88, 168048.44, 168051.67, -187500.02, 167988.38, 0.05, 0.05, -0.94
59, 0.00, -163331.03, 0.00, -186543.09, 168023.02, 168026.27, -187500.02, 167963.47, 0.05, 0.05, -0.94
60, 0.00, -143142.13, 0.00, -186826.36, 168053.84, 168057.17, -187500.02, 167993.58, 0.05, 0.05, -0.94
61, 0.00, -126470.84, 0.00, -187057.09, 168078.25, 168081.72, -187500.02, 168018.70, 0.05, 0.05, -0.94
62, 0.00, -144984.89, 0.00, -186788.98, 168044.61, 168047.94, -187500.02, 167984.63, 0.05, 0.04, -0.95
63, 0.00, -163643.94, 0.00, -186521.14, 168010.19, 168013.47, -187500.02, 167950.84, 0.05, 0.04, -0.95
64, 0.00, -147981.06, 0.00, -186742.58, 168035.69, 168038.98, -187500.02, 167975.39, 0.05, 0.04, -0.95
65, 0.00, -126940.34, 0.00, -187038.36, 168070.34, 168073.48, -187500.02, 168010.56, 0.05, 0.04, -0.95
66, 0.00, -140118.56, 0.00, -186845.63, 168045.14, 168048.33, -187500.02, 167984.84, 0.05, 0.04, -0.95
67, 0.00, -162759.39, 0.00, -186522.69, 168005.39, 168008.61, -187500.02, 167945.92, 0.05, 0.04, -0.94
68, 0.00, -152688.81, 0.00, -186664.34, 168020.03, 168023.27, -187500.02, 167959.70, 0.05, 0.04, -0.94
69, 0.00, -128833.26, 0.00, -186997.08, 168055.36, 168058.69, -187500.02, 167995.44, 0.05, 0.04, -0.94
70, 0.00, -135829.58, 0.00, -186891.36, 168039.47, 168042.84, -187500.02, 167979.17, 0.05, 0.04, -0.94
71, 0.00, -160948.52, 0.00, -186534.48, 167997.27, 168000.64, -187500.02, 167937.69, 0.05, 0.04, -0.94
72, 0.00, -157179.77, 0.00, -186585.97, 168000.56, 168003.91, -187500.02, 167940.56, 0.05, 0.04, -0.94
73, 0.00, -132123.75, 0.00, -186941.98, 168043.94, 168047.22, -187500.02, 167983.61, 0.05, 0.04, -0.94
74, 0.00, -132461.94, 0.00, -186934.27, 168042.48, 168045.58, -187500.02, 167982.31, 0.05, 0.04, -0.94
75, 0.00, -158333.50, 0.00, -186562.92, 167995.55, 167998.67, -187500.02, 167935.73, 0.05, 0.04, -0.94
76, 0.00, -161196.34, 0.00, -186521.39, 167988.06, 167991.30, -187500.02, 167928.36, 0.05, 0.04, -0.94
77, 0.00, -136694.23, 0.00, -186866.44, 168026.50, 168029.75, -187500.02, 167965.86, 0.05, 0.04, -0.94
78, 0.00, -130488.07, 0.00, -186952.42, 168036.52, 168039.78, -187500.02, 167976.73, 0.05, 0.04, -0.94
79, 0.00, -155329.08, 0.00, -186595.95, 167991.59, 167994.92, -187500.02, 167932.00, 0.05, 0.04, -0.94
80, 0.00, -164682.69, 0.00, -186462.06, 167973.06, 167976.34, -187500.02, 167913.86, 0.05, 0.04, -0.94
81, 0.00, -142312.84, 0.00, -186779.16, 168009.86, 168013.09, -187500.02, 167949.44, 0.05, 0.04, -0.94
82, 0.00, -129961.60, 0.00, -186949.47, 168027.00, 168030.19, -187500.02, 167966.97, 0.05, 0.05, -0.95
83, 0.00, -151989.22, 0.00, -186632.19, 167986.41, 167989.63, -187500.02, 167926.33, 0.05, 0.05, -0.95
84, 0.00, -167218.16, 0.00, -186415.70, 167958.73, 167961.97, -187500.02, 167899.58, 0.05, 0.05, -0.95
85, 0.00, -148390.98, 0.00, -186681.88, 167988.31, 167991.50, -187500.02, 167928.11, 0.05, 0.05, -0.95
86, 0.00, -130731.95, 0.00, -186929.06, 168015.63, 168018.91, -187500.02, 167955.66, 0.05, 0.05, -0.95
87, 0.00, -148255.81, 0.00, -186676.88, 167984.34, 167987.56, -187500.02, 167924.27, 0.05, 0.05, -0.95
88, 0.00, -168314.48, 0.00, -186391.14, 167948.67, 167951.83, -187500.02, 167889.38, 0.05, 0.05, -0.95
89, 0.00, -154187.63, 0.00, -186591.17, 167970.88, 167973.98, -187500.02, 167910.75, 0.05, 0.05, -0.95
90, 0.00, -132374.20, 0.00, -186899.09, 168007.17, 168010.23, -187500.02, 167946.83, 0.05, 0.05, -0.95
91, 0.00, -144111.61, 0.00, -186726.58, 167983.56, 167986.70, -187500.02, 167923.23, 0.05, 0.05, -0.95
92, 0.00, -167536.16, 0.00, -186391.50, 167941.53, 167944.81, -187500.02, 167882.25, 0.05, 0.05, -0.95
93, 0.00, -158946.72, 0.00, -186511.27, 167953.38, 167956.67, -187500.02, 167893.72, 0.05, 0.05, -0.95
94, 0.00, -134446.72, 0.00, -186852.91, 167990.45, 167993.72, -187500.02, 167930.11, 0.05, 0.05, -0.95
95, 0.00, -139505.81, 0.00, -186775.78, 167979.86, 167983.09, -187500.02, 167919.75, 0.05, 0.05, -0.95
96, 0.00, -164652.84, 0.00, -186415.28, 167936.00, 167939.22, -187500.02, 167876.73, 0.05, 0.05, -0.95
97, 0.00, -162205.22, 0.00, -186447.00, 167937.30, 167940.45, -187500.02, 167877.89, 0.05, 0.05, -0.95
98, 0.00, -136718.70, 0.00, -186804.83, 167978.47, 167981.59, -187500.02, 167918.28, 0.05, 0.05, -0.95
99, 0.00, -134870.78, 0.00, -186826.84, 167980.89, 167984.13, -187500.02, 167920.69, 0.05, 0.05, -0.95
100, 0.00, -160047.06, 0.00, -186469.84, 167941.56, 167944.78, -187500.02, 167881.98, 0.05, 0.05, -0.95
101, 0.00, -163966.58, 0.00, -186413.36, 167934.53, 167937.72, -187500.02, 167875.16, 0.05, 0.05, -0.95
102, 0.00, -139161.20, 0.00, -186758.27, 167971.19, 167974.42, -187500.02, 167910.83, 0.06, 0.05, -0.95
103, 0.00, -130570.44, 0.00, -186873.08, 167982.55, 167985.84, -187500.02, 167922.33, 0.06, 0.05, -0.95
104, 0.00, -154082.11, 0.00, -186534.75, 167942.27, 167945.50, -187500.02, 167882.45, 0.06, 0.05, -0.95
105, 0.00, -164233.81, 0.00, -186390.09, 167925.59, 167928.98, -187500.02, 167866.36, 0.06, 0.05, -0.95
106, 0.00, -141863.09, 0.00, -186705.45, 167963.05, 167966.27, -187500.02, 167902.66, 0.06, 0.05, -0.95
107, 0.00, -127286.74, 0.00, -186907.52, 167986.72, 167989.88, -187500.02, 167926.59, 0.05, 0.04, -0.94
108, 0.00, -147515.08, 0.00, -186614.39, 167950.33, 167953.59, -187500.02, 167890.41, 0.05, 0.04, -0.94
109, 0.00, -163339.39, 0.00, -186386.63, 167921.78, 167925.03, -187500.02, 167862.47, 0.05, 0.04, -0.94
110, 0.00, -144899.47, 0.00, -186646.20, 167952.23, 167955.52, -187500.02, 167891.91, 0.05, 0.04, -0.94
111, 0.00, -125423.39, 0.00, -186917.31, 167983.36, 167986.63, -187500.02, 167923.42, 0.05, 0.04, -0.94
112, 0.00, -140986.55, 0.00, -186688.69, 167953.77, 167957.13, -187500.02, 167893.77, 0.05, 0.05, -0.94
0, 0.00, -125962.78, 0.00, 0.00, 167961.80, 167965.22, -187500.02, 167908.67, 0.05, 0.05, -0.95
1, 0.00, -132314.55, 0.00, 0.00, 167948.39, 167951.77, -187500.02, 167895.28, 0.05, 0.05, -0.95
2, 0.00, -157347.67, 0.00, 0.00, 167907.91, 167911.19, -187500.02, 167855.47, 0.05, 0.05, -0.94
3, 0.00, -154082.89, 0.00, 0.00, 167906.81, 167910.02, -187500.02, 167854.16, 0.05, 0.05, -0.94
4, 0.00, -129098.02, 0.00, 0.00, 167938.22, 167941.53, -187500.02, 167884.95, 0.05, 0.05, -0.94
5, 0.00, -128930.71, 0.00, 0.00, 167931.95, 167935.41, -187500.02, 167878.94, 0.05, 0.05, -0.94
6, 0.00, -154699.69, 0.00, 0.00, 167889.89, 167893.20, -187500.02, 167837.34, 0.05, 0.05, -0.94
7, 0.00, -158097.84, 0.00, 0.00, 167880.02, 167883.34, -187500.02, 167827.70, 0.05, 0.05, -0.94
8, 0.00, -133826.61, 0.00, 0.00, 167909.98, 167913.25, -187500.02, 167856.77, 0.05, 0.05, -0.94
9, 0.00, -127165.93, 0.00, 0.00, 167912.53, 167915.70, -187500.02, 167859.30, 0.05, 0.05, -0.94
10, 0.00, -151748.25, 0.00, 0.00, 167874.42, 167877.70, -187500.02, 167821.77, 0.05, 0.05, -0.94
11, 0.00, -161510.73, 0.00, 0.00, 167856.77, 167859.98, -187500.02, 167804.67, 0.05, 0.05, -0.94
12, 0.00, -139466.47, 0.00, 0.00, 167880.92, 167884.08, -187500.02, 167827.75, 0.05, 0.05, -0.95
13, 0.00, -126754.46, 0.00, 0.00, 167891.64, 167894.98, -187500.02, 167838.59, 0.05, 0.05, -0.95
14, 0.00, -148372.13, 0.00, 0.00, 167853.58, 167856.86, -187500.02, 167800.78, 0.05, 0.05, -0.95
15, 0.00, -163994.34, 0.00, 0.00, 167825.97, 167829.09, -187500.02, 167773.80, 0.05, 0.05, -0.95
16, 0.00, -145643.27, 0.00, 0.00, 167847.53, 167850.73, -187500.02, 167794.47, 0.05, 0.05, -0.95
17, 0.00, -127680.02, 0.00, 0.00, 167866.38, 167869.55, -187500.02, 167812.80, 0.05, 0.05, -0.94
18, 0.00, -144730.30, 0.00, 0.00, 167837.52, 167840.78, -187500.02, 167784.33, 0.05, 0.05, -0.94
19, 0.00, -165130.14, 0.00, 0.00, 167802.25, 167805.52, -187500.02, 167750.03, 0.05, 0.05, -0.94
20, 0.00, -151619.23, 0.00, 0.00, 167816.25, 167819.44, -187500.02, 167763.42, 0.05, 0.05, -0.94
21, 0.00, -129680.05, 0.00, 0.00, 167842.03, 167845.23, -187500.02, 167788.08, 0.05, 0.05, -0.94
22, 0.00, -140868.89, 0.00, 0.00, 167824.47, 167827.75, -187500.02, 167771.05, 0.05, 0.05, -0.95
23, 0.00, -164553.63, 0.00, 0.00, 167786.89, 167790.11, -187500.02, 167734.69, 0.05, 0.05, -0.95
24, 0.00, -156701.53, 0.00, 0.00, 167791.83, 167795.05, -187500.02, 167739.28, 0.05, 0.05, -0.95
25, 0.00, -132298.77, 0.00, 0.00, 167820.73, 167823.95, -187500.02, 167766.69, 0.05, 0.05, -0.95
26, 0.00, -136909.81, 0.00, 0.00, 167807.13, 167810.25, -187500.02, 167753.22, 0.05, 0.05, -0.95
27, 0.00, -162280.91, 0.00, 0.00, 167769.75, 167772.86, -187500.02, 167717.42, 0.05, 0.05, -0.95
28, 0.00, -160695.48, 0.00, 0.00, 167768.08, 167771.23, -187500.02, 167715.70, 0.05, 0.05, -0.95
29, 0.00, -135533.98, 0.00, 0.00, 167796.75, 167799.88, -187500.02, 167742.89, 0.05, 0.05, -0.95
30, 0.00, -133297.33, 0.00, 0.00, 167794.83, 167798.00, -187500.02, 167740.77, 0.05, 0.05, -0.95
31, 0.00, -158626.38, 0.00, 0.00, 167753.91, 167757.13, -187500.02, 167701.33, 0.05, 0.05, -0.95
32, 0.00, -163513.80, 0.00, 0.00, 167740.83, 167744.05, -187500.02, 167688.48, 0.05, 0.05, -0.94
33, 0.00, -139336.80, 0.00, 0.00, 167768.45, 167771.66, -187500.02, 167714.39, 0.05, 0.05, -0.94
34, 0.00, -130531.01, 0.00, 0.00, 167775.16, 167778.42, -187500.02, 167720.83, 0.05, 0.05, -0.94
35, 0.00, -154110.91, 0.00, 0.00, 167735.91, 167739.13, -187500.02, 167683.19, 0.05, 0.05, -0.94
