%OpenBCI Raw EEG Data
%
%Sample Rate = 250.0 Hz
%First Column = SampleIndex
%Other Columns = EEG data in microvolts followed by Accel Data (in G) interleaved with Aux Data
0, 0.00, 45863.18, 0.00, 0.00, 0.00, 0.00, 0.00, 0.00, 0.41, -0.29, 0.07
1, 0.00, 45867.92, 0.00, 0.00, 0.00, 0.00, 0.00, 0.00, 0.41, -0.29, 0.07
2, 0.00, 45865.98, 0.00, 0.00, 0.00, 0.00, 0.00, 0.00, 0.82, -0.56, 0.14
3, 0.00, 45856.17, 0.00, 0.00, 0.00, 0.00, 0.00, 0.00, 0.82, -0.56, 0.14
4, 0.00, 45848.37, 0.00, 0.00, 0.00, 0.00, 0.00, 0.00, 0.82, -0.56, 0.14
5, 0.00, 45867.14, 0.00, 0.00, 0.00, 0.00, 0.00, 0.00, 0.82, -0.56, 0.14
6, 0.00, 45862.13, 0.00, 0.00, 0.00, 0.00, 0.00, 0.00, 0.82, -0.56, 0.14
7, 0.00, 45857.31, 0.00, 0.00, 0.00, 0.00, 0.00, 0.00, 0.82, -0.56, 0.13
8, 0.00, 45845.73, 0.00, 0.00, 0.00, 0.00, 0.00, 0.00, 0.82, -0.56, 0.13
9, 0.00, 45852.32, 0.00, 0.00, 0.00, 0.00, 0.00, 0.00, 0.82, -0.56, 0.13
10, 0.00, 45857.73, 0.00, 0.00, 0.00, 0.00, 0.00, 0.00, 0.82, -0.56, 0.13
11, 0.00, 45858.40, 0.00, 0.00, 0.00, 0.00, 0.00, 0.00, 0.82, -0.56, 0.13
12, 0.00, 45860.26, 0.00, 0.00, 0.00, 0.00, 0.00, 0.00, 0.82, -0.56, 0.13
13, 0.00, 45867.23, 0.00, 0.00, 0.00, 0.00, 0.00, 0.00, 0.82, -0.56, 0.13
14, 0.00, 45871.39, 0.00, 0.00, 0.00, 0.00, 0.00, 0.00, 0.82, -0.56, 0.13
15, 0.00, 45872.62, 0.00, 0.00, 0.00, 0.00, 0.00, 0.00, 0.82, -0.56, 0.13
16, 0.00, 45850.82, 0.00, 0.00, 0.00, 0.00, 0.00, 0.00, 0.82, -0.56, 0.13
17, 0.00, 45856.91, 0.00, 0.00, 0.00, 0.00, 0.00, 0.00, 0.81, -0.57, 0.14
18, 0.00, 45864.06, 0.00, 0.00, 0.00, 0.00, 0.00, 0.00, 0.81, -0.57, 0.14
19, 0.00, 45853.04, 0.00, 0.00, 0.00, 0.00, 0.00, 0.00, 0.81, -0.57, 0.14
20, 0.00, 45842.02, 0.00, 0.00, 0.00, 0.00, 0.00, 0.00, 0.81, -0.57, 0.14
21, 0.00, 45862.71, 0.00, 0.00, 0.00, 0.00, 0.00, 0.00, 0.81, -0.57, 0.14
22, 0.00, 45869.36, 0.00, 0.00, 0.00, 0.00, 0.00, 0.00, 0.82, -0.56, 0.14
23, 0.00, 45864.95, 0.00, 0.00, 0.00, 0.00, 0.00, 0.00, 0.82, -0.56, 0.14
24, 0.00, 45862.49, 0.00, 0.00, 0.00, 0.00, 0.00, 0.00, 0.82, -0.56, 0.14
25, 0.00, 45864.41, 0.00, 0.00, 0.00, 0.00, 0.00, 0.00, 0.82, -0.56, 0.14
26, 0.00, 45877.60, 0.00, 0.00, 0.00, 0.00, 0.00, 0.00, 0.82, -0.56, 0.14
27, 0.00, 45875.16, 0.00, 0.00, 0.00, 0.00, 0.00, 0.00, 0.82, -0.57, 0.14
28, 0.00, 45863.23, 0.00, 0.00, 0.00, 0.00, 0.00, 0.00, 0.82, -0.57, 0.14
29, 0.00, 45859.05, 0.00, 0.00, 0.00, 0.00, 0.00, 0.00, 0.82, -0.57, 0.14
30, 0.00, 45862.67, 0.00, 0.00, 0.00, 0.00, 0.00, 0.00, 0.82, -0.57, 0.14
31, 0.00, 45872.44, 0.00, 0.00, 0.00, 0.00, 0.00, 0.00, 0.82, -0.57, 0.14
32, 0.00, 45883.35, 0.00, 0.00, 0.00, 0.00, 0.00, 0.00, 0.81, -0.57, 0.14
33, 0.00, 45874.63, 0.00, 0.00, 0.00, 0.00, 0.00, 0.00, 0.81, -0.57, 0.14
34, 0.00, 45880.08, 0.00, 0.00, 0.00, 0.00, 0.00, 0.00, 0.81, -0.57, 0.14
35, 0.00, 45876.42, 0.00, 0.00, 0.00, 0.00, 0.00, 0.00, 0.81, -0.57, 0.14
36, 0.00, 45871.68, 0.00, 0.00, 0.00, 0.00, 0.00, 0.00, 0.81, -0.57, 0.14
37, 0.00, 45854.78, 0.00, 0.00, 0.00, 0.00, 0.00, 0.00, 0.81, -0.57, 0.13
38, 0.00, 45854.89, 0.00, 0.00, 0.00, 0.00, 0.00, 0.00, 0.81, -0.57, 0.13
39, 0.00, 45880.51, 0.00, 0.00, 0.00, 0.00, 0.00, 0.00, 0.81, -0.57, 0.13
40, 0.00, 45874.99, 0.00, 0.00, 0.00, 0.00, 0.00, 0.00, 0.81, -0.57, 0.13
41, 0.00, 45868.91, 0.00, 0.00, 0.00, 0.00, 0.00, 0.00, 0.81, -0.57, 0.13
42, 0.00, 45875.84, 0.00, 0.00, 0.00, 0.00, 0.00, 0.00, 0.81, -0.57, 0.14
43, 0.00, 45880.93, 0.00, 0.00, 0.00, 0.00, 0.00, 0.00, 0.81, -0.57, 0.14
44, 0.00, 45879.70, 0.00, 0.00, 0.00, 0.00, 0.00, 0.00, 0.81, -0.57, 0.14
45, 0.00, 45867.79, 0.00, 0.00, 0.00, 0.00, 0.00, 0.00, 0.81, -0.57, 0.14
46, 0.00, 45880.11, 0.00, 0.00, 0.00, 0.00, 0.00, 0.00, 0.81, -0.57, 0.14
47, 0.00, 45897.74, 0.00, 0.00, 0.00, 0.00, 0.00, 0.00, 0.81, -0.57, 0.14
48, 0.00, 45886.63, 0.00, 0.00, 0.00, 0.00, 0.00, 0.00, 0.81, -0.57, 0.14
49, 0.00, 45875.41, 0.00, 0.00, 0.00, 0.00, 0.00, 0.00, 0.81, -0.57, 0.14
50, 0.00, 45884.73, 0.00, 0.00, 0.00, 0.00, 0.00, 0.00, 0.81, -0.57, 0.14
51, 0.00, 45889.92, 0.00, 0.00, 0.00, 0.00, 0.00, 0.00, 0.81, -0.57, 0.14
52, 0.00, 45884.42, 0.00, 0.00, 0.00, 0.00, 0.00, 0.00, 0.81, -0.57, 0.14
53, 0.00, 45872.33, 0.00, 0.00, 0.00, 0.00, 0.00, 0.00, 0.81, -0.57, 0.14
54, 0.00, 45874.07, 0.00, 0.00, 0.00, 0.00, 0.00, 0.00, 0.81, -0.57, 0.14
55, 0.00, 45887.70, 0.00, 0.00, 0.00, 0.00, 0.00, 0.00, 0.81, -0.57, 0.14
56, 0.00, 45886.97, 0.00, 0.00, 0.00, 0.00, 0.00, 0.00, 0.81, -0.57, 0.14
57, 0.00, 45866.07, 0.00, 0.00, 0.00, 0.00, 0.00, 0.00, 0.82, -0.57, 0.13
58, 0.00, 45868.71, 0.00, 0.00, 0.00, 0.00, 0.00, 0.00, 0.82, -0.57, 0.13
59, 0.00, 45868.68, 0.00, 0.00, 0.00, 0.00, 0.00, 0.00, 0.82, -0.57, 0.13
60, 0.00, 45889.56, 0.00, 0.00, 0.00, 0.00, 0.00, 0.00, 0.82, -0.57, 0.13
61, 0.00, 45879.70, 0.00, 0.00, 0.00, 0.00, 0.00, 0.00, 0.82, -0.57, 0.13
62, 0.00, 45878.45, 0.00, 0.00, 0.00, 0.00, 0.00, 0.00, 0.82, -0.57, 0.13
63, 0.00, 45878.99, 0.00, 0.00, 0.00, 0.00, 0.00, 0.00, 0.82, -0.57, 0.13
64, 0.00, 45878.92, 0.00, 0.00, 0.00, 0.00, 0.00, 0.00, 0.82, -0.57, 0.13
65, 0.00, 45882.39, 0.00, 0.00, 0.00, 0.00, 0.00, 0.00, 0.82, -0.57, 0.13
66, 0.00, 45876.46, 0.00, 0.00, 0.00, 0.00, 0.00, 0.00, 0.82, -0.57, 0.13
67, 0.00, 45873.49, 0.00, 0.00, 0.00, 0.00, 0.00, 0.00, 0.81, -0.57, 0.13
68, 0.00, 45884.82, 0.00, 0.00, 0.00, 0.00, 0.00, 0.00, 0.81, -0.57, 0.13
69, 0.00, 45879.86, 0.00, 0.00, 0.00, 0.00, 0.00, 0.00, 0.81, -0.57, 0.13
70, 0.00, 45875.99, 0.00, 0.00, 0.00, 0.00, 0.00, 0.00, 0.81, -0.57, 0.13
71, 0.00, 45881.56, 0.00, 0.00, 0.00, 0.00, 0.00, 0.00, 0.81, -0.57, 0.13
72, 0.00, 45886.23, 0.00, 0.00, 0.00, 0.00, 0.00, 0.00, 0.81, -0.57, 0.13
73, 0.00, 45894.25, 0.00, 0.00, 0.00, 0.00, 0.00, 0.00, 0.81, -0.57, 0.13
74, 0.00, 45892.53, 0.00, 0.00, 0.00, 0.00, 0.00, 0.00, 0.81, -0.57, 0.13
75, 0.00, 45890.10, 0.00, 0.00, 0.00, 0.00, 0.00, 0.00, 0.81, -0.57, 0.13
76, 0.00, 45903.08, 0.00, 0.00, 0.00, 0.00, 0.00, 0.00, 0.81, -0.57, 0.13
77, 0.00, 45897.32, 0.00, 0.00, 0.00, 0.00, 0.00, 0.00, 0.82, -0.57, 0.13
78, 0.00, 45880.11, 0.00, 0.00, 0.00, 0.00, 0.00, 0.00, 0.82, -0.57, 0.13
79, 0.00, 45881.29, 0.00, 0.00, 0.00, 0.00, 0.00, 0.00, 0.82, -0.57, 0.13
80, 0.00, 45894.34, 0.00, 0.00, 0.00, 0.00, 0.00, 0.00, 0.82, -0.57, 0.13
81, 0.00, 45910.48, 0.00, 0.00, 0.00, 0.00, 0.00, 0.00, 0.82, -0.57, 0.13
82, 0.00, 45898.14, 0.00, 0.00, 0.00, 0.00, 0.00, 0.00, 0.82, -0.57, 0.13
83, 0.00, 45890.07, 0.00, 0.00, 0.00, 0.00, 0.00, 0.00, 0.82, -0.57, 0.13
84, 0.00, 45903.29, 0.00, 0.00, 0.00, 0.00, 0.00, 0.00, 0.82, -0.57, 0.13
85, 0.00, 45904.80, 0.00, 0.00, 0.00, 0.00, 0.00, 0.00, 0.82, -0.57, 0.13
86, 0.00, 45907.09, 0.00, 0.00, 0.00, 0.00, 0.00, 0.00, 0.82, -0.57, 0.13
87, 0.00, 45894.79, 0.00, 0.00, 0.00, 0.00, 0.00, 0.00, 0.82, -0.57, 0.13
88, 0.00, 45888.00, 0.00, 0.00, 0.00, 0.00, 0.00, 0.00, 0.82, -0.57, 0.13
89, 0.00, 45894.59, 0.00, 0.00, 0.00, 0.00, 0.00, 0.00, 0.82, -0.57, 0.13
90, 0.00, 45898.12, 0.00, 0.00, 0.00, 0.00, 0.00, 0.00, 0.82, -0.57, 0.13
91, 0.00, 45904.87, 0.00, 0.00, 0.00, 0.00, 0.00, 0.00, 0.82, -0.57, 0.13
92, 0.00, 45906.57, 0.00, 0.00, 0.00, 0.00, 0.00, 0.00, 0.82, -0.57, 0.13
93, 0.00, 45908.34, 0.00, 0.00, 0.00, 0.00, 0.00, 0.00, 0.82, -0.57, 0.13
94, 0.00, 45898.81, 0.00, 0.00, 0.00, 0.00, 0.00, 0.00, 0.82, -0.57, 0.13
95, 0.00, 45891.28, 0.00, 0.00, 0.00, 0.00, 0.00, 0.00, 0.82, -0.57, 0.13
96, 0.00, 45904.54, 0.00, 0.00, 0.00, 0.00, 0.00, 0.00, 0.82, -0.57, 0.13
97, 0.00, 45917.59, 0.00, 0.00, 0.00, 0.00, 0.00, 0.00, 0.82, -0.56, 0.14
98, 0.00, 45925.41, 0.00, 0.00, 0.00, 0.00, 0.00, 0.00, 0.82, -0.56, 0.14
99, 0.00, 45916.05, 0.00, 0.00, 0.00, 0.00, 0.00, 0.00, 0.82, -0.56, 0.14
100, 0.00, 45911.55, 0.00, 0.00, 0.00, 0.00, 0.00, 0.00, 0.82, -0.56, 0.14
101, 0.00, 45919.76, 0.00, 0.00, 0.00, 0.00, 0.00, 0.00, 0.82, -0.56, 0.14
102, 0.00, 45922.44, 0.00, 0.00, 0.00, 0.00, 0.00, 0.00, 0.82, -0.57, 0.14
103, 0.00, 45913.39, 0.00, 0.00, 0.00, 0.00, 0.00, 0.00, 0.82, -0.57, 0.14
104, 0.00, 45908.34, 0.00, 0.00, 0.00, 0.00, 0.00, 0.00, 0.82, -0.57, 0.14
105, 0.00, 45921.48, 0.00, 0.00, 0.00, 0.00, 0.00, 0.00, 0.82, -0.57, 0.14
106, 0.00, 45929.41, 0.00, 0.00, 0.00, 0.00, 0.00, 0.00, 0.82, -0.57, 0.14
107, 0.00, 45926.30, 0.00, 0.00, 0.00, 0.00, 0.00, 0.00, 0.82, -0.57, 0.14
108, 0.00, 45919.89, 0.00, 0.00, 0.00, 0.00, 0.00, 0.00, 0.82, -0.57, 0.14
109, 0.00, 45916.49, 0.00, 0.00, 0.00, 0.00, 0.00, 0.00, 0.82, -0.57, 0.14
110, 0.00, 45921.41, 0.00, 0.00, 0.00, 0.00, 0.00, 0.00, 0.82, -0.57, 0.14
111, 0.00, 45925.97, 0.00, 0.00, 0.00, 0.00, 0.00, 0.00, 0.82, -0.57, 0.14
112, 0.00, 45928.30, 0.00, 0.00, 0.00, 0.00, 0.00, 0.00, 0.82, -0.56, 0.14
113, 0.00, 45928.30, 0.00, 0.00, 0.00, 0.00, 0.00, 0.00, 0.82, -0.56, 0.14
114, 0.00, 45929.77, 0.00, 0.00, 0.00, 0.00, 0.00, 0.00, 0.82, -0.56, 0.14
115, 0.00, 45925.21, 0.00, 0.00, 0.00, 0.00, 0.00, 0.00, 0.82, -0.56, 0.14
116, 0.00, 45924.03, 0.00, 0.00, 0.00, 0.00, 0.00, 0.00, 0.82, -0.56, 0.14
117, 0.00, 45920.74, 0.00, 0.00, 0.00, 0.00, 0.00, 0.00, 0.82, -0.56, 0.13
118, 0.00, 45926.13, 0.00, 0.00, 0.00, 0.00, 0.00, 0.00, 0.82, -0.56, 0.13
119, 0.00, 45933.06, 0.00, 0.00, 0.00, 0.00, 0.00, 0.00, 0.82, -0.56, 0.13
120, 0.00, 45921.39, 0.00, 0.00, 0.00, 0.00, 0.00, 0.00, 0.82, -0.56, 0.13
121, 0.00, 45918.77, 0.00, 0.00, 0.00, 0.00, 0.00, 0.00, 0.82, -0.56, 0.13
122, 0.00, 45926.64, 0.00, 0.00, 0.00, 0.00, 0.00, 0.00, 0.82, -0.57, 0.13
123, 0.00, 45922.13, 0.00, 0.00, 0.00, 0.00, 0.00, 0.00, 0.82, -0.57, 0.13
124, 0.00, 45926.26, 0.00, 0.00, 0.00, 0.00, 0.00, 0.00, 0.82, -0.57, 0.13
125, 0.00, 45918.48, 0.00, 0.00, 0.00, 0.00, 0.00, 0.00, 0.82, -0.57, 0.13
126, 0.00, 45918.50, 0.00, 0.00, 0.00, 0.00, 0.00, 0.00, 0.82, -0.57, 0.13
127, 0.00, 45914.93, 0.00, 0.00, 0.00, 0.00, 0.00, 0.00, 0.82, -0.56, 0.13
128, 0.00, 45912.43, 0.00, 0.00, 0.00, 0.00, 0.00, 0.00, 0.82, -0.56, 0.13
129, 0.00, 45923.18, 0.00, 0.00, 0.00, 0.00, 0.00, 0.00, 0.82, -0.56, 0.13
130, 0.00, 45929.84, 0.00, 0.00, 0.00, 0.00, 0.00, 0.00, 0.82, -0.56, 0.13
131, 0.00, 45926.02, 0.00, 0.00, 0.00, 0.00, 0.00, 0.00, 0.82, -0.56, 0.13
132, 0.00, 45920.45, 0.00, 0.00, 0.00, 0.00, 0.00, 0.00, 0.82, -0.57, 0.13
133, 0.00, 45917.59, 0.00, 0.00, 0.00, 0.00, 0.00, 0.00, 0.82, -0.57, 0.13
134, 0.00, 45921.48, 0.00, 0.00, 0.00, 0.00, 0.00, 0.00, 0.82, -0.57, 0.13
135, 0.00, 45928.88, 0.00, 0.00, 0.00, 0.00, 0.00, 0.00, 0.82, -0.57, 0.13
136, 0.00, 45912.34, 0.00, 0.00, 0.00, 0.00, 0.00, 0.00, 0.82, -0.57, 0.13
137, 0.00, 45908.27, 0.00, 0.00, 0.00, 0.00, 0.00, 0.00, 0.82, -0.57, 0.13
138, 0.00, 45913.07, 0.00, 0.00, 0.00, 0.00, 0.00, 0.00, 0.82, -0.57, 0.13
139, 0.00, 45915.06, 0.00, 0.00, 0.00, 0.00, 0.00, 0.00, 0.82, -0.57, 0.13
140, 0.00, 45922.91, 0.00, 0.00, 0.00, 0.00, 0.00, 0.00, 0.82, -0.57, 0.13
141, 0.00, 45928.90, 0.00, 0.00, 0.00, 0.00, 0.00, 0.00, 0.82, -0.57, 0.13
142, 0.00, 45935.16, 0.00, 0.00, 0.00, 0.00, 0.00, 0.00, 0.82, -0.56, 0.13
143, 0.00, 45929.97, 0.00, 0.00, 0.00, 0.00, 0.00, 0.00, 0.82, -0.56, 0.13
144, 0.00, 45919.73, 0.00, 0.00, 0.00, 0.00, 0.00, 0.00, 0.82, -0.56, 0.13
145, 0.00, 45907.93, 0.00, 0.00, 0.00, 0.00, 0.00, 0.00, 0.82, -0.56, 0.13
146, 0.00, 45925.66, 0.00, 0.00, 0.00, 0.00, 0.00, 0.00, 0.82, -0.56, 0.13
147, 0.00, 45934.46, 0.00, 0.00, 0.00, 0.00, 0.00, 0.00, 0.81, -0.56, 0.14
148, 0.00, 45937.19, 0.00, 0.00, 0.00, 0.00, 0.00, 0.00, 0.81, -0.56, 0.14
149, 0.00, 45924.25, 0.00, 0.00, 0.00, 0.00, 0.00, 0.00, 0.81, -0.56, 0.14
150, 0.00, 45923.51, 0.00, 0.00, 0.00, 0.00, 0.00, 0.00, 0.81, -0.56, 0.14
151, 0.00, 45935.79, 0.00, 0.00, 0.00, 0.00, 0.00, 0.00, 0.81, -0.56, 0.14
152, 0.00, 45929.84, 0.00, 0.00, 0.00, 0.00, 0.00, 0.00, 0.81, -0.56, 0.13
153, 0.00, 45933.23, 0.00, 0.00, 0.00, 0.00, 0.00, 0.00, 0.81, -0.56, 0.13
154, 0.00, 45927.71, 0.00, 0.00, 0.00, 0.00, 0.00, 0.00, 0.81, -0.56, 0.13
155, 0.00, 45931.18, 0.00, 0.00, 0.00, 0.00, 0.00, 0.00, 0.81, -0.56, 0.13
156, 0.00, 45933.14, 0.00, 0.00, 0.00, 0.00, 0.00, 0.00, 0.81, -0.56, 0.13
157, 0.00, 45924.14, 0.00, 0.00, 0.00, 0.00, 0.00, 0.00, 0.81, -0.56, 0.13
158, 0.00, 45914.71, 0.00, 0.00, 0.00, 0.00, 0.00, 0.00, 0.81, -0.56, 0.13
159, 0.00, 45925.08, 0.00, 0.00, 0.00, 0.00, 0.00, 0.00, 0.81, -0.56, 0.13
160, 0.00, 45937.15, 0.00, 0.00, 0.00, 0.00, 0.00, 0.00, 0.81, -0.56, 0.13
161, 0.00, 45935.36, 0.00, 0.00, 0.00, 0.00, 0.00, 0.00, 0.81, -0.56, 0.13
162, 0.00, 45922.39, 0.00, 0.00, 0.00, 0.00, 0.00, 0.00, 0.82, -0.56, 0.14
163, 0.00, 45926.29, 0.00, 0.00, 0.00, 0.00, 0.00, 0.00, 0.82, -0.56, 0.14
164, 0.00, 45935.54, 0.00, 0.00, 0.00, 0.00, 0.00, 0.00, 0.82, -0.56, 0.14
165, 0.00, 45931.07, 0.00, 0.00, 0.00, 0.00, 0.00, 0.00, 0.82, -0.56, 0.14
166, 0.00, 45931.02, 0.00, 0.00, 0.00, 0.00, 0.00, 0.00, 0.82, -0.56, 0.14
167, 0.00, 45934.31, 0.00, 0.00, 0.00, 0.00, 0.00, 0.00, 0.82, -0.56, 0.14
168, 0.00, 45937.41, 0.00, 0.00, 0.00, 0.00, 0.00, 0.00, 0.83, -0.56, 0.14
169, 0.00, 45939.29, 0.00, 0.00, 0.00, 0.00, 0.00, 0.00, 0.83, -0.56, 0.14
170, 0.00, 45931.85, 0.00, 0.00, 0.00, 0.00, 0.00, 0.00, 0.83, -0.56, 0.14
171, 0.00, 45929.30, 0.00, 0.00, 0.00, 0.00, 0.00, 0.00, 0.83, -0.56, 0.14
172, 0.00, 45935.29, 0.00, 0.00, 0.00, 0.00, 0.00, 0.00, 0.83, -0.56, 0.14
173, 0.00, 45935.80, 0.00, 0.00, 0.00, 0.00, 0.00, 0.00, 0.81, -0.56, 0.13
174, 0.00, 45947.07, 0.00, 0.00, 0.00, 0.00, 0.00, 0.00, 0.81, -0.56, 0.13
175, 0.00, 45951.23, 0.00, 0.00, 0.00, 0.00, 0.00, 0.00, 0.81, -0.56, 0.13
176, 0.00, 45956.73, 0.00, 0.00, 0.00, 0.00, 0.00, 0.00, 0.81, -0.56, 0.13
177, 0.00, 45952.26, 0.00, 0.00, 0.00, 0.00, 0.00, 0.00, 0.81, -0.56, 0.13
178, 0.00, 45939.58, 0.00, 0.00, 0.00, 0.00, 0.00, 0.00, 0.81, -0.56, 0.13
179, 0.00, 45938.06, 0.00, 0.00, 0.00, 0.00, 0.00, 0.00, 0.81, -0.56, 0.13
180, 0.00, 45944.97, 0.00, 0.00, 0.00, 0.00, 0.00, 0.00, 0.81, -0.56, 0.13
181, 0.00, 45944.97, 0.00, 0.00, 0.00, 0.00, 0.00, 0.00, 0.81, -0.56, 0.13
182, 0.00, 45946.00, 0.00, 0.00, 0.00, 0.00, 0.00, 0.00, 0.81, -0.56, 0.13
183, 0.00, 45941.93, 0.00, 0.00, 0.00, 0.00, 0.00, 0.00, 0.81, -0.56, 0.13
184, 0.00, 45932.18, 0.00, 0.00, 0.00, 0.00, 0.00, 0.00, 0.81, -0.56, 0.13
185, 0.00, 45936.86, 0.00, 0.00, 0.00, 0.00, 0.00, 0.00, 0.81, -0.56, 0.13
186, 0.00, 45944.75, 0.00, 0.00, 0.00, 0.00, 0.00, 0.00, 0.81, -0.56, 0.13
187, 0.00, 45933.21, 0.00, 0.00, 0.00, 0.00, 0.00, 0.00, 0.81, -0.56, 0.13
188, 0.00, 45942.22, 0.00, 0.00, 0.00, 0.00, 0.00, 0.00, 0.82, -0.56, 0.13
189, 0.00, 45948.59, 0.00, 0.00, 0.00, 0.00, 0.00, 0.00, 0.82, -0.56, 0.13
190, 0.00, 45939.34, 0.00, 0.00, 0.00, 0.00, 0.00, 0.00, 0.82, -0.56, 0.13
191, 0.00, 45926.87, 0.00, 0.00, 0.00, 0.00, 0.00, 0.00, 0.82, -0.56, 0.13
192, 0.00, 45932.48, 0.00, 0.00, 0.00, 0.00, 0.00, 0.00, 0.82, -0.56, 0.13
193, 0.00, 45935.34, 0.00, 0.00, 0.00, 0.00, 0.00, 0.00, 0.82, -0.57, 0.13
194, 0.00, 45942.80, 0.00, 0.00, 0.00, 0.00, 0.00, 0.00, 0.82, -0.57, 0.13
195, 0.00, 45940.46, 0.00, 0.00, 0.00, 0.00, 0.00, 0.00, 0.82, -0.57, 0.13
196, 0.00, 45932.52, 0.00, 0.00, 0.00, 0.00, 0.00, 0.00, 0.82, -0.57, 0.13
197, 0.00, 45939.74, 0.00, 0.00, 0.00, 0.00, 0.00, 0.00, 0.82, -0.57, 0.13
198, 0.00, 45943.92, 0.00, 0.00, 0.00, 0.00, 0.00, 0.00, 0.81, -0.56, 0.13
199, 0.00, 45936.21, 0.00, 0.00, 0.00, 0.00, 0.00, 0.00, 0.81, -0.56, 0.13
200, 0.00, 45934.60, 0.00, 0.00, 0.00, 0.00, 0.00, 0.00, 0.81, -0.56, 0.13
201, 0.00, 45947.88, 0.00, 0.00, 0.00, 0.00, 0.00, 0.00, 0.81, -0.56, 0.13
202, 0.00, 45946.22, 0.00, 0.00, 0.00, 0.00, 0.00, 0.00, 0.81, -0.56, 0.13
203, 0.00, 45938.45, 0.00, 0.00, 0.00, 0.00, 0.00, 0.00, 0.82, -0.57, 0.13
204, 0.00, 45936.72, 0.00, 0.00, 0.00, 0.00, 0.00, 0.00, 0.82, -0.57, 0.13
205, 0.00, 45956.95, 0.00, 0.00, 0.00, 0.00, 0.00, 0.00, 0.82, -0.57, 0.13
206, 0.00, 45954.83, 0.00, 0.00, 0.00, 0.00, 0.00, 0.00, 0.82, -0.57, 0.13
207, 0.00, 45946.27, 0.00, 0.00, 0.00, 0.00, 0.00, 0.00, 0.82, -0.57, 0.13
208, 0.00, 45939.88, 0.00, 0.00, 0.00, 0.00, 0.00, 0.00, 0.82, -0.57, 0.12
209, 0.00, 45950.11, 0.00, 0.00, 0.00, 0.00, 0.00, 0.00, 0.82, -0.57, 0.12
210, 0.00, 45964.86, 0.00, 0.00, 0.00, 0.00, 0.00, 0.00, 0.82, -0.57, 0.12
211, 0.00, 45948.43, 0.00, 0.00, 0.00, 0.00, 0.00, 0.00, 0.82, -0.57, 0.12
212, 0.00, 45949.84, 0.00, 0.00, 0.00, 0.00, 0.00, 0.00, 0.82, -0.57, 0.12
213, 0.00, 45956.66, 0.00, 0.00, 0.00, 0.00, 0.00, 0.00, 0.82, -0.56, 0.12
214, 0.00, 45962.89, 0.00, 0.00, 0.00, 0.00, 0.00, 0.00, 0.82, -0.56, 0.12
215, 0.00, 45956.88, 0.00, 0.00, 0.00, 0.00, 0.00, 0.00, 0.82, -0.56, 0.12
216, 0.00, 45938.93, 0.00, 0.00, 0.00, 0.00, 0.00, 0.00, 0.82, -0.56, 0.12
217, 0.00, 45946.00, 0.00, 0.00, 0.00, 0.00, 0.00, 0.00, 0.82, -0.56, 0.12
218, 0.00, 45957.71, 0.00, 0.00, 0.00, 0.00, 0.00, 0.00, 0.82, -0.56, 0.13
219, 0.00, 45953.42, 0.00, 0.00, 0.00, 0.00, 0.00, 0.00, 0.82, -0.56, 0.13
220, 0.00, 45943.29, 0.00, 0.00, 0.00, 0.00, 0.00, 0.00, 0.82, -0.56, 0.13
221, 0.00, 45940.28, 0.00, 0.00, 0.00, 0.00, 0.00, 0.00, 0.82, -0.56, 0.13
222, 0.00, 45963.05, 0.00, 0.00, 0.00, 0.00, 0.00, 0.00, 0.82, -0.56, 0.13
223, 0.00, 45968.86, 0.00, 0.00, 0.00, 0.00, 0.00, 0.00, 0.82, -0.56, 0.13
224, 0.00, 45948.10, 0.00, 0.00, 0.00, 0.00, 0.00, 0.00, 0.82, -0.56, 0.13
225, 0.00, 45951.81, 0.00, 0.00, 0.00, 0.00, 0.00, 0.00, 0.82, -0.56, 0.13
226, 0.00, 45963.16, 0.00, 0.00, 0.00, 0.00, 0.00, 0.00, 0.82, -0.56, 0.13
227, 0.00, 45963.14, 0.00, 0.00, 0.00, 0.00, 0.00, 0.00, 0.82, -0.56, 0.13
228, 0.00, 45953.69, 0.00, 0.00, 0.00, 0.00, 0.00, 0.00, 0.82, -0.57, 0.13
229, 0.00, 45957.62, 0.00, 0.00, 0.00, 0.00, 0.00, 0.00, 0.82, -0.57, 0.13
230, 0.00, 45965.13, 0.00, 0.00, 0.00, 0.00, 0.00, 0.00, 0.82, -0.57, 0.13
231, 0.00, 45972.22, 0.00, 0.00, 0.00, 0.00, 0.00, 0.00, 0.82, -0.57, 0.13
232, 0.00, 45958.29, 0.00, 0.00, 0.00, 0.00, 0.00, 0.00, 0.82, -0.57, 0.13
233, 0.00, 45954.05, 0.00, 0.00, 0.00, 0.00, 0.00, 0.00, 0.82, -0.57, 0.13
234, 0.00, 45963.12, 0.00, 0.00, 0.00, 0.00, 0.00, 0.00, 0.82, -0.57, 0.13
235, 0.00, 45982.63, 0.00, 0.00, 0.00, 0.00, 0.00, 0.00, 0.82, -0.57, 0.13
236, 0.00, 45980.75, 0.00, 0.00, 0.00, 0.00, 0.00, 0.00, 0.82, -0.57, 0.13
237, 0.00, 45974.05, 0.00, 0.00, 0.00, 0.00, 0.00, 0.00, 0.82, -0.57, 0.13
238, 0.00, 45974.68, 0.00, 0.00, 0.00, 0.00, 0.00, 0.00, 0.81, -0.57, 0.13
239, 0.00, 45974.90, 0.00, 0.00, 0.00, 0.00, 0.00, 0.00, 0.81, -0.57, 0.13
240, 0.00, 45973.65, 0.00, 0.00, 0.00, 0.00, 0.00, 0.00, 0.81, -0.57, 0.13
241, 0.00, 45966.56, 0.00, 0.00, 0.00, 0.00, 0.00, 0.00, 0.81, -0.57, 0.13
242, 0.00, 45959.23, 0.00, 0.00, 0.00, 0.00, 0.00, 0.00, 0.81, -0.57, 0.13
243, 0.00, 45970.81, 0.00, 0.00, 0.00, 0.00, 0.00, 0.00, 0.81, -0.57, 0.15
244, 0.00, 45967.46, 0.00, 0.00, 0.00, 0.00, 0.00, 0.00, 0.81, -0.57, 0.15
245, 0.00, 45965.20, 0.00, 0.00, 0.00, 0.00, 0.00, 0.00, 0.81, -0.57, 0.15
246, 0.00, 45974.16, 0.00, 0.00, 0.00, 0.00, 0.00, 0.00, 0.81, -0.57, 0.15
247, 0.00, 45990.66, 0.00, 0.00, 0.00, 0.00, 0.00, 0.00, 0.81, -0.57, 0.15
248, 0.00, 46004.38, 0.00, 0.00, 0.00, 0.00, 0.00, 0.00, 0.82, -0.57, 0.13
249, 0.00, 45968.39, 0.00, 0.00, 0.00, 0.00, 0.00, 0.00, 0.82, -0.57, 0.13
250, 0.00, 45962.14, 0.00, 0.00, 0.00, 0.00, 0.00, 0.00, 0.82, -0.57, 0.13
251, 0.00, 45978.45, 0.00, 0.00, 0.00, 0.00, 0.00, 0.00, 0.82, -0.57, 0.13
252, 0.00, 45989.38, 0.00, 0.00, 0.00, 0.00, 0.00, 0.00, 0.82, -0.57, 0.13
253, 0.00, 45990.57, 0.00, 0.00, 0.00, 0.00, 0.00, 0.00, 0.81, -0.57, 0.14
254, 0.00, 45973.36, 0.00, 0.00, 0.00, 0.00, 0.00, 0.00, 0.81, -0.57, 0.14
255, 0.00, 45981.61, 0.00, 0.00, 0.00, 0.00, 0.00, 0.00, 0.81, -0.57, 0.14
0, 0.00, 45997.25, 0.00, 0.00, 0.00, 0.00, 0.00, 0.00, 0.81, -0.57, 0.14
1, 0.00, 45993.07, 0.00, 0.00, 0.00, 0.00, 0.00, 0.00, 0.81, -0.57, 0.14
2, 0.00, 45984.18, 0.00, 0.00, 0.00, 0.00, 0.00, 0.00, 0.82, -0.57, 0.13
3, 0.00, 45982.66, 0.00, 0.00, 0.00, 0.00, 0.00, 0.00, 0.82, -0.57, 0.13
4, 0.00, 45997.30, 0.00, 0.00, 0.00, 0.00, 0.00, 0.00, 0.82, -0.57, 0.13
5, 0.00, 46004.76, 0.00, 0.00, 0.00, 0.00, 0.00, 0.00, 0.82, -0.57, 0.13
6, 0.00, 45996.11, 0.00, 0.00, 0.00, 0.00, 0.00, 0.00, 0.82, -0.57, 0.13
7, 0.00, 46004.16, 0.00, 0.00, 0.00, 0.00, 0.00, 0.00, 0.82, -0.56, 0.13
8, 0.00, 46014.44, 0.00, 0.00, 0.00, 0.00, 0.00, 0.00, 0.82, -0.56, 0.13
9, 0.00, 46005.77, 0.00, 0.00, 0.00, 0.00, 0.00, 0.00, 0.82, -0.56, 0.13
10, 0.00, 46002.75, 0.00, 0.00, 0.00, 0.00, 0.00, 0.00, 0.82, -0.56, 0.13
11, 0.00, 46006.73, 0.00, 0.00, 0.00, 0.00, 0.00, 0.00, 0.82, -0.56, 0.13
12, 0.00, 46013.19, 0.00, 0.00, 0.00, 0.00, 0.00, 0.00, 0.82, -0.56, 0.13
13, 0.00, 46015.98, 0.00, 0.00, 0.00, 0.00, 0.00, 0.00, 0.82, -0.56, 0.13
14, 0.00, 46001.65, 0.00, 0.00, 0.00, 0.00, 0.00, 0.00, 0.82, -0.56, 0.13
15, 0.00, 45991.62, 0.00, 0.00, 0.00, 0.00, 0.00, 0.00, 0.82, -0.56, 0.13
16, 0.00, 45999.40, 0.00, 0.00, 0.00, 0.00, 0.00, 0.00, 0.82, -0.56, 0.13
17, 0.00, 46001.83, 0.00, 0.00, 0.00, 0.00, 0.00, 0.00, 0.83, -0.57, 0.13
18, 0.00, 46002.14, 0.00, 0.00, 0.00, 0.00, 0.00, 0.00, 0.83, -0.57, 0.13
19, 0.00, 46001.72, 0.00, 0.00, 0.00, 0.00, 0.00, 0.00, 0.83, -0.57, 0.13
20, 0.00, 46007.58, 0.00, 0.00, 0.00, 0.00, 0.00, 0.00, 0.83, -0.57, 0.13
21, 0.00, 46004.63, 0.00, 0.00, 0.00, 0.00, 0.00, 0.00, 0.83, -0.57, 0.13
22, 0.00, 46007.55, 0.00, 0.00, 0.00, 0.00, 0.00, 0.00, 0.83, -0.57, 0.13
23, 0.00, 46001.52, 0.00, 0.00, 0.00, 0.00, 0.00, 0.00, 0.83, -0.57, 0.13
24, 0.00, 46013.21, 0.00, 0.00, 0.00, 0.00, 0.00, 0.00, 0.83, -0.57, 0.13
25, 0.00, 46010.59, 0.00, 0.00, 0.00, 0.00, 0.00, 0.00, 0.83, -0.57, 0.13
26, 0.00, 45995.98, 0.00, 0.00, 0.00, 0.00, 0.00, 0.00, 0.83, -0.57, 0.13
27, 0.00, 45991.13, 0.00, 0.00, 0.00, 0.00, 0.00, 0.00, 0.82, -0.57, 0.13
28, 0.00, 45987.02, 0.00, 0.00, 0.00, 0.00, 0.00, 0.00, 0.82, -0.57, 0.13
29, 0.00, 46003.89, 0.00, 0.00, 0.00, 0.00, 0.00, 0.00, 0.82, -0.57, 0.13
30, 0.00, 46020.07, 0.00, 0.00, 0.00, 0.00, 0.00, 0.00, 0.82, -0.57, 0.13
31, 0.00, 46011.31, 0.00, 0.00, 0.00, 0.00, 0.00, 0.00, 0.82, -0.57, 0.13
32, 0.00, 46012.36, 0.00, 0.00, 0.00, 0.00, 0.00, 0.00, 0.82, -0.56, 0.14
33, 0.00, 46024.63, 0.00, 0.00, 0.00, 0.00, 0.00, 0.00, 0.82, -0.56, 0.14
34, 0.00, 46021.30, 0.00, 0.00, 0.00, 0.00, 0.00, 0.00, 0.82, -0.56, 0.14
35, 0.00, 46008.02, 0.00, 0.00, 0.00, 0.00, 0.00, 0.00, 0.82, -0.56, 0.14
36, 0.00, 46008.96, 0.00, 0.00, 0.00, 0.00, 0.00, 0.00, 0.82, -0.56, 0.14
37, 0.00, 46018.02, 0.00, 0.00, 0.00, 0.00, 0.00, 0.00, 0.82, -0.56, 0.14
38, 0.00, 46012.43, 0.00, 0.00, 0.00, 0.00, 0.00, 0.00, 0.82, -0.56, 0.14
39, 0.00, 46016.56, 0.00, 0.00, 0.00, 0.00, 0.00, 0.00, 0.82, -0.56, 0.14
40, 0.00, 46010.80, 0.00, 0.00, 0.00, 0.00, 0.00, 0.00, 0.82, -0.56, 0.14
41, 0.00, 46016.94, 0.00, 0.00, 0.00, 0.00, 0.00, 0.00, 0.82, -0.56, 0.14
42, 0.00, 46014.60, 0.00, 0.00, 0.00, 0.00, 0.00, 0.00, 0.82, -0.56, 0.14
43, 0.00, 46005.90, 0.00, 0.00, 0.00, 0.00, 0.00, 0.00, 0.82, -0.56, 0.14
44, 0.00, 46016.56, 0.00, 0.00, 0.00, 0.00, 0.00, 0.00, 0.82, -0.56, 0.14
45, 0.00, 46015.04, 0.00, 0.00, 0.00, 0.00, 0.00, 0.00, 0.82, -0.56, 0.14
46, 0.00, 46009.30, 0.00, 0.00, 0.00, 0.00, 0.00, 0.00, 0.82, -0.56, 0.14
47, 0.00, 46009.48, 0.00, 0.00, 0.00, 0.00, 0.00, 0.00, 0.82, -0.57, 0.14
48, 0.00, 46019.76, 0.00, 0.00, 0.00, 0.00, 0.00, 0.00, 0.82, -0.57, 0.14
49, 0.00, 46021.66, 0.00, 0.00, 0.00, 0.00, 0.00, 0.00, 0.82, -0.57, 0.14
50, 0.00, 46020.77, 0.00, 0.00, 0.00, 0.00, 0.00, 0.00, 0.82, -0.57, 0.14
51, 0.00, 46003.31, 0.00, 0.00, 0.00, 0.00, 0.00, 0.00, 0.82, -0.57, 0.14
52, 0.00, 46012.27, 0.00, 0.00, 0.00, 0.00, 0.00, 0.00, 0.82, -0.57, 0.14
53, 0.00, 46012.43, 0.00, 0.00, 0.00, 0.00, 0.00, 0.00, 0.82, -0.57, 0.14
54, 0.00, 46016.61, 0.00, 0.00, 0.00, 0.00, 0.00, 0.00, 0.82, -0.57, 0.14
55, 0.00, 46013.39, 0.00, 0.00, 0.00, 0.00, 0.00, 0.00, 0.82, -0.57, 0.14
56, 0.00, 46007.73, 0.00, 0.00, 0.00, 0.00, 0.00, 0.00, 0.82, -0.57, 0.14
57, 0.00, 46020.45, 0.00, 0.00, 0.00, 0.00, 0.00, 0.00, 0.82, -0.57, 0.14
58, 0.00, 46029.26, 0.00, 0.00, 0.00, 0.00, 0.00, 0.00, 0.82, -0.57, 0.14
59, 0.00, 46025.17, 0.00, 0.00, 0.00, 0.00, 0.00, 0.00, 0.82, -0.57, 0.14
60, 0.00, 46004.85, 0.00, 0.00, 0.00, 0.00, 0.00, 0.00, 0.82, -0.57, 0.14
61, 0.00, 46019.47, 0.00, 0.00, 0.00, 0.00, 0.00, 0.00, 0.82, -0.57, 0.14
62, 0.00, 46024.43, 0.00, 0.00, 0.00, 0.00, 0.00, 0.00, 0.82, -0.57, 0.13
63, 0.00, 46018.78, 0.00, 0.00, 0.00, 0.00, 0.00, 0.00, 0.82, -0.57, 0.13
64, 0.00, 46022.84, 0.00, 0.00, 0.00, 0.00, 0.00, 0.00, 0.82, -0.57, 0.13
65, 0.00, 46022.02, 0.00, 0.00, 0.00, 0.00, 0.00, 0.00, 0.82, -0.57, 0.13
66, 0.00, 46020.96, 0.00, 0.00, 0.00, 0.00, 0.00, 0.00, 0.82, -0.57, 0.13
67, 0.00, 46027.87, 0.00, 0.00, 0.00, 0.00, 0.00, 0.00, 0.81, -0.57, 0.14
68, 0.00, 46027.23, 0.00, 0.00, 0.00, 0.00, 0.00, 0.00, 0.81, -0.57, 0.14
69, 0.00, 46029.10, 0.00, 0.00, 0.00, 0.00, 0.00, 0.00, 0.81, -0.57, 0.14
70, 0.00, 46026.24, 0.00, 0.00, 0.00, 0.00, 0.00, 0.00, 0.81, -0.57, 0.14
71, 0.00, 46027.23, 0.00, 0.00, 0.00, 0.00, 0.00, 0.00, 0.81, -0.57, 0.14
72, 0.00, 46028.83, 0.00, 0.00, 0.00, 0.00, 0.00, 0.00, 0.82, -0.57, 0.14
73, 0.00, 46029.86, 0.00, 0.00, 0.00, 0.00, 0.00, 0.00, 0.82, -0.57, 0.14
74, 0.00, 46038.33, 0.00, 0.00, 0.00, 0.00, 0.00, 0.00, 0.82, -0.57, 0.14
75, 0.00, 46028.92, 0.00, 0.00, 0.00, 0.00, 0.00, 0.00, 0.82, -0.57, 0.14
76, 0.00, 46030.15, 0.00, 0.00, 0.00, 0.00, 0.00, 0.00, 0.82, -0.57, 0.14
77, 0.00, 46024.50, 0.00, 0.00, 0.00, 0.00, 0.00, 0.00, 0.82, -0.57, 0.14
78, 0.00, 46017.39, 0.00, 0.00, 0.00, 0.00, 0.00, 0.00, 0.82, -0.57, 0.14
79, 0.00, 46024.01, 0.00, 0.00, 0.00, 0.00, 0.00, 0.00, 0.82, -0.57, 0.14
80, 0.00, 46027.47, 0.00, 0.00, 0.00, 0.00, 0.00, 0.00, 0.82, -0.57, 0.14
81, 0.00, 46028.97, 0.00, 0.00, 0.00, 0.00, 0.00, 0.00, 0.82, -0.57, 0.14
82, 0.00, 46033.04, 0.00, 0.00, 0.00, 0.00, 0.00, 0.00, 0.81, -0.57, 0.14
83, 0.00, 46046.25, 0.00, 0.00, 0.00, 0.00, 0.00, 0.00, 0.81, -0.57, 0.14
84, 0.00, 46033.28, 0.00, 0.00, 0.00, 0.00, 0.00, 0.00, 0.81, -0.57, 0.14
85, 0.00, 46018.30, 0.00, 0.00, 0.00, 0.00, 0.00, 0.00, 0.81, -0.57, 0.14
86, 0.00, 46024.09, 0.00, 0.00, 0.00, 0.00, 0.00, 0.00, 0.81, -0.57, 0.14
87, 0.00, 46028.52, 0.00, 0.00, 0.00, 0.00, 0.00, 0.00, 0.82, -0.56, 0.14
88, 0.00, 46020.63, 0.00, 0.00, 0.00, 0.00, 0.00, 0.00, 0.82, -0.56, 0.14
89, 0.00, 46024.88, 0.00, 0.00, 0.00, 0.00, 0.00, 0.00, 0.82, -0.56, 0.14
90, 0.00, 46029.30, 0.00, 0.00, 0.00, 0.00, 0.00, 0.00, 0.82, -0.56, 0.14
91, 0.00, 46034.00, 0.00, 0.00, 0.00, 0.00, 0.00, 0.00, 0.82, -0.56, 0.14
92, 0.00, 46036.61, 0.00, 0.00, 0.00, 0.00, 0.00, 0.00, 0.82, -0.57, 0.13
93, 0.00, 46029.68, 0.00, 0.00, 0.00, 0.00, 0.00, 0.00, 0.82, -0.57, 0.13
94, 0.00, 46021.93, 0.00, 0.00, 0.00, 0.00, 0.00, 0.00, 0.82, -0.57, 0.13
95, 0.00, 46024.72, 0.00, 0.00, 0.00, 0.00, 0.00, 0.00, 0.82, -0.57, 0.13
96, 0.00, 46033.62, 0.00, 0.00, 0.00, 0.00, 0.00, 0.00, 0.82, -0.57, 0.13
97, 0.00, 46029.91, 0.00, 0.00, 0.00, 0.00, 0.00, 0.00, 0.82, -0.56, 0.13
98, 0.00, 46023.76, 0.00, 0.00, 0.00, 0.00, 0.00, 0.00, 0.82, -0.56, 0.13
99, 0.00, 46026.89, 0.00, 0.00, 0.00, 0.00, 0.00, 0.00, 0.82, -0.56, 0.13
100, 0.00, 46036.72, 0.00, 0.00, 0.00, 0.00, 0.00, 0.00, 0.82, -0.56, 0.13
101, 0.00, 46040.70, 0.00, 0.00, 0.00, 0.00, 0.00, 0.00, 0.82, -0.56, 0.13
102, 0.00, 46034.20, 0.00, 0.00, 0.00, 0.00, 0.00, 0.00, 0.81, -0.56, 0.13
103, 0.00, 46028.68, 0.00, 0.00, 0.00, 0.00, 0.00, 0.00, 0.81, -0.56, 0.13
104, 0.00, 46038.51, 0.00, 0.00, 0.00, 0.00, 0.00, 0.00, 0.81, -0.56, 0.13
105, 0.00, 46048.46, 0.00, 0.00, 0.00, 0.00, 0.00, 0.00, 0.81, -0.56, 0.13
106, 0.00, 46040.19, 0.00, 0.00, 0.00, 0.00, 0.00, 0.00, 0.81, -0.56, 0.13
107, 0.00, 46044.61, 0.00, 0.00, 0.00, 0.00, 0.00, 0.00, 0.81, -0.56, 0.13
108, 0.00, 46046.36, 0.00, 0.00, 0.00, 0.00, 0.00, 0.00, 0.81, -0.56, 0.14
109, 0.00, 46039.14, 0.00, 0.00, 0.00, 0.00, 0.00, 0.00, 0.81, -0.56, 0.14
110, 0.00, 46022.66, 0.00, 0.00, 0.00, 0.00, 0.00, 0.00, 0.81, -0.56, 0.14
111, 0.00, 46028.90, 0.00, 0.00, 0.00, 0.00, 0.00, 0.00, 0.81, -0.56, 0.14
112, 0.00, 46048.79, 0.00, 0.00, 0.00, 0.00, 0.00, 0.00, 0.81, -0.56, 0.14
113, 0.00, 46050.65, 0.00, 0.00, 0.00, 0.00, 0.00, 0.00, 0.81, -0.56, 0.13
114, 0.00, 46043.86, 0.00, 0.00, 0.00, 0.00, 0.00, 0.00, 0.81, -0.56, 0.13
115, 0.00, 46049.58, 0.00, 0.00, 0.00, 0.00, 0.00, 0.00, 0.81, -0.56, 0.13
116, 0.00, 46051.19, 0.00, 0.00, 0.00, 0.00, 0.00, 0.00, 0.81, -0.56, 0.13
117, 0.00, 46058.70, 0.00, 0.00, 0.00, 0.00, 0.00, 0.00, 0.81, -0.56, 0.13
118, 0.00, 46049.93, 0.00, 0.00, 0.00, 0.00, 0.00, 0.00, 0.82, -0.57, 0.14
119, 0.00, 46046.85, 0.00, 0.00, 0.00, 0.00, 0.00, 0.00, 0.82, -0.57, 0.14
120, 0.00, 46048.86, 0.00, 0.00, 0.00, 0.00, 0.00, 0.00, 0.82, -0.57, 0.14
121, 0.00, 46049.49, 0.00, 0.00, 0.00, 0.00, 0.00, 0.00, 0.82, -0.57, 0.14
122, 0.00, 46046.07, 0.00, 0.00, 0.00, 0.00, 0.00, 0.00, 0.82, -0.57, 0.14
123, 0.00, 46051.50, 0.00, 0.00, 0.00, 0.00, 0.00, 0.00, 0.81, -0.56, 0.14
124, 0.00, 46053.33, 0.00, 0.00, 0.00, 0.00, 0.00, 0.00, 0.81, -0.56, 0.14
125, 0.00, 46060.39, 0.00, 0.00, 0.00, 0.00, 0.00, 0.00, 0.81, -0.56, 0.14
126, 0.00, 46054.96, 0.00, 0.00, 0.00, 0.00, 0.00, 0.00, 0.81, -0.56, 0.14
127, 0.00, 46041.15, 0.00, 0.00, 0.00, 0.00, 0.00, 0.00, 0.81, -0.56, 0.14
128, 0.00, 46052.39, 0.00, 0.00, 0.00, 0.00, 0.00, 0.00, 0.82, -0.56, 0.14
129, 0.00, 46062.12, 0.00, 0.00, 0.00, 0.00, 0.00, 0.00, 0.82, -0.56, 0.14
130, 0.00, 46060.86, 0.00, 0.00, 0.00, 0.00, 0.00, 0.00, 0.82, -0.56, 0.14
131, 0.00, 46039.45, 0.00, 0.00, 0.00, 0.00, 0.00, 0.00, 0.82, -0.56, 0.14
132, 0.00, 46042.65, 0.00, 0.00, 0.00, 0.00, 0.00, 0.00, 0.82, -0.56, 0.14
133, 0.00, 46051.59, 0.00, 0.00, 0.00, 0.00, 0.00, 0.00, 0.82, -0.56, 0.14
134, 0.00, 46047.74, 0.00, 0.00, 0.00, 0.00, 0.00, 0.00, 0.82, -0.56, 0.14
135, 0.00, 46038.11, 0.00, 0.00, 0.00, 0.00, 0.00, 0.00, 0.82, -0.56, 0.14
136, 0.00, 46048.35, 0.00, 0.00, 0.00, 0.00, 0.00, 0.00, 0.82, -0.56, 0.14
137, 0.00, 46058.54, 0.00, 0.00, 0.00, 0.00, 0.00, 0.00, 0.82, -0.56, 0.14
138, 0.00, 46055.72, 0.00, 0.00, 0.00, 0.00, 0.00, 0.00, 0.82, -0.57, 0.14
139, 0.00, 46044.19, 0.00, 0.00, 0.00, 0.00, 0.00, 0.00, 0.82, -0.57, 0.14
140, 0.00, 46043.41, 0.00, 0.00, 0.00, 0.00, 0.00, 0.00, 0.82, -0.57, 0.14
141, 0.00, 46054.18, 0.00, 0.00, 0.00, 0.00, 0.00, 0.00, 0.82, -0.57, 0.14
142, 0.00, 46053.89, 0.00, 0.00, 0.00, 0.00, 0.00, 0.00, 0.82, -0.57, 0.14
143, 0.00, 46040.57, 0.00, 0.00, 0.00, 0.00, 0.00, 0.00, 0.82, -0.56, 0.13
144, 0.00, 46044.01, 0.00, 0.00, 0.00, 0.00, 0.00, 0.00, 0.82, -0.56, 0.13
145, 0.00, 46055.34, 0.00, 0.00, 0.00, 0.00, 0.00, 0.00, 0.82, -0.56, 0.13
146, 0.00, 46057.67, 0.00, 0.00, 0.00, 0.00, 0.00, 0.00, 0.82, -0.56, 0.13
147, 0.00, 46058.65, 0.00, 0.00, 0.00, 0.00, 0.00, 0.00, 0.82, -0.56, 0.13
148, 0.00, 46052.77, 0.00, 0.00, 0.00, 0.00, 0.00, 0.00, 0.82, -0.56, 0.14
149, 0.00, 46055.10, 0.00, 0.00, 0.00, 0.00, 0.00, 0.00, 0.82, -0.56, 0.14
150, 0.00, 46037.17, 0.00, 0.00, 0.00, 0.00, 0.00, 0.00, 0.82, -0.56, 0.14
151, 0.00, 46041.30, 0.00, 0.00, 0.00, 0.00, 0.00, 0.00, 0.82, -0.56, 0.14
152, 0.00, 46040.61, 0.00, 0.00, 0.00, 0.00, 0.00, 0.00, 0.82, -0.56, 0.14
153, 0.00, 46048.59, 0.00, 0.00, 0.00, 0.00, 0.00, 0.00, 0.82, -0.57, 0.13
154, 0.00, 46058.85, 0.00, 0.00, 0.00, 0.00, 0.00, 0.00, 0.82, -0.57, 0.13
155, 0.00, 46056.28, 0.00, 0.00, 0.00, 0.00, 0.00, 0.00, 0.82, -0.57, 0.13
156, 0.00, 46042.91, 0.00, 0.00, 0.00, 0.00, 0.00, 0.00, 0.82, -0.57, 0.13
157, 0.00, 46041.91, 0.00, 0.00, 0.00, 0.00, 0.00, 0.00, 0.82, -0.57, 0.13
158, 0.00, 46058.14, 0.00, 0.00, 0.00, 0.00, 0.00, 0.00, 0.82, -0.57, 0.13
159, 0.00, 46073.05, 0.00, 0.00, 0.00, 0.00, 0.00, 0.00, 0.82, -0.57, 0.13
160, 0.00, 46046.47, 0.00, 0.00, 0.00, 0.00, 0.00, 0.00, 0.82, -0.57, 0.13
161, 0.00, 46063.93, 0.00, 0.00, 0.00, 0.00, 0.00, 0.00, 0.82, -0.57, 0.13
162, 0.00, 46066.83, 0.00, 0.00, 0.00, 0.00, 0.00, 0.00, 0.82, -0.57, 0.13
163, 0.00, 46064.62, 0.00, 0.00, 0.00, 0.00, 0.00, 0.00, 0.82, -0.56, 0.13
164, 0.00, 46055.14, 0.00, 0.00, 0.00, 0.00, 0.00, 0.00, 0.82, -0.56, 0.13
165, 0.00, 46050.20, 0.00, 0.00, 0.00, 0.00, 0.00, 0.00, 0.82, -0.56, 0.13
166, 0.00, 46064.78, 0.00, 0.00, 0.00, 0.00, 0.00, 0.00, 0.82, -0.56, 0.13
167, 0.00, 46062.38, 0.00, 0.00, 0.00, 0.00, 0.00, 0.00, 0.82, -0.56, 0.13
168, 0.00, 46057.36, 0.00, 0.00, 0.00, 0.00, 0.00, 0.00, 0.82, -0.56, 0.14
169, 0.00, 46063.08, 0.00, 0.00, 0.00, 0.00, 0.00, 0.00, 0.82, -0.56, 0.14
170, 0.00, 46058.74, 0.00, 0.00, 0.00, 0.00, 0.00, 0.00, 0.82, -0.56, 0.14
171, 0.00, 46058.32, 0.00, 0.00, 0.00, 0.00, 0.00, 0.00, 0.82, -0.56, 0.14
172, 0.00, 46067.14, 0.00, 0.00, 0.00, 0.00, 0.00, 0.00, 0.82, -0.56, 0.14
173, 0.00, 46055.28, 0.00, 0.00, 0.00, 0.00, 0.00, 0.00, 0.81, -0.57, 0.14
174, 0.00, 46067.79, 0.00, 0.00, 0.00, 0.00, 0.00, 0.00, 0.81, -0.57, 0.14
175, 0.00, 46071.50, 0.00, 0.00, 0.00, 0.00, 0.00, 0.00, 0.81, -0.57, 0.14
176, 0.00, 46071.05, 0.00, 0.00, 0.00, 0.00, 0.00, 0.00, 0.81, -0.57, 0.14
177, 0.00, 46060.15, 0.00, 0.00, 0.00, 0.00, 0.00, 0.00, 0.81, -0.57, 0.14
178, 0.00, 46060.82, 0.00, 0.00, 0.00, 0.00, 0.00, 0.00, 0.81, -0.57, 0.14
179, 0.00, 46069.16, 0.00, 0.00, 0.00, 0.00, 0.00, 0.00, 0.81, -0.57, 0.14
180, 0.00, 46064.35, 0.00, 0.00, 0.00, 0.00, 0.00, 0.00, 0.81, -0.57, 0.14
181, 0.00, 46056.84, 0.00, 0.00, 0.00, 0.00, 0.00, 0.00, 0.81, -0.57, 0.14
182, 0.00, 46063.95, 0.00, 0.00, 0.00, 0.00, 0.00, 0.00, 0.81, -0.57, 0.14
183, 0.00, 46074.34, 0.00, 0.00, 0.00, 0.00, 0.00, 0.00, 0.82, -0.57, 0.13
184, 0.00, 46070.21, 0.00, 0.00, 0.00, 0.00, 0.00, 0.00, 0.82, -0.57, 0.13
185, 0.00, 46058.50, 0.00, 0.00, 0.00, 0.00, 0.00, 0.00, 0.82, -0.57, 0.13
186, 0.00, 46059.86, 0.00, 0.00, 0.00, 0.00, 0.00, 0.00, 0.82, -0.57, 0.13
187, 0.00, 46070.90, 0.00, 0.00, 0.00, 0.00, 0.00, 0.00, 0.82, -0.57, 0.13
188, 0.00, 46067.41, 0.00, 0.00, 0.00, 0.00, 0.00, 0.00, 0.82, -0.56, 0.14
189, 0.00, 46045.35, 0.00, 0.00, 0.00, 0.00, 0.00, 0.00, 0.82, -0.56, 0.14
190, 0.00, 46059.70, 0.00, 0.00, 0.00, 0.00, 0.00, 0.00, 0.82, -0.56, 0.14
191, 0.00, 46078.52, 0.00, 0.00, 0.00, 0.00, 0.00, 0.00, 0.82, -0.56, 0.14
192, 0.00, 46088.20, 0.00, 0.00, 0.00, 0.00, 0.00, 0.00, 0.82, -0.56, 0.14
193, 0.00, 46073.83, 0.00, 0.00, 0.00, 0.00, 0.00, 0.00, 0.82, -0.56, 0.13
194, 0.00, 46064.98, 0.00, 0.00, 0.00, 0.00, 0.00, 0.00, 0.82, -0.56, 0.13
195, 0.00, 46062.99, 0.00, 0.00, 0.00, 0.00, 0.00, 0.00, 0.82, -0.56, 0.13
196, 0.00, 46072.55, 0.00, 0.00, 0.00, 0.00, 0.00, 0.00, 0.82, -0.56, 0.13
197, 0.00, 46080.69, 0.00, 0.00, 0.00, 0.00, 0.00, 0.00, 0.82, -0.56, 0.13
198, 0.00, 46061.89, 0.00, 0.00, 0.00, 0.00, 0.00, 0.00, 0.82, -0.56, 0.13
199, 0.00, 46074.92, 0.00, 0.00, 0.00, 0.00, 0.00, 0.00, 0.82, -0.56, 0.13
200, 0.00, 46082.43, 0.00, 0.00, 0.00, 0.00, 0.00, 0.00, 0.82, -0.56, 0.13
201, 0.00, 46066.70, 0.00, 0.00, 0.00, 0.00, 0.00, 0.00, 0.82, -0.56, 0.13
202, 0.00, 46061.96, 0.00, 0.00, 0.00, 0.00, 0.00, 0.00, 0.82, -0.56, 0.13
203, 0.00, 46075.32, 0.00, 0.00, 0.00, 0.00, 0.00, 0.00, 0.82, -0.56, 0.14
204, 0.00, 46082.23, 0.00, 0.00, 0.00, 0.00, 0.00, 0.00, 0.82, -0.56, 0.14
205, 0.00, 46069.80, 0.00, 0.00, 0.00, 0.00, 0.00, 0.00, 0.82, -0.56, 0.14
206, 0.00, 46068.51, 0.00, 0.00, 0.00, 0.00, 0.00, 0.00, 0.82, -0.56, 0.14
207, 0.00, 46071.55, 0.00, 0.00, 0.00, 0.00, 0.00, 0.00, 0.82, -0.56, 0.14
208, 0.00, 46074.19, 0.00, 0.00, 0.00, 0.00, 0.00, 0.00, 0.82, -0.56, 0.14
209, 0.00, 46069.54, 0.00, 0.00, 0.00, 0.00, 0.00, 0.00, 0.82, -0.56, 0.14
210, 0.00, 46072.73, 0.00, 0.00, 0.00, 0.00, 0.00, 0.00, 0.82, -0.56, 0.14
211, 0.00, 46068.26, 0.00, 0.00, 0.00, 0.00, 0.00, 0.00, 0.82, -0.56, 0.14
212, 0.00, 46060.21, 0.00, 0.00, 0.00, 0.00, 0.00, 0.00, 0.82, -0.56, 0.14
213, 0.00, 46072.15, 0.00, 0.00, 0.00, 0.00, 0.00, 0.00, 0.82, -0.56, 0.13
214, 0.00, 46065.69, 0.00, 0.00, 0.00, 0.00, 0.00, 0.00, 0.82, -0.56, 0.13
215, 0.00, 46068.80, 0.00, 0.00, 0.00, 0.00, 0.00, 0.00, 0.82, -0.56, 0.13
216, 0.00, 46077.47, 0.00, 0.00, 0.00, 0.00, 0.00, 0.00, 0.82, -0.56, 0.13
217, 0.00, 46082.63, 0.00, 0.00, 0.00, 0.00, 0.00, 0.00, 0.82, -0.56, 0.13
218, 0.00, 46079.44, 0.00, 0.00, 0.00, 0.00, 0.00, 0.00, 0.81, -0.57, 0.14
219, 0.00, 46063.21, 0.00, 0.00, 0.00, 0.00, 0.00, 0.00, 0.81, -0.57, 0.14
220, 0.00, 46059.30, 0.00, 0.00, 0.00, 0.00, 0.00, 0.00, 0.81, -0.57, 0.14
221, 0.00, 46076.82, 0.00, 0.00, 0.00, 0.00, 0.00, 0.00, 0.81, -0.57, 0.14
222, 0.00, 46082.21, 0.00, 0.00, 0.00, 0.00, 0.00, 0.00, 0.81, -0.57, 0.14
223, 0.00, 46082.99, 0.00, 0.00, 0.00, 0.00, 0.00, 0.00, 0.82, -0.57, 0.14
224, 0.00, 46077.92, 0.00, 0.00, 0.00, 0.00, 0.00, 0.00, 0.82, -0.57, 0.14
225, 0.00, 46084.00, 0.00, 0.00, 0.00, 0.00, 0.00, 0.00, 0.82, -0.57, 0.14
226, 0.00, 46091.15, 0.00, 0.00, 0.00, 0.00, 0.00, 0.00, 0.82, -0.57, 0.14
227, 0.00, 46081.16, 0.00, 0.00, 0.00, 0.00, 0.00, 0.00, 0.82, -0.57, 0.14
228, 0.00, 46075.88, 0.00, 0.00, 0.00, 0.00, 0.00, 0.00, 0.82, -0.57, 0.13
229, 0.00, 46078.99, 0.00, 0.00, 0.00, 0.00, 0.00, 0.00, 0.82, -0.57, 0.13
230, 0.00, 46068.40, 0.00, 0.00, 0.00, 0.00, 0.00, 0.00, 0.82, -0.57, 0.13
231, 0.00, 46068.48, 0.00, 0.00, 0.00, 0.00, 0.00, 0.00, 0.82, -0.57, 0.13
232, 0.00, 46067.52, 0.00, 0.00, 0.00, 0.00, 0.00, 0.00, 0.82, -0.57, 0.13
233, 0.00, 46062.45, 0.00, 0.00, 0.00, 0.00, 0.00, 0.00, 0.82, -0.57, 0.14
234, 0.00, 46073.09, 0.00, 0.00, 0.00, 0.00, 0.00, 0.00, 0.82, -0.57, 0.14
235, 0.00, 46077.47, 0.00, 0.00, 0.00, 0.00, 0.00, 0.00, 0.82, -0.57, 0.14
236, 0.00, 46081.72, 0.00, 0.00, 0.00, 0.00, 0.00, 0.00, 0.82, -0.57, 0.14
237, 0.00, 46082.59, 0.00, 0.00, 0.00, 0.00, 0.00, 0.00, 0.82, -0.57, 0.14
238, 0.00, 46100.32, 0.00, 0.00, 0.00, 0.00, 0.00, 0.00, 0.82, -0.56, 0.14
239, 0.00, 46090.50, 0.00, 0.00, 0.00, 0.00, 0.00, 0.00, 0.82, -0.56, 0.14
240, 0.00, 46076.98, 0.00, 0.00, 0.00, 0.00, 0.00, 0.00, 0.82, -0.56, 0.14
241, 0.00, 46080.85, 0.00, 0.00, 0.00, 0.00, 0.00, 0.00, 0.82, -0.56, 0.14
242, 0.00, 46086.12, 0.00, 0.00, 0.00, 0.00, 0.00, 0.00, 0.82, -0.56, 0.14
243, 0.00, 46098.41, 0.00, 0.00, 0.00, 0.00, 0.00, 0.00, 0.81, -0.56, 0.13
244, 0.00, 46084.60, 0.00, 0.00, 0.00, 0.00, 0.00, 0.00, 0.81, -0.56, 0.13
245, 0.00, 46094.57, 0.00, 0.00, 0.00, 0.00, 0.00, 0.00, 0.81, -0.56, 0.13
246, 0.00, 46095.29, 0.00, 0.00, 0.00, 0.00, 0.00, 0.00, 0.81, -0.56, 0.13
247, 0.00, 46088.20, 0.00, 0.00, 0.00, 0.00, 0.00, 0.00, 0.81, -0.56, 0.13
248, 0.00, 46091.93, 0.00, 0.00, 0.00, 0.00, 0.00, 0.00, 0.82, -0.56, 0.13
249, 0.00, 46090.48, 0.00, 0.00, 0.00, 0.00, 0.00, 0.00, 0.82, -0.56, 0.13
250, 0.00, 46095.96, 0.00, 0.00, 0.00, 0.00, 0.00, 0.00, 0.82, -0.56, 0.13
251, 0.00, 46093.12, 0.00, 0.00, 0.00, 0.00, 0.00, 0.00, 0.82, -0.56, 0.13
252, 0.00, 46083.39, 0.00, 0.00, 0.00, 0.00, 0.00, 0.00, 0.82, -0.56, 0.13
253, 0.00, 46080.98, 0.00, 0.00, 0.00, 0.00, 0.00, 0.00, 0.82, -0.56, 0.13
254, 0.00, 46092.89, 0.00, 0.00, 0.00, 0.00, 0.00, 0.00, 0.82, -0.56, 0.13
255, 0.00, 46087.30, 0.00, 0.00, 0.00, 0.00, 0.00, 0.00, 0.82, -0.56, 0.13
0, 0.00, 46073.16, 0.00, 0.00, 0.00, 0.00, 0.00, 0.00, 0.82, -0.56, 0.13
1, 0.00, 46075.57, 0.00, 0.00, 0.00, 0.00, 0.00, 0.00, 0.82, -0.56, 0.13
2, 0.00, 46089.43, 0.00, 0.00, 0.00, 0.00, 0.00, 0.00, 0.82, -0.56, 0.13
3, 0.00, 46091.87, 0.00, 0.00, 0.00, 0.00, 0.00, 0.00, 0.82, -0.56, 0.13
4, 0.00, 46079.55, 0.00, 0.00, 0.00, 0.00, 0.00, 0.00, 0.82, -0.56, 0.13
5, 0.00, 46076.49, 0.00, 0.00, 0.00, 0.00, 0.00, 0.00, 0.82, -0.56, 0.13
6, 0.00, 46082.72, 0.00, 0.00, 0.00, 0.00, 0.00, 0.00, 0.82, -0.56, 0.13
7, 0.00, 46093.54, 0.00, 0.00, 0.00, 0.00, 0.00, 0.00, 0.82, -0.57, 0.13
8, 0.00, 46090.95, 0.00, 0.00, 0.00, 0.00, 0.00, 0.00, 0.82, -0.57, 0.13
9, 0.00, 46072.89, 0.00, 0.00, 0.00, 0.00, 0.00, 0.00, 0.82, -0.57, 0.13
10, 0.00, 46089.23, 0.00, 0.00, 0.00, 0.00, 0.00, 0.00, 0.82, -0.57, 0.13
11, 0.00, 46093.12, 0.00, 0.00, 0.00, 0.00, 0.00, 0.00, 0.82, -0.57, 0.13
12, 0.00, 46096.47, 0.00, 0.00, 0.00, 0.00, 0.00, 0.00, 0.82, -0.57, 0.13
13, 0.00, 46086.59, 0.00, 0.00, 0.00, 0.00, 0.00, 0.00, 0.82, -0.57, 0.13
14, 0.00, 46081.18, 0.00, 0.00, 0.00, 0.00, 0.00, 0.00, 0.82, -0.57, 0.13
15, 0.00, 46088.91, 0.00, 0.00, 0.00, 0.00, 0.00, 0.00, 0.82, -0.57, 0.13
16, 0.00, 46085.14, 0.00, 0.00, 0.00, 0.00, 0.00, 0.00, 0.82, -0.57, 0.13
17, 0.00, 46082.07, 0.00, 0.00, 0.00, 0.00, 0.00, 0.00, 0.82, -0.56, 0.13
18, 0.00, 46090.35, 0.00, 0.00, 0.00, 0.00, 0.00, 0.00, 0.82, -0.56, 0.13
19, 0.00, 46087.15, 0.00, 0.00, 0.00, 0.00, 0.00, 0.00, 0.82, -0.56, 0.13
20, 0.00, 46091.33, 0.00, 0.00, 0.00, 0.00, 0.00, 0.00, 0.82, -0.56, 0.13
21, 0.00, 46085.29, 0.00, 0.00, 0.00, 0.00, 0.00, 0.00, 0.82, -0.56, 0.13
22, 0.00, 46083.24, 0.00, 0.00, 0.00, 0.00, 0.00, 0.00, 0.82, -0.57, 0.12
23, 0.00, 46098.53, 0.00, 0.00, 0.00, 0.00, 0.00, 0.00, 0.82, -0.57, 0.12
24, 0.00, 46092.85, 0.00, 0.00, 0.00, 0.00, 0.00, 0.00, 0.82, -0.57, 0.12
25, 0.00, 46103.73, 0.00, 0.00, 0.00, 0.00, 0.00, 0.00, 0.82, -0.57, 0.12
26, 0.00, 46098.30, 0.00, 0.00, 0.00, 0.00, 0.00, 0.00, 0.82, -0.57, 0.12
27, 0.00, 46093.77, 0.00, 0.00, 0.00, 0.00, 0.00, 0.00, 0.81, -0.57, 0.13
28, 0.00, 46087.55, 0.00, 0.00, 0.00, 0.00, 0.00, 0.00, 0.81, -0.57, 0.13
29, 0.00, 46085.92, 0.00, 0.00, 0.00, 0.00, 0.00, 0.00, 0.81, -0.57, 0.13
30, 0.00, 46093.61, 0.00, 0.00, 0.00, 0.00, 0.00, 0.00, 0.81, -0.57, 0.13
31, 0.00, 46092.09, 0.00, 0.00, 0.00, 0.00, 0.00, 0.00, 0.81, -0.57, 0.13
32, 0.00, 46109.88, 0.00, 0.00, 0.00, 0.00, 0.00, 0.00, 0.82, -0.56, 0.13
33, 0.00, 46107.54, 0.00, 0.00, 0.00, 0.00, 0.00, 0.00, 0.82, -0.56, 0.13
34, 0.00, 46099.93, 0.00, 0.00, 0.00, 0.00, 0.00, 0.00, 0.82, -0.56, 0.13
35, 0.00, 46085.74, 0.00, 0.00, 0.00, 0.00, 0.00, 0.00, 0.82, -0.56, 0.13
36, 0.00, 46095.09, 0.00, 0.00, 0.00, 0.00, 0.00, 0.00, 0.82, -0.56, 0.13
37, 0.00, 46099.33, 0.00, 0.00, 0.00, 0.00, 0.00, 0.00, 0.82, -0.57, 0.13
38, 0.00, 46102.89, 0.00, 0.00, 0.00, 0.00, 0.00, 0.00, 0.82, -0.57, 0.13
39, 0.00, 46124.23, 0.00, 0.00, 0.00, 0.00, 0.00, 0.00, 0.82, -0.57, 0.13
40, 0.00, 46124.99, 0.00, 0.00, 0.00, 0.00, 0.00, 0.00, 0.82, -0.57, 0.13
41, 0.00, 46105.12, 0.00, 0.00, 0.00, 0.00, 0.00, 0.00, 0.82, -0.57, 0.13
42, 0.00, 46082.32, 0.00, 0.00, 0.00, 0.00, 0.00, 0.00, 0.81, -0.57, 0.14
43, 0.00, 46088.56, 0.00, 0.00, 0.00, 0.00, 0.00, 0.00, 0.81, -0.57, 0.14
44, 0.00, 46116.39, 0.00, 0.00, 0.00, 0.00, 0.00, 0.00, 0.81, -0.57, 0.14
45, 0.00, 46114.84, 0.00, 0.00, 0.00, 0.00, 0.00, 0.00, 0.81, -0.57, 0.14
46, 0.00, 46118.11, 0.00, 0.00, 0.00, 0.00, 0.00, 0.00, 0.81, -0.57, 0.14
47, 0.00, 46115.98, 0.00, 0.00, 0.00, 0.00, 0.00, 0.00, 0.82, -0.57, 0.13
48, 0.00, 46125.28, 0.00, 0.00, 0.00, 0.00, 0.00, 0.00, 0.82, -0.57, 0.13
49, 0.00, 46111.51, 0.00, 0.00, 0.00, 0.00, 0.00, 0.00, 0.82, -0.57, 0.13
50, 0.00, 46096.56, 0.00, 0.00, 0.00, 0.00, 0.00, 0.00, 0.82, -0.57, 0.13
51, 0.00, 46104.74, 0.00, 0.00, 0.00, 0.00, 0.00, 0.00, 0.82, -0.57, 0.13
52, 0.00, 46109.77, 0.00, 0.00, 0.00, 0.00, 0.00, 0.00, 0.82, -0.57, 0.13
53, 0.00, 46112.12, 0.00, 0.00, 0.00, 0.00, 0.00, 0.00, 0.82, -0.56, 0.13
54, 0.00, 46118.06, 0.00, 0.00, 0.00, 0.00, 0.00, 0.00, 0.82, -0.56, 0.13
55, 0.00, 46114.42, 0.00, 0.00, 0.00, 0.00, 0.00, 0.00, 0.82, -0.56, 0.13
56, 0.00, 46112.63, 0.00, 0.00, 0.00, 0.00, 0.00, 0.00, 0.82, -0.56, 0.13
57, 0.00, 46119.70, 0.00, 0.00, 0.00, 0.00, 0.00, 0.00, 0.82, -0.56, 0.13
58, 0.00, 46110.66, 0.00, 0.00, 0.00, 0.00, 0.00, 0.00, 0.82, -0.57, 0.13
59, 0.00, 46109.14, 0.00, 0.00, 0.00, 0.00, 0.00, 0.00, 0.82, -0.57, 0.13
60, 0.00, 46098.06, 0.00, 0.00, 0.00, 0.00, 0.00, 0.00, 0.82, -0.57, 0.13
61, 0.00, 46097.70, 0.00, 0.00, 0.00, 0.00, 0.00, 0.00, 0.82, -0.57, 0.13
62, 0.00, 46102.35, 0.00, 0.00, 0.00, 0.00, 0.00, 0.00, 0.82, -0.57, 0.13
63, 0.00, 46101.34, 0.00, 0.00, 0.00, 0.00, 0.00, 0.00, 0.82, -0.56, 0.13
64, 0.00, 46098.32, 0.00, 0.00, 0.00, 0.00, 0.00, 0.00, 0.82, -0.56, 0.13
65, 0.00, 46115.69, 0.00, 0.00, 0.00, 0.00, 0.00, 0.00, 0.82, -0.56, 0.13
66, 0.00, 46119.67, 0.00, 0.00, 0.00, 0.00, 0.00, 0.00, 0.82, -0.56, 0.13
67, 0.00, 46114.53, 0.00, 0.00, 0.00, 0.00, 0.00, 0.00, 0.82, -0.56, 0.13
68, 0.00, 46121.19, 0.00, 0.00, 0.00, 0.00, 0.00, 0.00, 0.82, -0.56, 0.13
69, 0.00, 46116.54, 0.00, 0.00, 0.00, 0.00, 0.00, 0.00, 0.82, -0.56, 0.13
70, 0.00, 46118.26, 0.00, 0.00, 0.00, 0.00, 0.00, 0.00, 0.82, -0.56, 0.13
71, 0.00, 46116.88, 0.00, 0.00, 0.00, 0.00, 0.00, 0.00, 0.82, -0.56, 0.13
72, 0.00, 46106.15, 0.00, 0.00, 0.00, 0.00, 0.00, 0.00, 0.82, -0.56, 0.13
73, 0.00, 46111.56, 0.00, 0.00, 0.00, 0.00, 0.00, 0.00, 0.82, -0.56, 0.13
74, 0.00, 46110.75, 0.00, 0.00, 0.00, 0.00, 0.00, 0.00, 0.82, -0.56, 0.13
75, 0.00, 46100.34, 0.00, 0.00, 0.00, 0.00, 0.00, 0.00, 0.82, -0.56, 0.13
76, 0.00, 46105.75, 0.00, 0.00, 0.00, 0.00, 0.00, 0.00, 0.82, -0.56, 0.13
77, 0.00, 46113.99, 0.00, 0.00, 0.00, 0.00, 0.00, 0.00, 0.82, -0.56, 0.13
78, 0.00, 46120.79, 0.00, 0.00, 0.00, 0.00, 0.00, 0.00, 0.81, -0.56, 0.12
79, 0.00, 46120.39, 0.00, 0.00, 0.00, 0.00, 0.00, 0.00, 0.81, -0.56, 0.12
80, 0.00, 46124.93, 0.00, 0.00, 0.00, 0.00, 0.00, 0.00, 0.81, -0.56, 0.12
81, 0.00, 46115.52, 0.00, 0.00, 0.00, 0.00, 0.00, 0.00, 0.81, -0.56, 0.12
82, 0.00, 46111.78, 0.00, 0.00, 0.00, 0.00, 0.00, 0.00, 0.81, -0.56, 0.12
83, 0.00, 46104.41, 0.00, 0.00, 0.00, 0.00, 0.00, 0.00, 0.81, -0.57, 0.13
84, 0.00, 46102.08, 0.00, 0.00, 0.00, 0.00, 0.00, 0.00, 0.81, -0.57, 0.13
85, 0.00, 46117.23, 0.00, 0.00, 0.00, 0.00, 0.00, 0.00, 0.81, -0.57, 0.13
86, 0.00, 46115.09, 0.00, 0.00, 0.00, 0.00, 0.00, 0.00, 0.81, -0.57, 0.13
87, 0.00, 46117.57, 0.00, 0.00, 0.00, 0.00, 0.00, 0.00, 0.81, -0.57, 0.13
88, 0.00, 46112.21, 0.00, 0.00, 0.00, 0.00, 0.00, 0.00, 0.81, -0.56, 0.14
89, 0.00, 46107.69, 0.00, 0.00, 0.00, 0.00, 0.00, 0.00, 0.81, -0.56, 0.14
90, 0.00, 46122.73, 0.00, 0.00, 0.00, 0.00, 0.00, 0.00, 0.81, -0.56, 0.14
91, 0.00, 46141.11, 0.00, 0.00, 0.00, 0.00, 0.00, 0.00, 0.81, -0.56, 0.14
92, 0.00, 46122.62, 0.00, 0.00, 0.00, 0.00, 0.00, 0.00, 0.81, -0.56, 0.14
93, 0.00, 46108.32, 0.00, 0.00, 0.00, 0.00, 0.00, 0.00, 0.81, -0.56, 0.14
94, 0.00, 46105.07, 0.00, 0.00, 0.00, 0.00, 0.00, 0.00, 0.81, -0.56, 0.14
95, 0.00, 46109.05, 0.00, 0.00, 0.00, 0.00, 0.00, 0.00, 0.81, -0.56, 0.14
96, 0.00, 46107.96, 0.00, 0.00, 0.00, 0.00, 0.00, 0.00, 0.81, -0.56, 0.14
97, 0.00, 46110.04, 0.00, 0.00, 0.00, 0.00, 0.00, 0.00, 0.81, -0.56, 0.14
98, 0.00, 46112.72, 0.00, 0.00, 0.00, 0.00, 0.00, 0.00, 0.82, -0.56, 0.14
99, 0.00, 46125.01, 0.00, 0.00, 0.00, 0.00, 0.00, 0.00, 0.82, -0.56, 0.14
100, 0.00, 46118.78, 0.00, 0.00, 0.00, 0.00, 0.00, 0.00, 0.82, -0.56, 0.14
101, 0.00, 46115.63, 0.00, 0.00, 0.00, 0.00, 0.00, 0.00, 0.82, -0.56, 0.14
102, 0.00, 46138.36, 0.00, 0.00, 0.00, 0.00, 0.00, 0.00, 0.82, -0.56, 0.14
103, 0.00, 46127.81, 0.00, 0.00, 0.00, 0.00, 0.00, 0.00, 0.82, -0.56, 0.14
104, 0.00, 46125.59, 0.00, 0.00, 0.00, 0.00, 0.00, 0.00, 0.82, -0.56, 0.14
105, 0.00, 46128.95, 0.00, 0.00, 0.00, 0.00, 0.00, 0.00, 0.82, -0.56, 0.14
106, 0.00, 46124.63, 0.00, 0.00, 0.00, 0.00, 0.00, 0.00, 0.82, -0.56, 0.14
107, 0.00, 46135.18, 0.00, 0.00, 0.00, 0.00, 0.00, 0.00, 0.82, -0.56, 0.14
108, 0.00, 46142.29, 0.00, 0.00, 0.00, 0.00, 0.00, 0.00, 0.81, -0.57, 0.14
109, 0.00, 46133.73, 0.00, 0.00, 0.00, 0.00, 0.00, 0.00, 0.81, -0.57, 0.14
110, 0.00, 46134.42, 0.00, 0.00, 0.00, 0.00, 0.00, 0.00, 0.81, -0.57, 0.14
111, 0.00, 46131.56, 0.00, 0.00, 0.00, 0.00, 0.00, 0.00, 0.81, -0.57, 0.14
112, 0.00, 46131.52, 0.00, 0.00, 0.00, 0.00, 0.00, 0.00, 0.81, -0.57, 0.14
113, 0.00, 46131.34, 0.00, 0.00, 0.00, 0.00, 0.00, 0.00, 0.82, -0.57, 0.13
114, 0.00, 46131.96, 0.00, 0.00, 0.00, 0.00, 0.00, 0.00, 0.82, -0.57, 0.13
115, 0.00, 46146.80, 0.00, 0.00, 0.00, 0.00, 0.00, 0.00, 0.82, -0.57, 0.13
116, 0.00, 46146.98, 0.00, 0.00, 0.00, 0.00, 0.00, 0.00, 0.82, -0.57, 0.13
117, 0.00, 46134.65, 0.00, 0.00, 0.00, 0.00, 0.00, 0.00, 0.82, -0.57, 0.13
118, 0.00, 46125.41, 0.00, 0.00, 0.00, 0.00, 0.00, 0.00, 0.82, -0.57, 0.13
119, 0.00, 46137.62, 0.00, 0.00, 0.00, 0.00, 0.00, 0.00, 0.82, -0.57, 0.13
120, 0.00, 46142.47, 0.00, 0.00, 0.00, 0.00, 0.00, 0.00, 0.82, -0.57, 0.13
121, 0.00, 46133.20, 0.00, 0.00, 0.00, 0.00, 0.00, 0.00, 0.82, -0.57, 0.13
122, 0.00, 46132.12, 0.00, 0.00, 0.00, 0.00, 0.00, 0.00, 0.82, -0.57, 0.13
123, 0.00, 46141.57, 0.00, 0.00, 0.00, 0.00, 0.00, 0.00, 0.82, -0.56, 0.13
124, 0.00, 46137.98, 0.00, 0.00, 0.00, 0.00, 0.00, 0.00, 0.82, -0.56, 0.13
125, 0.00, 46139.50, 0.00, 0.00, 0.00, 0.00, 0.00, 0.00, 0.82, -0.56, 0.13
126, 0.00, 46148.01, 0.00, 0.00, 0.00, 0.00, 0.00, 0.00, 0.82, -0.56, 0.13
127, 0.00, 46156.42, 0.00, 0.00, 0.00, 0.00, 0.00, 0.00, 0.82, -0.56, 0.13
128, 0.00, 46155.77, 0.00, 0.00, 0.00, 0.00, 0.00, 0.00, 0.82, -0.57, 0.13
129, 0.00, 46133.80, 0.00, 0.00, 0.00, 0.00, 0.00, 0.00, 0.82, -0.57, 0.13
130, 0.00, 46128.28, 0.00, 0.00, 0.00, 0.00, 0.00, 0.00, 0.82, -0.57, 0.13
131, 0.00, 46133.35, 0.00, 0.00, 0.00, 0.00, 0.00, 0.00, 0.82, -0.57, 0.13
132, 0.00, 46142.56, 0.00, 0.00, 0.00, 0.00, 0.00, 0.00, 0.82, -0.57, 0.13
133, 0.00, 46139.68, 0.00, 0.00, 0.00, 0.00, 0.00, 0.00, 0.83, -0.56, 0.14
134, 0.00, 46142.31, 0.00, 0.00, 0.00, 0.00, 0.00, 0.00, 0.83, -0.56, 0.14
135, 0.00, 46143.83, 0.00, 0.00, 0.00, 0.00, 0.00, 0.00, 0.83, -0.56, 0.14
136, 0.00, 46149.40, 0.00, 0.00, 0.00, 0.00, 0.00, 0.00, 0.83, -0.56, 0.14
137, 0.00, 46150.76, 0.00, 0.00, 0.00, 0.00, 0.00, 0.00, 0.83, -0.56, 0.14
138, 0.00, 46142.07, 0.00, 0.00, 0.00, 0.00, 0.00, 0.00, 0.82, -0.57, 0.13
139, 0.00, 46147.66, 0.00, 0.00, 0.00, 0.00, 0.00, 0.00, 0.82, -0.57, 0.13
140, 0.00, 46147.10, 0.00, 0.00, 0.00, 0.00, 0.00, 0.00, 0.82, -0.57, 0.13
141, 0.00, 46146.23, 0.00, 0.00, 0.00, 0.00, 0.00, 0.00, 0.82, -0.57, 0.13
142, 0.00, 46143.12, 0.00, 0.00, 0.00, 0.00, 0.00, 0.00, 0.82, -0.57, 0.13
143, 0.00, 46128.48, 0.00, 0.00, 0.00, 0.00, 0.00, 0.00, 0.82, -0.57, 0.14
144, 0.00, 46143.86, 0.00, 0.00, 0.00, 0.00, 0.00, 0.00, 0.82, -0.57, 0.14
145, 0.00, 46150.90, 0.00, 0.00, 0.00, 0.00, 0.00, 0.00, 0.82, -0.57, 0.14
146, 0.00, 46141.26, 0.00, 0.00, 0.00, 0.00, 0.00, 0.00, 0.82, -0.57, 0.14
147, 0.00, 46133.42, 0.00, 0.00, 0.00, 0.00, 0.00, 0.00, 0.82, -0.57, 0.14
148, 0.00, 46141.33, 0.00, 0.00, 0.00, 0.00, 0.00, 0.00, 0.82, -0.56, 0.14
149, 0.00, 46160.06, 0.00, 0.00, 0.00, 0.00, 0.00, 0.00, 0.82, -0.56, 0.14
150, 0.00, 46147.72, 0.00, 0.00, 0.00, 0.00, 0.00, 0.00, 0.82, -0.56, 0.14
151, 0.00, 46138.34, 0.00, 0.00, 0.00, 0.00, 0.00, 0.00, 0.82, -0.56, 0.14
152, 0.00, 46138.00, 0.00, 0.00, 0.00, 0.00, 0.00, 0.00, 0.82, -0.56, 0.14
153, 0.00, 46145.38, 0.00, 0.00, 0.00, 0.00, 0.00, 0.00, 0.82, -0.57, 0.13
154, 0.00, 46147.48, 0.00, 0.00, 0.00, 0.00, 0.00, 0.00, 0.82, -0.57, 0.13
155, 0.00, 46140.39, 0.00, 0.00, 0.00, 0.00, 0.00, 0.00, 0.82, -0.57, 0.13
156, 0.00, 46133.73, 0.00, 0.00, 0.00, 0.00, 0.00, 0.00, 0.82, -0.57, 0.13
157, 0.00, 46153.96, 0.00, 0.00, 0.00, 0.00, 0.00, 0.00, 0.82, -0.57, 0.13
158, 0.00, 46158.90, 0.00, 0.00, 0.00, 0.00, 0.00, 0.00, 0.82, -0.56, 0.14
159, 0.00, 46148.93, 0.00, 0.00, 0.00, 0.00, 0.00, 0.00, 0.82, -0.56, 0.14
160, 0.00, 46147.59, 0.00, 0.00, 0.00, 0.00, 0.00, 0.00, 0.82, -0.56, 0.14
161, 0.00, 46153.76, 0.00, 0.00, 0.00, 0.00, 0.00, 0.00, 0.82, -0.56, 0.14
162, 0.00, 46153.18, 0.00, 0.00, 0.00, 0.00, 0.00, 0.00, 0.82, -0.56, 0.14
163, 0.00, 46145.53, 0.00, 0.00, 0.00, 0.00, 0.00, 0.00, 0.82, -0.56, 0.13
164, 0.00, 46150.18, 0.00, 0.00, 0.00, 0.00, 0.00, 0.00, 0.82, -0.56, 0.13
165, 0.00, 46158.61, 0.00, 0.00, 0.00, 0.00, 0.00, 0.00, 0.82, -0.56, 0.13
166, 0.00, 46154.14, 0.00, 0.00, 0.00, 0.00, 0.00, 0.00, 0.82, -0.56, 0.13
167, 0.00, 46141.15, 0.00, 0.00, 0.00, 0.00, 0.00, 0.00, 0.82, -0.56, 0.13
168, 0.00, 46140.48, 0.00, 0.00, 0.00, 0.00, 0.00, 0.00, 0.82, -0.56, 0.14
169, 0.00, 46140.57, 0.00, 0.00, 0.00, 0.00, 0.00, 0.00, 0.82, -0.56, 0.14
170, 0.00, 46149.04, 0.00, 0.00, 0.00, 0.00, 0.00, 0.00, 0.82, -0.56, 0.14
171, 0.00, 46153.09, 0.00, 0.00, 0.00, 0.00, 0.00, 0.00, 0.82, -0.56, 0.14
172, 0.00, 46151.03, 0.00, 0.00, 0.00, 0.00, 0.00, 0.00, 0.82, -0.56, 0.14
173, 0.00, 46155.90, 0.00, 0.00, 0.00, 0.00, 0.00, 0.00, 0.82, -0.56, 0.13
174, 0.00, 46167.44, 0.00, 0.00, 0.00, 0.00, 0.00, 0.00, 0.82, -0.56, 0.13
175, 0.00, 46171.84, 0.00, 0.00, 0.00, 0.00, 0.00, 0.00, 0.82, -0.56, 0.13
176, 0.00, 46150.47, 0.00, 0.00, 0.00, 0.00, 0.00, 0.00, 0.82, -0.56, 0.13
177, 0.00, 46161.18, 0.00, 0.00, 0.00, 0.00, 0.00, 0.00, 0.82, -0.56, 0.13
178, 0.00, 46158.68, 0.00, 0.00, 0.00, 0.00, 0.00, 0.00, 0.82, -0.56, 0.14
179, 0.00, 46147.59, 0.00, 0.00, 0.00, 0.00, 0.00, 0.00, 0.82, -0.56, 0.14
180, 0.00, 46146.80, 0.00, 0.00, 0.00, 0.00, 0.00, 0.00, 0.82, -0.56, 0.14
181, 0.00, 46152.21, 0.00, 0.00, 0.00, 0.00, 0.00, 0.00, 0.82, -0.56, 0.14
182, 0.00, 46164.04, 0.00, 0.00, 0.00, 0.00, 0.00, 0.00, 0.82, -0.56, 0.14
183, 0.00, 46153.63, 0.00, 0.00, 0.00, 0.00, 0.00, 0.00, 0.81, -0.57, 0.13
184, 0.00, 46143.41, 0.00, 0.00, 0.00, 0.00, 0.00, 0.00, 0.81, -0.57, 0.13
185, 0.00, 46142.87, 0.00, 0.00, 0.00, 0.00, 0.00, 0.00, 0.81, -0.57, 0.13
186, 0.00, 46152.55, 0.00, 0.00, 0.00, 0.00, 0.00, 0.00, 0.81, -0.57, 0.13
187, 0.00, 46176.42, 0.00, 0.00, 0.00, 0.00, 0.00, 0.00, 0.81, -0.57, 0.13
188, 0.00, 46163.86, 0.00, 0.00, 0.00, 0.00, 0.00, 0.00, 0.81, -0.56, 0.13
189, 0.00, 46159.77, 0.00, 0.00, 0.00, 0.00, 0.00, 0.00, 0.81, -0.56, 0.13
190, 0.00, 46173.41, 0.00, 0.00, 0.00, 0.00, 0.00, 0.00, 0.81, -0.56, 0.13
191, 0.00, 46171.17, 0.00, 0.00, 0.00, 0.00, 0.00, 0.00, 0.81, -0.56, 0.13
192, 0.00, 46155.77, 0.00, 0.00, 0.00, 0.00, 0.00, 0.00, 0.81, -0.56, 0.13
193, 0.00, 46144.91, 0.00, 0.00, 0.00, 0.00, 0.00, 0.00, 0.81, -0.57, 0.13
194, 0.00, 46154.94, 0.00, 0.00, 0.00, 0.00, 0.00, 0.00, 0.81, -0.57, 0.13
195, 0.00, 46164.98, 0.00, 0.00, 0.00, 0.00, 0.00, 0.00, 0.81, -0.57, 0.13
196, 0.00, 46146.16, 0.00, 0.00, 0.00, 0.00, 0.00, 0.00, 0.81, -0.57, 0.13
197, 0.00, 46159.55, 0.00, 0.00, 0.00, 0.00, 0.00, 0.00, 0.81, -0.57, 0.13
198, 0.00, 46168.29, 0.00, 0.00, 0.00, 0.00, 0.00, 0.00, 0.82, -0.57, 0.14
199, 0.00, 46168.78, 0.00, 0.00, 0.00, 0.00, 0.00, 0.00, 0.82, -0.57, 0.14
200, 0.00, 46159.61, 0.00, 0.00, 0.00, 0.00, 0.00, 0.00, 0.82, -0.57, 0.14
201, 0.00, 46149.96, 0.00, 0.00, 0.00, 0.00, 0.00, 0.00, 0.82, -0.57, 0.14
202, 0.00, 46166.03, 0.00, 0.00, 0.00, 0.00, 0.00, 0.00, 0.82, -0.57, 0.14
203, 0.00, 46164.98, 0.00, 0.00, 0.00, 0.00, 0.00, 0.00, 0.82, -0.57, 0.13
204, 0.00, 46171.33, 0.00, 0.00, 0.00, 0.00, 0.00, 0.00, 0.82, -0.57, 0.13
205, 0.00, 46163.57, 0.00, 0.00, 0.00, 0.00, 0.00, 0.00, 0.82, -0.57, 0.13
206, 0.00, 46148.30, 0.00, 0.00, 0.00, 0.00, 0.00, 0.00, 0.82, -0.57, 0.13
207, 0.00, 46166.30, 0.00, 0.00, 0.00, 0.00, 0.00, 0.00, 0.82, -0.57, 0.13
208, 0.00, 46170.39, 0.00, 0.00, 0.00, 0.00, 0.00, 0.00, 0.81, -0.56, 0.13
209, 0.00, 46163.53, 0.00, 0.00, 0.00, 0.00, 0.00, 0.00, 0.81, -0.56, 0.13
210, 0.00, 46163.13, 0.00, 0.00, 0.00, 0.00, 0.00, 0.00, 0.81, -0.56, 0.13
211, 0.00, 46164.33, 0.00, 0.00, 0.00, 0.00, 0.00, 0.00, 0.81, -0.56, 0.13
212, 0.00, 46175.15, 0.00, 0.00, 0.00, 0.00, 0.00, 0.00, 0.81, -0.56, 0.13
213, 0.00, 46169.79, 0.00, 0.00, 0.00, 0.00, 0.00, 0.00, 0.81, -0.57, 0.13
214, 0.00, 46172.31, 0.00, 0.00, 0.00, 0.00, 0.00, 0.00, 0.81, -0.57, 0.13
215, 0.00, 46164.64, 0.00, 0.00, 0.00, 0.00, 0.00, 0.00, 0.81, -0.57, 0.13
216, 0.00, 46171.41, 0.00, 0.00, 0.00, 0.00, 0.00, 0.00, 0.81, -0.57, 0.13
217, 0.00, 46171.55, 0.00, 0.00, 0.00, 0.00, 0.00, 0.00, 0.81, -0.57, 0.13
218, 0.00, 46171.91, 0.00, 0.00, 0.00, 0.00, 0.00, 0.00, 0.81, -0.56, 0.13
219, 0.00, 46183.08, 0.00, 0.00, 0.00, 0.00, 0.00, 0.00, 0.81, -0.56, 0.13
220, 0.00, 46173.92, 0.00, 0.00, 0.00, 0.00, 0.00, 0.00, 0.81, -0.56, 0.13
221, 0.00, 46168.15, 0.00, 0.00, 0.00, 0.00, 0.00, 0.00, 0.81, -0.56, 0.13
222, 0.00, 46171.73, 0.00, 0.00, 0.00, 0.00, 0.00, 0.00, 0.81, -0.56, 0.13
223, 0.00, 46169.40, 0.00, 0.00, 0.00, 0.00, 0.00, 0.00, 0.81, -0.56, 0.13
224, 0.00, 46164.57, 0.00, 0.00, 0.00, 0.00, 0.00, 0.00, 0.81, -0.56, 0.13
225, 0.00, 46173.85, 0.00, 0.00, 0.00, 0.00, 0.00, 0.00, 0.81, -0.56, 0.13
226, 0.00, 46182.52, 0.00, 0.00, 0.00, 0.00, 0.00, 0.00, 0.81, -0.56, 0.13
227, 0.00, 46176.96, 0.00, 0.00, 0.00, 0.00, 0.00, 0.00, 0.81, -0.56, 0.13
228, 0.00, 46178.16, 0.00, 0.00, 0.00, 0.00, 0.00, 0.00, 0.82, -0.56, 0.14
229, 0.00, 46174.93, 0.00, 0.00, 0.00, 0.00, 0.00, 0.00, 0.82, -0.56, 0.14
230, 0.00, 46169.38, 0.00, 0.00, 0.00, 0.00, 0.00, 0.00, 0.82, -0.56, 0.14
231, 0.00, 46159.86, 0.00, 0.00, 0.00, 0.00, 0.00, 0.00, 0.82, -0.56, 0.14
232, 0.00, 46169.45, 0.00, 0.00, 0.00, 0.00, 0.00, 0.00, 0.82, -0.56, 0.14
233, 0.00, 46172.38, 0.00, 0.00, 0.00, 0.00, 0.00, 0.00, 0.82, -0.57, 0.14
234, 0.00, 46158.79, 0.00, 0.00, 0.00, 0.00, 0.00, 0.00, 0.82, -0.57, 0.14
235, 0.00, 46149.80, 0.00, 0.00, 0.00, 0.00, 0.00, 0.00, 0.82, -0.57, 0.14
236, 0.00, 46151.72, 0.00, 0.00, 0.00, 0.00, 0.00, 0.00, 0.82, -0.57, 0.14
237, 0.00, 46171.19, 0.00, 0.00, 0.00, 0.00, 0.00, 0.00, 0.82, -0.57, 0.14
238, 0.00, 46171.01, 0.00, 0.00, 0.00, 0.00, 0.00, 0.00, 0.81, -0.56, 0.14
239, 0.00, 46162.92, 0.00, 0.00, 0.00, 0.00, 0.00, 0.00, 0.81, -0.56, 0.14
240, 0.00, 46167.71, 0.00, 0.00, 0.00, 0.00, 0.00, 0.00, 0.81, -0.56, 0.14
241, 0.00, 46179.42, 0.00, 0.00, 0.00, 0.00, 0.00, 0.00, 0.81, -0.56, 0.14
242, 0.00, 46176.00, 0.00, 0.00, 0.00, 0.00, 0.00, 0.00, 0.81, -0.56, 0.14
243, 0.00, 46170.50, 0.00, 0.00, 0.00, 0.00, 0.00, 0.00, 0.82, -0.57, 0.14
244, 0.00, 46181.07, 0.00, 0.00, 0.00, 0.00, 0.00, 0.00, 0.82, -0.57, 0.14
245, 0.00, 46182.59, 0.00, 0.00, 0.00, 0.00, 0.00, 0.00, 0.82, -0.57, 0.14
246, 0.00, 46159.14, 0.00, 0.00, 0.00, 0.00, 0.00, 0.00, 0.82, -0.57, 0.14
247, 0.00, 46159.77, 0.00, 0.00, 0.00, 0.00, 0.00, 0.00, 0.82, -0.57, 0.14
248, 0.00, 46167.66, 0.00, 0.00, 0.00, 0.00, 0.00, 0.00, 0.82, -0.57, 0.14
249, 0.00, 46166.57, 0.00, 0.00, 0.00, 0.00, 0.00, 0.00, 0.82, -0.57, 0.13
250, 0.00, 46176.38, 0.00, 0.00, 0.00, 0.00, 0.00, 0.00, 0.82, -0.57, 0.13
251, 0.00, 46178.10, 0.00, 0.00, 0.00, 0.00, 0.00, 0.00, 0.82, -0.57, 0.13
252, 0.00, 46159.28, 0.00, 0.00, 0.00, 0.00, 0.00, 0.00, 0.82, -0.57, 0.13
253, 0.00, 46172.46, 0.00, 0.00, 0.00, 0.00, 0.00, 0.00, 0.82, -0.57, 0.13
254, 0.00, 46182.57, 0.00, 0.00, 0.00, 0.00, 0.00, 0.00, 0.82, -0.56, 0.13
255, 0.00, 46172.24, 0.00, 0.00, 0.00, 0.00, 0.00, 0.00, 0.82, -0.56, 0.13
0, 0.00, 46171.35, 0.00, 0.00, 0.00, 0.00, 0.00, 0.00, 0.82, -0.56, 0.13
1, 0.00, 46183.71, 0.00, 0.00, 0.00, 0.00, 0.00, 0.00, 0.82, -0.56, 0.13
2, 0.00, 46175.77, 0.00, 0.00, 0.00, 0.00, 0.00, 0.00, 0.82, -0.56, 0.13
3, 0.00, 46171.59, 0.00, 0.00, 0.00, 0.00, 0.00, 0.00, 0.81, -0.56, 0.14
4, 0.00, 46167.35, 0.00, 0.00, 0.00, 0.00, 0.00, 0.00, 0.81, -0.56, 0.14
5, 0.00, 46169.92, 0.00, 0.00, 0.00, 0.00, 0.00, 0.00, 0.81, -0.56, 0.14
6, 0.00, 46167.97, 0.00, 0.00, 0.00, 0.00, 0.00, 0.00, 0.81, -0.56, 0.14
7, 0.00, 46169.34, 0.00, 0.00, 0.00, 0.00, 0.00, 0.00, 0.81, -0.56, 0.14
8, 0.00, 46177.05, 0.00, 0.00, 0.00, 0.00, 0.00, 0.00, 0.82, -0.56, 0.14
9, 0.00, 46189.27, 0.00, 0.00, 0.00, 0.00, 0.00, 0.00, 0.82, -0.56, 0.14
10, 0.00, 46183.38, 0.00, 0.00, 0.00, 0.00, 0.00, 0.00, 0.82, -0.56, 0.14
11, 0.00, 46188.29, 0.00, 0.00, 0.00, 0.00, 0.00, 0.00, 0.82, -0.56, 0.14
12, 0.00, 46180.09, 0.00, 0.00, 0.00, 0.00, 0.00, 0.00, 0.82, -0.56, 0.14
13, 0.00, 46184.85, 0.00, 0.00, 0.00, 0.00, 0.00, 0.00, 0.82, -0.57, 0.14
14, 0.00, 46184.83, 0.00, 0.00, 0.00, 0.00, 0.00, 0.00, 0.82, -0.57, 0.14
15, 0.00, 46180.22, 0.00, 0.00, 0.00, 0.00, 0.00, 0.00, 0.82, -0.57, 0.14
16, 0.00, 46180.89, 0.00, 0.00, 0.00, 0.00, 0.00, 0.00, 0.82, -0.57, 0.14
17, 0.00, 46173.58, 0.00, 0.00, 0.00, 0.00, 0.00, 0.00, 0.82, -0.57, 0.14
18, 0.00, 46194.15, 0.00, 0.00, 0.00, 0.00, 0.00, 0.00, 0.82, -0.56, 0.13
19, 0.00, 46187.78, 0.00, 0.00, 0.00, 0.00, 0.00, 0.00, 0.82, -0.56, 0.13
20, 0.00, 46173.74, 0.00, 0.00, 0.00, 0.00, 0.00, 0.00, 0.82, -0.56, 0.13
21, 0.00, 46174.61, 0.00, 0.00, 0.00, 0.00, 0.00, 0.00, 0.82, -0.56, 0.13
22, 0.00, 46188.25, 0.00, 0.00, 0.00, 0.00, 0.00, 0.00, 0.82, -0.56, 0.13
23, 0.00, 46185.05, 0.00, 0.00, 0.00, 0.00, 0.00, 0.00, 0.81, -0.56, 0.14
24, 0.00, 46180.02, 0.00, 0.00, 0.00, 0.00, 0.00, 0.00, 0.81, -0.56, 0.14
25, 0.00, 46178.86, 0.00, 0.00, 0.00, 0.00, 0.00, 0.00, 0.81, -0.56, 0.14
26, 0.00, 46167.71, 0.00, 0.00, 0.00, 0.00, 0.00, 0.00, 0.81, -0.56, 0.14
27, 0.00, 46183.24, 0.00, 0.00, 0.00, 0.00, 0.00, 0.00, 0.81, -0.56, 0.14
28, 0.00, 46188.49, 0.00, 0.00, 0.00, 0.00, 0.00, 0.00, 0.82, -0.56, 0.14
29, 0.00, 46183.08, 0.00, 0.00, 0.00, 0.00, 0.00, 0.00, 0.82, -0.56, 0.14
30, 0.00, 46190.23, 0.00, 0.00, 0.00, 0.00, 0.00, 0.00, 0.82, -0.56, 0.14
31, 0.00, 46185.95, 0.00, 0.00, 0.00, 0.00, 0.00, 0.00, 0.82, -0.56, 0.14
32, 0.00, 46169.34, 0.00, 0.00, 0.00, 0.00, 0.00, 0.00, 0.82, -0.56, 0.14
33, 0.00, 46175.11, 0.00, 0.00, 0.00, 0.00, 0.00, 0.00, 0.82, -0.56, 0.13
34, 0.00, 46175.08, 0.00, 0.00, 0.00, 0.00, 0.00, 0.00, 0.82, -0.56, 0.13
35, 0.00, 46191.96, 0.00, 0.00, 0.00, 0.00, 0.00, 0.00, 0.82, -0.56, 0.13
36, 0.00, 46191.24, 0.00, 0.00, 0.00, 0.00, 0.00, 0.00, 0.82, -0.56, 0.13
37, 0.00, 46188.36, 0.00, 0.00, 0.00, 0.00, 0.00, 0.00, 0.82, -0.56, 0.13
38, 0.00, 46188.31, 0.00, 0.00, 0.00, 0.00, 0.00, 0.00, 0.82, -0.57, 0.14
39, 0.00, 46188.70, 0.00, 0.00, 0.00, 0.00, 0.00, 0.00, 0.82, -0.57, 0.14
40, 0.00, 46192.96, 0.00, 0.00, 0.00, 0.00, 0.00, 0.00, 0.82, -0.57, 0.14
41, 0.00, 46181.81, 0.00, 0.00, 0.00, 0.00, 0.00, 0.00, 0.82, -0.57, 0.14
42, 0.00, 46181.63, 0.00, 0.00, 0.00, 0.00, 0.00, 0.00, 0.82, -0.57, 0.14
43, 0.00, 46200.03, 0.00, 0.00, 0.00, 0.00, 0.00, 0.00, 0.82, -0.56, 0.13
44, 0.00, 46202.02, 0.00, 0.00, 0.00, 0.00, 0.00, 0.00, 0.82, -0.56, 0.13
45, 0.00, 46191.82, 0.00, 0.00, 0.00, 0.00, 0.00, 0.00, 0.82, -0.56, 0.13
46, 0.00, 46194.62, 0.00, 0.00, 0.00, 0.00, 0.00, 0.00, 0.82, -0.56, 0.13
47, 0.00, 46205.52, 0.00, 0.00, 0.00, 0.00, 0.00, 0.00, 0.82, -0.56, 0.13
48, 0.00, 46213.13, 0.00, 0.00, 0.00, 0.00, 0.00, 0.00, 0.82, -0.57, 0.13
49, 0.00, 46191.44, 0.00, 0.00, 0.00, 0.00, 0.00, 0.00, 0.82, -0.57, 0.13
50, 0.00, 46196.02, 0.00, 0.00, 0.00, 0.00, 0.00, 0.00, 0.82, -0.57, 0.13
51, 0.00, 46202.53, 0.00, 0.00, 0.00, 0.00, 0.00, 0.00, 0.82, -0.57, 0.13
52, 0.00, 46191.89, 0.00, 0.00, 0.00, 0.00, 0.00, 0.00, 0.82, -0.57, 0.13
53, 0.00, 46176.07, 0.00, 0.00, 0.00, 0.00, 0.00, 0.00, 0.82, -0.56, 0.14
54, 0.00, 46194.21, 0.00, 0.00, 0.00, 0.00, 0.00, 0.00, 0.82, -0.56, 0.14
55, 0.00, 46203.65, 0.00, 0.00, 0.00, 0.00, 0.00, 0.00, 0.82, -0.56, 0.14
56, 0.00, 46202.91, 0.00, 0.00, 0.00, 0.00, 0.00, 0.00, 0.82, -0.56, 0.14
57, 0.00, 46202.80, 0.00, 0.00, 0.00, 0.00, 0.00, 0.00, 0.82, -0.56, 0.14
58, 0.00, 46192.16, 0.00, 0.00, 0.00, 0.00, 0.00, 0.00, 0.82, -0.56, 0.13
59, 0.00, 46189.23, 0.00, 0.00, 0.00, 0.00, 0.00, 0.00, 0.82, -0.56, 0.13
60, 0.00, 46201.57, 0.00, 0.00, 0.00, 0.00, 0.00, 0.00, 0.82, -0.56, 0.13
61, 0.00, 46184.63, 0.00, 0.00, 0.00, 0.00, 0.00, 0.00, 0.82, -0.56, 0.13
62, 0.00, 46173.52, 0.00, 0.00, 0.00, 0.00, 0.00, 0.00, 0.82, -0.56, 0.13
63, 0.00, 46203.42, 0.00, 0.00, 0.00, 0.00, 0.00, 0.00, 0.82, -0.56, 0.14
64, 0.00, 46205.05, 0.00, 0.00, 0.00, 0.00, 0.00, 0.00, 0.82, -0.56, 0.14
65, 0.00, 46201.46, 0.00, 0.00, 0.00, 0.00, 0.00, 0.00, 0.82, -0.56, 0.14
66, 0.00, 46184.83, 0.00, 0.00, 0.00, 0.00, 0.00, 0.00, 0.82, -0.56, 0.14
67, 0.00, 46193.88, 0.00, 0.00, 0.00, 0.00, 0.00, 0.00, 0.82, -0.56, 0.14
68, 0.00, 46196.38, 0.00, 0.00, 0.00, 0.00, 0.00, 0.00, 0.82, -0.57, 0.14
69, 0.00, 46203.71, 0.00, 0.00, 0.00, 0.00, 0.00, 0.00, 0.82, -0.57, 0.14
70, 0.00, 46196.02, 0.00, 0.00, 0.00, 0.00, 0.00, 0.00, 0.82, -0.57, 0.14
71, 0.00, 46201.30, 0.00, 0.00, 0.00, 0.00, 0.00, 0.00, 0.82, -0.57, 0.14
72, 0.00, 46214.93, 0.00, 0.00, 0.00, 0.00, 0.00, 0.00, 0.82, -0.57, 0.14
73, 0.00, 46215.83, 0.00, 0.00, 0.00, 0.00, 0.00, 0.00, 0.82, -0.56, 0.14
74, 0.00, 46200.12, 0.00, 0.00, 0.00, 0.00, 0.00, 0.00, 0.82, -0.56, 0.14
75, 0.00, 46206.73, 0.00, 0.00, 0.00, 0.00, 0.00, 0.00, 0.82, -0.56, 0.14
76, 0.00, 46214.46, 0.00, 0.00, 0.00, 0.00, 0.00, 0.00, 0.82, -0.56, 0.14
77, 0.00, 46210.24, 0.00, 0.00, 0.00, 0.00, 0.00, 0.00, 0.82, -0.56, 0.14
78, 0.00, 46206.17, 0.00, 0.00, 0.00, 0.00, 0.00, 0.00, 0.82, -0.56, 0.14
79, 0.00, 46202.98, 0.00, 0.00, 0.00, 0.00, 0.00, 0.00, 0.82, -0.56, 0.14
80, 0.00, 46209.91, 0.00, 0.00, 0.00, 0.00, 0.00, 0.00, 0.82, -0.56, 0.14
81, 0.00, 46211.70, 0.00, 0.00, 0.00, 0.00, 0.00, 0.00, 0.82, -0.56, 0.14
82, 0.00, 46207.22, 0.00, 0.00, 0.00, 0.00, 0.00, 0.00, 0.82, -0.56, 0.14
83, 0.00, 46212.03, 0.00, 0.00, 0.00, 0.00, 0.00, 0.00, 0.82, -0.57, 0.14
84, 0.00, 46225.75, 0.00, 0.00, 0.00, 0.00, 0.00, 0.00, 0.82, -0.57, 0.14
85, 0.00, 46226.82, 0.00, 0.00, 0.00, 0.00, 0.00, 0.00, 0.82, -0.57, 0.14
86, 0.00, 46198.08, 0.00, 0.00, 0.00, 0.00, 0.00, 0.00, 0.82, -0.57, 0.14
87, 0.00, 46177.92, 0.00, 0.00, 0.00, 0.00, 0.00, 0.00, 0.82, -0.57, 0.14
88, 0.00, 46196.65, 0.00, 0.00, 0.00, 0.00, 0.00, 0.00, 0.82, -0.56, 0.14
89, 0.00, 46219.14, 0.00, 0.00, 0.00, 0.00, 0.00, 0.00, 0.82, -0.56, 0.14
90, 0.00, 46225.98, 0.00, 0.00, 0.00, 0.00, 0.00, 0.00, 0.82, -0.56, 0.14
91, 0.00, 46218.18, 0.00, 0.00, 0.00, 0.00, 0.00, 0.00, 0.82, -0.56, 0.14
92, 0.00, 46219.98, 0.00, 0.00, 0.00, 0.00, 0.00, 0.00, 0.82, -0.56, 0.14
93, 0.00, 46223.59, 0.00, 0.00, 0.00, 0.00, 0.00, 0.00, 0.82, -0.56, 0.14
94, 0.00, 46223.09, 0.00, 0.00, 0.00, 0.00, 0.00, 0.00, 0.82, -0.56, 0.14
95, 0.00, 46223.43, 0.00, 0.00, 0.00, 0.00, 0.00, 0.00, 0.82, -0.56, 0.14
96, 0.00, 46229.69, 0.00, 0.00, 0.00, 0.00, 0.00, 0.00, 0.82, -0.56, 0.14
97, 0.00, 46211.14, 0.00, 0.00, 0.00, 0.00, 0.00, 0.00, 0.82, -0.56, 0.14
98, 0.00, 46195.45, 0.00, 0.00, 0.00, 0.00, 0.00, 0.00, 0.82, -0.56, 0.13
99, 0.00, 46224.37, 0.00, 0.00, 0.00, 0.00, 0.00, 0.00, 0.82, -0.56, 0.13
100, 0.00, 46214.09, 0.00, 0.00, 0.00, 0.00, 0.00, 0.00, 0.82, -0.56, 0.13
101, 0.00, 46217.80, 0.00, 0.00, 0.00, 0.00, 0.00, 0.00, 0.82, -0.56, 0.13
102, 0.00, 46217.17, 0.00, 0.00, 0.00, 0.00, 0.00, 0.00, 0.82, -0.56, 0.13
103, 0.00, 46208.81, 0.00, 0.00, 0.00, 0.00, 0.00, 0.00, 0.82, -0.57, 0.13
104, 0.00, 46211.98, 0.00, 0.00, 0.00, 0.00, 0.00, 0.00, 0.82, -0.57, 0.13
105, 0.00, 46223.25, 0.00, 0.00, 0.00, 0.00, 0.00, 0.00, 0.82, -0.57, 0.13
106, 0.00, 46221.08, 0.00, 0.00, 0.00, 0.00, 0.00, 0.00, 0.82, -0.57, 0.13
107, 0.00, 46213.30, 0.00, 0.00, 0.00, 0.00, 0.00, 0.00, 0.82, -0.57, 0.13
108, 0.00, 46201.14, 0.00, 0.00, 0.00, 0.00, 0.00, 0.00, 0.82, -0.57, 0.14
109, 0.00, 46200.41, 0.00, 0.00, 0.00, 0.00, 0.00, 0.00, 0.82, -0.57, 0.14
110, 0.00, 46214.44, 0.00, 0.00, 0.00, 0.00, 0.00, 0.00, 0.82, -0.57, 0.14
111, 0.00, 46212.57, 0.00, 0.00, 0.00, 0.00, 0.00, 0.00, 0.82, -0.57, 0.14
112, 0.00, 46201.81, 0.00, 0.00, 0.00, 0.00, 0.00, 0.00, 0.82, -0.57, 0.14
113, 0.00, 46204.14, 0.00, 0.00, 0.00, 0.00, 0.00, 0.00, 0.81, -0.57, 0.14
114, 0.00, 46218.15, 0.00, 0.00, 0.00, 0.00, 0.00, 0.00, 0.81, -0.57, 0.14
115, 0.00, 46223.83, 0.00, 0.00, 0.00, 0.00, 0.00, 0.00, 0.81, -0.57, 0.14
116, 0.00, 46205.97, 0.00, 0.00, 0.00, 0.00, 0.00, 0.00, 0.81, -0.57, 0.14
117, 0.00, 46216.84, 0.00, 0.00, 0.00, 0.00, 0.00, 0.00, 0.81, -0.57, 0.14
118, 0.00, 46223.92, 0.00, 0.00, 0.00, 0.00, 0.00, 0.00, 0.82, -0.57, 0.13
119, 0.00, 46222.89, 0.00, 0.00, 0.00, 0.00, 0.00, 0.00, 0.82, -0.57, 0.13
120, 0.00, 46214.46, 0.00, 0.00, 0.00, 0.00, 0.00, 0.00, 0.82, -0.57, 0.13
121, 0.00, 46214.98, 0.00, 0.00, 0.00, 0.00, 0.00, 0.00, 0.82, -0.57, 0.13
122, 0.00, 46235.57, 0.00, 0.00, 0.00, 0.00, 0.00, 0.00, 0.82, -0.57, 0.13
123, 0.00, 46234.71, 0.00, 0.00, 0.00, 0.00, 0.00, 0.00, 0.81, -0.57, 0.13
124, 0.00, 46227.79, 0.00, 0.00, 0.00, 0.00, 0.00, 0.00, 0.81, -0.57, 0.13
125, 0.00, 46219.56, 0.00, 0.00, 0.00, 0.00, 0.00, 0.00, 0.81, -0.57, 0.13
126, 0.00, 46227.47, 0.00, 0.00, 0.00, 0.00, 0.00, 0.00, 0.81, -0.57, 0.13
127, 0.00, 46222.15, 0.00, 0.00, 0.00, 0.00, 0.00, 0.00, 0.81, -0.57, 0.13
128, 0.00, 46211.80, 0.00, 0.00, 0.00, 0.00, 0.00, 0.00, 0.81, -0.57, 0.13
129, 0.00, 46198.53, 0.00, 0.00, 0.00, 0.00, 0.00, 0.00, 0.81, -0.57, 0.13
130, 0.00, 46215.05, 0.00, 0.00, 0.00, 0.00, 0.00, 0.00, 0.81, -0.57, 0.13
131, 0.00, 46238.40, 0.00, 0.00, 0.00, 0.00, 0.00, 0.00, 0.81, -0.57, 0.13
132, 0.00, 46232.05, 0.00, 0.00, 0.00, 0.00, 0.00, 0.00, 0.81, -0.57, 0.13
133, 0.00, 46220.30, 0.00, 0.00, 0.00, 0.00, 0.00, 0.00, 0.82, -0.57, 0.13
134, 0.00, 46219.11, 0.00, 0.00, 0.00, 0.00, 0.00, 0.00, 0.82, -0.57, 0.13
135, 0.00, 46217.13, 0.00, 0.00, 0.00, 0.00, 0.00, 0.00, 0.82, -0.57, 0.13
136, 0.00, 46218.45, 0.00, 0.00, 0.00, 0.00, 0.00, 0.00, 0.82, -0.57, 0.13
137, 0.00, 46195.00, 0.00, 0.00, 0.00, 0.00, 0.00, 0.00, 0.82, -0.57, 0.13
138, 0.00, 46217.68, 0.00, 0.00, 0.00, 0.00, 0.00, 0.00, 0.82, -0.57, 0.14
139, 0.00, 46230.31, 0.00, 0.00, 0.00, 0.00, 0.00, 0.00, 0.82, -0.57, 0.14
140, 0.00, 46207.71, 0.00, 0.00, 0.00, 0.00, 0.00, 0.00, 0.82, -0.57, 0.14
141, 0.00, 46203.27, 0.00, 0.00, 0.00, 0.00, 0.00, 0.00, 0.82, -0.57, 0.14
142, 0.00, 46212.86, 0.00, 0.00, 0.00, 0.00, 0.00, 0.00, 0.82, -0.57, 0.14
143, 0.00, 46227.43, 0.00, 0.00, 0.00, 0.00, 0.00, 0.00, 0.82, -0.57, 0.13
144, 0.00, 46226.16, 0.00, 0.00, 0.00, 0.00, 0.00, 0.00, 0.82, -0.57, 0.13
145, 0.00, 46210.26, 0.00, 0.00, 0.00, 0.00, 0.00, 0.00, 0.82, -0.57, 0.13
146, 0.00, 46207.56, 0.00, 0.00, 0.00, 0.00, 0.00, 0.00, 0.82, -0.57, 0.13
147, 0.00, 46218.46, 0.00, 0.00, 0.00, 0.00, 0.00, 0.00, 0.82, -0.57, 0.13
148, 0.00, 46231.41, 0.00, 0.00, 0.00, 0.00, 0.00, 0.00, 0.82, -0.57, 0.13
149, 0.00, 46220.50, 0.00, 0.00, 0.00, 0.00, 0.00, 0.00, 0.82, -0.57, 0.13
150, 0.00, 46212.77, 0.00, 0.00, 0.00, 0.00, 0.00, 0.00, 0.82, -0.57, 0.13
151, 0.00, 46225.39, 0.00, 0.00, 0.00, 0.00, 0.00, 0.00, 0.82, -0.57, 0.13
152, 0.00, 46221.21, 0.00, 0.00, 0.00, 0.00, 0.00, 0.00, 0.82, -0.57, 0.13
153, 0.00, 46213.93, 0.00, 0.00, 0.00, 0.00, 0.00, 0.00, 0.82, -0.57, 0.14
154, 0.00, 46213.14, 0.00, 0.00, 0.00, 0.00, 0.00, 0.00, 0.82, -0.57, 0.14
155, 0.00, 46224.68, 0.00, 0.00, 0.00, 0.00, 0.00, 0.00, 0.82, -0.57, 0.14
156, 0.00, 46226.29, 0.00, 0.00, 0.00, 0.00, 0.00, 0.00, 0.82, -0.57, 0.14
157, 0.00, 46208.07, 0.00, 0.00, 0.00, 0.00, 0.00, 0.00, 0.82, -0.57, 0.14
158, 0.00, 46193.54, 0.00, 0.00, 0.00, 0.00, 0.00, 0.00, 0.82, -0.56, 0.14
159, 0.00, 46223.34, 0.00, 0.00, 0.00, 0.00, 0.00, 0.00, 0.82, -0.56, 0.14
160, 0.00, 46239.12, 0.00, 0.00, 0.00, 0.00, 0.00, 0.00, 0.82, -0.56, 0.14
161, 0.00, 46223.20, 0.00, 0.00, 0.00, 0.00, 0.00, 0.00, 0.82, -0.56, 0.14
162, 0.00, 46204.52, 0.00, 0.00, 0.00, 0.00, 0.00, 0.00, 0.82, -0.56, 0.14
163, 0.00, 46232.64, 0.00, 0.00, 0.00, 0.00, 0.00, 0.00, 0.82, -0.57, 0.14
164, 0.00, 46228.48, 0.00, 0.00, 0.00, 0.00, 0.00, 0.00, 0.82, -0.57, 0.14
165, 0.00, 46225.86, 0.00, 0.00, 0.00, 0.00, 0.00, 0.00, 0.82, -0.57, 0.14
166, 0.00, 46224.90, 0.00, 0.00, 0.00, 0.00, 0.00, 0.00, 0.82, -0.57, 0.14
167, 0.00, 46219.65, 0.00, 0.00, 0.00, 0.00, 0.00, 0.00, 0.82, -0.57, 0.14
168, 0.00, 46235.10, 0.00, 0.00, 0.00, 0.00, 0.00, 0.00, 0.81, -0.56, 0.13
169, 0.00, 46222.38, 0.00, 0.00, 0.00, 0.00, 0.00, 0.00, 0.81, -0.56, 0.13
170, 0.00, 46216.66, 0.00, 0.00, 0.00, 0.00, 0.00, 0.00, 0.81, -0.56, 0.13
171, 0.00, 46213.23, 0.00, 0.00, 0.00, 0.00, 0.00, 0.00, 0.81, -0.56, 0.13
172, 0.00, 46227.90, 0.00, 0.00, 0.00, 0.00, 0.00, 0.00, 0.81, -0.56, 0.13
173, 0.00, 46234.20, 0.00, 0.00, 0.00, 0.00, 0.00, 0.00, 0.82, -0.56, 0.14
174, 0.00, 46227.16, 0.00, 0.00, 0.00, 0.00, 0.00, 0.00, 0.82, -0.56, 0.14
175, 0.00, 46226.04, 0.00, 0.00, 0.00, 0.00, 0.00, 0.00, 0.82, -0.56, 0.14
176, 0.00, 46218.49, 0.00, 0.00, 0.00, 0.00, 0.00, 0.00, 0.82, -0.56, 0.14
177, 0.00, 46221.21, 0.00, 0.00, 0.00, 0.00, 0.00, 0.00, 0.82, -0.56, 0.14
178, 0.00, 46214.20, 0.00, 0.00, 0.00, 0.00, 0.00, 0.00, 0.81, -0.57, 0.14
179, 0.00, 46228.61, 0.00, 0.00, 0.00, 0.00, 0.00, 0.00, 0.81, -0.57, 0.14
180, 0.00, 46233.15, 0.00, 0.00, 0.00, 0.00, 0.00, 0.00, 0.81, -0.57, 0.14
181, 0.00, 46229.04, 0.00, 0.00, 0.00, 0.00, 0.00, 0.00, 0.81, -0.57, 0.14
182, 0.00, 46228.61, 0.00, 0.00, 0.00, 0.00, 0.00, 0.00, 0.81, -0.57, 0.14
183, 0.00, 46209.05, 0.00, 0.00, 0.00, 0.00, 0.00, 0.00, 0.82, -0.57, 0.13
184, 0.00, 46207.45, 0.00, 0.00, 0.00, 0.00, 0.00, 0.00, 0.82, -0.57, 0.13
185, 0.00, 46233.35, 0.00, 0.00, 0.00, 0.00, 0.00, 0.00, 0.82, -0.57, 0.13
186, 0.00, 46235.14, 0.00, 0.00, 0.00, 0.00, 0.00, 0.00, 0.82, -0.57, 0.13
187, 0.00, 46226.56, 0.00, 0.00, 0.00, 0.00, 0.00, 0.00, 0.82, -0.57, 0.13
188, 0.00, 46223.61, 0.00, 0.00, 0.00, 0.00, 0.00, 0.00, 0.82, -0.57, 0.13
189, 0.00, 46223.29, 0.00, 0.00, 0.00, 0.00, 0.00, 0.00, 0.82, -0.57, 0.13
190, 0.00, 46225.06, 0.00, 0.00, 0.00, 0.00, 0.00, 0.00, 0.82, -0.57, 0.13
191, 0.00, 46214.27, 0.00, 0.00, 0.00, 0.00, 0.00, 0.00, 0.82, -0.57, 0.13
192, 0.00, 46206.11, 0.00, 0.00, 0.00, 0.00, 0.00, 0.00, 0.82, -0.57, 0.13
193, 0.00, 46204.36, 0.00, 0.00, 0.00, 0.00, 0.00, 0.00, 0.82, -0.57, 0.13
194, 0.00, 46219.25, 0.00, 0.00, 0.00, 0.00, 0.00, 0.00, 0.82, -0.57, 0.14
195, 0.00, 46233.75, 0.00, 0.00, 0.00, 0.00, 0.00, 0.00, 0.82, -0.57, 0.14
196, 0.00, 46217.28, 0.00, 0.00, 0.00, 0.00, 0.00, 0.00, 0.82, -0.57, 0.14
197, 0.00, 46213.86, 0.00, 0.00, 0.00, 0.00, 0.00, 0.00, 0.82, -0.57, 0.14
198, 0.00, 46229.08, 0.00, 0.00, 0.00, 0.00, 0.00, 0.00, 0.82, -0.57, 0.14
199, 0.00, 46223.99, 0.00, 0.00, 0.00, 0.00, 0.00, 0.00, 0.82, -0.56, 0.13
200, 0.00, 46217.84, 0.00, 0.00, 0.00, 0.00, 0.00, 0.00, 0.82, -0.56, 0.13
201, 0.00, 46218.91, 0.00, 0.00, 0.00, 0.00, 0.00, 0.00, 0.82, -0.56, 0.13
202, 0.00, 46228.30, 0.00, 0.00, 0.00, 0.00, 0.00, 0.00, 0.82, -0.56, 0.13
203, 0.00, 46230.09, 0.00, 0.00, 0.00, 0.00, 0.00, 0.00, 0.82, -0.56, 0.13
204, 0.00, 46218.51, 0.00, 0.00, 0.00, 0.00, 0.00, 0.00, 0.82, -0.57, 0.13
205, 0.00, 46217.21, 0.00, 0.00, 0.00, 0.00, 0.00, 0.00, 0.82, -0.57, 0.13
206, 0.00, 46222.24, 0.00, 0.00, 0.00, 0.00, 0.00, 0.00, 0.82, -0.57, 0.13
207, 0.00, 46224.73, 0.00, 0.00, 0.00, 0.00, 0.00, 0.00, 0.82, -0.57, 0.13
208, 0.00, 46222.89, 0.00, 0.00, 0.00, 0.00, 0.00, 0.00, 0.82, -0.57, 0.13
209, 0.00, 46232.82, 0.00, 0.00, 0.00, 0.00, 0.00, 0.00, 0.81, -0.56, 0.13
210, 0.00, 46241.42, 0.00, 0.00, 0.00, 0.00, 0.00, 0.00, 0.81, -0.56, 0.13
211, 0.00, 46227.12, 0.00, 0.00, 0.00, 0.00, 0.00, 0.00, 0.81, -0.56, 0.13
212, 0.00, 46228.64, 0.00, 0.00, 0.00, 0.00, 0.00, 0.00, 0.81, -0.56, 0.13
213, 0.00, 46221.44, 0.00, 0.00, 0.00, 0.00, 0.00, 0.00, 0.81, -0.56, 0.13
214, 0.00, 46237.40, 0.00, 0.00, 0.00, 0.00, 0.00, 0.00, 0.81, -0.57, 0.13
215, 0.00, 46234.56, 0.00, 0.00, 0.00, 0.00, 0.00, 0.00, 0.81, -0.57, 0.13
216, 0.00, 46214.87, 0.00, 0.00, 0.00, 0.00, 0.00, 0.00, 0.81, -0.57, 0.13
217, 0.00, 46207.22, 0.00, 0.00, 0.00, 0.00, 0.00, 0.00, 0.81, -0.57, 0.13
218, 0.00, 46207.22, 0.00, 0.00, 0.00, 0.00, 0.00, 0.00, 0.81, -0.57, 0.13
219, 0.00, 46223.94, 0.00, 0.00, 0.00, 0.00, 0.00, 0.00, 0.81, -0.57, 0.13
220, 0.00, 46233.78, 0.00, 0.00, 0.00, 0.00, 0.00, 0.00, 0.81, -0.57, 0.13
221, 0.00, 46218.58, 0.00, 0.00, 0.00, 0.00, 0.00, 0.00, 0.81, -0.57, 0.13
222, 0.00, 46205.55, 0.00, 0.00, 0.00, 0.00, 0.00, 0.00, 0.81, -0.57, 0.13
223, 0.00, 46223.70, 0.00, 0.00, 0.00, 0.00, 0.00, 0.00, 0.81, -0.57, 0.13
224, 0.00, 46219.85, 0.00, 0.00, 0.00, 0.00, 0.00, 0.00, 0.81, -0.57, 0.13
225, 0.00, 46220.79, 0.00, 0.00, 0.00, 0.00, 0.00, 0.00, 0.81, -0.57, 0.13
226, 0.00, 46215.67, 0.00, 0.00, 0.00, 0.00, 0.00, 0.00, 0.81, -0.57, 0.13
227, 0.00, 46229.17, 0.00, 0.00, 0.00, 0.00, 0.00, 0.00, 0.81, -0.57, 0.13
228, 0.00, 46223.27, 0.00, 0.00, 0.00, 0.00, 0.00, 0.00, 0.81, -0.57, 0.13
229, 0.00, 46233.13, 0.00, 0.00, 0.00, 0.00, 0.00, 0.00, 0.81, -0.56, 0.14
230, 0.00, 46226.18, 0.00, 0.00, 0.00, 0.00, 0.00, 0.00, 0.81, -0.56, 0.14
231, 0.00, 46230.74, 0.00, 0.00, 0.00, 0.00, 0.00, 0.00, 0.81, -0.56, 0.14
232, 0.00, 46216.52, 0.00, 0.00, 0.00, 0.00, 0.00, 0.00, 0.81, -0.56, 0.14
233, 0.00, 46221.75, 0.00, 0.00, 0.00, 0.00, 0.00, 0.00, 0.81, -0.56, 0.14
234, 0.00, 46234.40, 0.00, 0.00, 0.00, 0.00, 0.00, 0.00, 0.82, -0.56, 0.15
235, 0.00, 46249.36, 0.00, 0.00, 0.00, 0.00, 0.00, 0.00, 0.82, -0.56, 0.15
236, 0.00, 46249.25, 0.00, 0.00, 0.00, 0.00, 0.00, 0.00, 0.82, -0.56, 0.15
237, 0.00, 46223.36, 0.00, 0.00, 0.00, 0.00, 0.00, 0.00, 0.82, -0.56, 0.15
238, 0.00, 46202.55, 0.00, 0.00, 0.00, 0.00, 0.00, 0.00, 0.82, -0.56, 0.15
239, 0.00, 46216.10, 0.00, 0.00, 0.00, 0.00, 0.00, 0.00, 0.82, -0.57, 0.14
240, 0.00, 46226.67, 0.00, 0.00, 0.00, 0.00, 0.00, 0.00, 0.82, -0.57, 0.14
241, 0.00, 46226.63, 0.00, 0.00, 0.00, 0.00, 0.00, 0.00, 0.82, -0.57, 0.14
242, 0.00, 46213.75, 0.00, 0.00, 0.00, 0.00, 0.00, 0.00, 0.82, -0.57, 0.14
243, 0.00, 46218.89, 0.00, 0.00, 0.00, 0.00, 0.00, 0.00, 0.82, -0.57, 0.14
244, 0.00, 46201.14, 0.00, 0.00, 0.00, 0.00, 0.00, 0.00, 0.82, -0.57, 0.14
245, 0.00, 46211.63, 0.00, 0.00, 0.00, 0.00, 0.00, 0.00, 0.82, -0.57, 0.14
246, 0.00, 46218.45, 0.00, 0.00, 0.00, 0.00, 0.00, 0.00, 0.82, -0.57, 0.14
247, 0.00, 46222.02, 0.00, 0.00, 0.00, 0.00, 0.00, 0.00, 0.82, -0.57, 0.14
248, 0.00, 46229.80, 0.00, 0.00, 0.00, 0.00, 0.00, 0.00, 0.82, -0.57, 0.14
249, 0.00, 46224.88, 0.00, 0.00, 0.00, 0.00, 0.00, 0.00, 0.82, -0.56, 0.14
250, 0.00, 46227.41, 0.00, 0.00, 0.00, 0.00, 0.00, 0.00, 0.82, -0.56, 0.14
251, 0.00, 46233.09, 0.00, 0.00, 0.00, 0.00, 0.00, 0.00, 0.82, -0.56, 0.14
252, 0.00, 46226.16, 0.00, 0.00, 0.00, 0.00, 0.00, 0.00, 0.82, -0.56, 0.14
253, 0.00, 46209.17, 0.00, 0.00, 0.00, 0.00, 0.00, 0.00, 0.82, -0.56, 0.14
254, 0.00, 46204.43, 0.00, 0.00, 0.00, 0.00, 0.00, 0.00, 0.82, -0.57, 0.13
255, 0.00, 46224.81, 0.00, 0.00, 0.00, 0.00, 0.00, 0.00, 0.82, -0.57, 0.13
0, 0.00, 46223.94, 0.00, 0.00, 0.00, 0.00, 0.00, 0.00, 0.82, -0.57, 0.13
1, 0.00, 46216.23, 0.00, 0.00, 0.00, 0.00, 0.00, 0.00, 0.82, -0.57, 0.13
2, 0.00, 46213.59, 0.00, 0.00, 0.00, 0.00, 0.00, 0.00, 0.82, -0.57, 0.13
3, 0.00, 46236.28, 0.00, 0.00, 0.00, 0.00, 0.00, 0.00, 0.82, -0.56, 0.13
4, 0.00, 46237.44, 0.00, 0.00, 0.00, 0.00, 0.00, 0.00, 0.82, -0.56, 0.13
5, 0.00, 46230.40, 0.00, 0.00, 0.00, 0.00, 0.00, 0.00, 0.82, -0.56, 0.13
6, 0.00, 46209.97, 0.00, 0.00, 0.00, 0.00, 0.00, 0.00, 0.82, -0.56, 0.13
7, 0.00, 46220.70, 0.00, 0.00, 0.00, 0.00, 0.00, 0.00, 0.82, -0.56, 0.13
8, 0.00, 46215.07, 0.00, 0.00, 0.00, 0.00, 0.00, 0.00, 0.81, -0.56, 0.13
9, 0.00, 46216.99, 0.00, 0.00, 0.00, 0.00, 0.00, 0.00, 0.81, -0.56, 0.13
10, 0.00, 46220.16, 0.00, 0.00, 0.00, 0.00, 0.00, 0.00, 0.81, -0.56, 0.13
11, 0.00, 46228.68, 0.00, 0.00, 0.00, 0.00, 0.00, 0.00, 0.81, -0.56, 0.13
12, 0.00, 46236.77, 0.00, 0.00, 0.00, 0.00, 0.00, 0.00, 0.81, -0.56, 0.13
13, 0.00, 46228.86, 0.00, 0.00, 0.00, 0.00, 0.00, 0.00, 0.81, -0.56, 0.14
14, 0.00, 46222.78, 0.00, 0.00, 0.00, 0.00, 0.00, 0.00, 0.81, -0.56, 0.14
15, 0.00, 46211.22, 0.00, 0.00, 0.00, 0.00, 0.00, 0.00, 0.81, -0.56, 0.14
16, 0.00, 46227.99, 0.00, 0.00, 0.00, 0.00, 0.00, 0.00, 0.81, -0.56, 0.14
17, 0.00, 46245.18, 0.00, 0.00, 0.00, 0.00, 0.00, 0.00, 0.81, -0.56, 0.14
18, 0.00, 46232.19, 0.00, 0.00, 0.00, 0.00, 0.00, 0.00, 0.82, -0.57, 0.14
19, 0.00, 46216.01, 0.00, 0.00, 0.00, 0.00, 0.00, 0.00, 0.82, -0.57, 0.14
20, 0.00, 46224.08, 0.00, 0.00, 0.00, 0.00, 0.00, 0.00, 0.82, -0.57, 0.14
21, 0.00, 46222.98, 0.00, 0.00, 0.00, 0.00, 0.00, 0.00, 0.82, -0.57, 0.14
22, 0.00, 46224.16, 0.00, 0.00, 0.00, 0.00, 0.00, 0.00, 0.82, -0.57, 0.14
23, 0.00, 46213.48, 0.00, 0.00, 0.00, 0.00, 0.00, 0.00, 0.81, -0.57, 0.13
24, 0.00, 46213.41, 0.00, 0.00, 0.00, 0.00, 0.00, 0.00, 0.81, -0.57, 0.13
25, 0.00, 46229.44, 0.00, 0.00, 0.00, 0.00, 0.00, 0.00, 0.81, -0.57, 0.13
26, 0.00, 46216.34, 0.00, 0.00, 0.00, 0.00, 0.00, 0.00, 0.81, -0.57, 0.13
27, 0.00, 46209.08, 0.00, 0.00, 0.00, 0.00, 0.00, 0.00, 0.81, -0.57, 0.13
28, 0.00, 46232.04, 0.00, 0.00, 0.00, 0.00, 0.00, 0.00, 0.81, -0.57, 0.13
29, 0.00, 46240.57, 0.00, 0.00, 0.00, 0.00, 0.00, 0.00, 0.81, -0.57, 0.13
30, 0.00, 46213.93, 0.00, 0.00, 0.00, 0.00, 0.00, 0.00, 0.81, -0.57, 0.13
31, 0.00, 46224.43, 0.00, 0.00, 0.00, 0.00, 0.00, 0.00, 0.81, -0.57, 0.13
32, 0.00, 46236.68, 0.00, 0.00, 0.00, 0.00, 0.00, 0.00, 0.81, -0.57, 0.13
33, 0.00, 46235.83, 0.00, 0.00, 0.00, 0.00, 0.00, 0.00, 0.82, -0.57, 0.13
34, 0.00, 46237.69, 0.00, 0.00, 0.00, 0.00, 0.00, 0.00, 0.82, -0.57, 0.13
35, 0.00, 46225.93, 0.00, 0.00, 0.00, 0.00, 0.00, 0.00, 0.82, -0.57, 0.13
36, 0.00, 46216.10, 0.00, 0.00, 0.00, 0.00, 0.00, 0.00, 0.82, -0.57, 0.13
37, 0.00, 46217.80, 0.00, 0.00, 0.00, 0.00, 0.00, 0.00, 0.82, -0.57, 0.13
38, 0.00, 46221.37, 0.00, 0.00, 0.00, 0.00, 0.00, 0.00, 0.81, -0.56, 0.13
39, 0.00, 46206.84, 0.00, 0.00, 0.00, 0.00, 0.00, 0.00, 0.81, -0.56, 0.13
40, 0.00, 46203.49, 0.00, 0.00, 0.00, 0.00, 0.00, 0.00, 0.81, -0.56, 0.13
41, 0.00, 46203.31, 0.00, 0.00, 0.00, 0.00, 0.00, 0.00, 0.81, -0.56, 0.13
42, 0.00, 46203.49, 0.00, 0.00, 0.00, 0.00, 0.00, 0.00, 0.81, -0.56, 0.13
43, 0.00, 46220.34, 0.00, 0.00, 0.00, 0.00, 0.00, 0.00, 0.81, -0.56, 0.14
44, 0.00, 46233.80, 0.00, 0.00, 0.00, 0.00, 0.00, 0.00, 0.81, -0.56, 0.14
45, 0.00, 46219.92, 0.00, 0.00, 0.00, 0.00, 0.00, 0.00, 0.81, -0.56, 0.14
46, 0.00, 46233.09, 0.00, 0.00, 0.00, 0.00, 0.00, 0.00, 0.81, -0.56, 0.14
47, 0.00, 46239.01, 0.00, 0.00, 0.00, 0.00, 0.00, 0.00, 0.81, -0.56, 0.14
48, 0.00, 46224.88, 0.00, 0.00, 0.00, 0.00, 0.00, 0.00, 0.82, -0.56, 0.13
49, 0.00, 46218.04, 0.00, 0.00, 0.00, 0.00, 0.00, 0.00, 0.82, -0.56, 0.13
50, 0.00, 46214.71, 0.00, 0.00, 0.00, 0.00, 0.00, 0.00, 0.82, -0.56, 0.13
51, 0.00, 46226.29, 0.00, 0.00, 0.00, 0.00, 0.00, 0.00, 0.82, -0.56, 0.13
52, 0.00, 46233.38, 0.00, 0.00, 0.00, 0.00, 0.00, 0.00, 0.82, -0.56, 0.13
53, 0.00, 46225.17, 0.00, 0.00, 0.00, 0.00, 0.00, 0.00, 0.81, -0.57, 0.13
54, 0.00, 46221.98, 0.00, 0.00, 0.00, 0.00, 0.00, 0.00, 0.81, -0.57, 0.13
55, 0.00, 46212.61, 0.00, 0.00, 0.00, 0.00, 0.00, 0.00, 0.81, -0.57, 0.13
56, 0.00, 46212.07, 0.00, 0.00, 0.00, 0.00, 0.00, 0.00, 0.81, -0.57, 0.13
57, 0.00, 46216.28, 0.00, 0.00, 0.00, 0.00, 0.00, 0.00, 0.81, -0.57, 0.13
58, 0.00, 46231.23, 0.00, 0.00, 0.00, 0.00, 0.00, 0.00, 0.81, -0.57, 0.13
59, 0.00, 46225.20, 0.00, 0.00, 0.00, 0.00, 0.00, 0.00, 0.81, -0.57, 0.13
60, 0.00, 46202.06, 0.00, 0.00, 0.00, 0.00, 0.00, 0.00, 0.81, -0.57, 0.13
61, 0.00, 46222.80, 0.00, 0.00, 0.00, 0.00, 0.00, 0.00, 0.81, -0.57, 0.13
62, 0.00, 46240.39, 0.00, 0.00, 0.00, 0.00, 0.00, 0.00, 0.81, -0.57, 0.13
63, 0.00, 46222.67, 0.00, 0.00, 0.00, 0.00, 0.00, 0.00, 0.82, -0.57, 0.13
64, 0.00, 46214.20, 0.00, 0.00, 0.00, 0.00, 0.00, 0.00, 0.82, -0.57, 0.13
65, 0.00, 46206.62, 0.00, 0.00, 0.00, 0.00, 0.00, 0.00, 0.82, -0.57, 0.13
66, 0.00, 46220.66, 0.00, 0.00, 0.00, 0.00, 0.00, 0.00, 0.82, -0.57, 0.13
67, 0.00, 46219.63, 0.00, 0.00, 0.00, 0.00, 0.00, 0.00, 0.82, -0.57, 0.13
68, 0.00, 46220.52, 0.00, 0.00, 0.00, 0.00, 0.00, 0.00, 0.82, -0.57, 0.13
69, 0.00, 46222.94, 0.00, 0.00, 0.00, 0.00, 0.00, 0.00, 0.82, -0.57, 0.13
70, 0.00, 46219.96, 0.00, 0.00, 0.00, 0.00, 0.00, 0.00, 0.82, -0.57, 0.13
71, 0.00, 46230.31, 0.00, 0.00, 0.00, 0.00, 0.00, 0.00, 0.82, -0.57, 0.13
72, 0.00, 46223.32, 0.00, 0.00, 0.00, 0.00, 0.00, 0.00, 0.82, -0.57, 0.13
73, 0.00, 46230.20, 0.00, 0.00, 0.00, 0.00, 0.00, 0.00, 0.81, -0.57, 0.13
74, 0.00, 46235.90, 0.00, 0.00, 0.00, 0.00, 0.00, 0.00, 0.81, -0.57, 0.13
75, 0.00, 46228.12, 0.00, 0.00, 0.00, 0.00, 0.00, 0.00, 0.81, -0.57, 0.13
76, 0.00, 46226.11, 0.00, 0.00, 0.00, 0.00, 0.00, 0.00, 0.81, -0.57, 0.13
77, 0.00, 46234.09, 0.00, 0.00, 0.00, 0.00, 0.00, 0.00, 0.81, -0.57, 0.13
78, 0.00, 46242.47, 0.00, 0.00, 0.00, 0.00, 0.00, 0.00, 0.81, -0.57, 0.13
79, 0.00, 46244.48, 0.00, 0.00, 0.00, 0.00, 0.00, 0.00, 0.81, -0.57, 0.13
80, 0.00, 46243.50, 0.00, 0.00, 0.00, 0.00, 0.00, 0.00, 0.81, -0.57, 0.13
81, 0.00, 46223.45, 0.00, 0.00, 0.00, 0.00, 0.00, 0.00, 0.81, -0.57, 0.13
82, 0.00, 46227.23, 0.00, 0.00, 0.00, 0.00, 0.00, 0.00, 0.81, -0.57, 0.13
83, 0.00, 46232.41, 0.00, 0.00, 0.00, 0.00, 0.00, 0.00, 0.81, -0.56, 0.13
84, 0.00, 46234.61, 0.00, 0.00, 0.00, 0.00, 0.00, 0.00, 0.81, -0.56, 0.13
85, 0.00, 46248.64, 0.00, 0.00, 0.00, 0.00, 0.00, 0.00, 0.81, -0.56, 0.13
86, 0.00, 46248.39, 0.00, 0.00, 0.00, 0.00, 0.00, 0.00, 0.81, -0.56, 0.13
87, 0.00, 46255.21, 0.00, 0.00, 0.00, 0.00, 0.00, 0.00, 0.81, -0.56, 0.13
88, 0.00, 46246.45, 0.00, 0.00, 0.00, 0.00, 0.00, 0.00, 0.82, -0.57, 0.13
89, 0.00, 46243.23, 0.00, 0.00, 0.00, 0.00, 0.00, 0.00, 0.82, -0.57, 0.13
90, 0.00, 46234.38, 0.00, 0.00, 0.00, 0.00, 0.00, 0.00, 0.82, -0.57, 0.13
91, 0.00, 46249.33, 0.00, 0.00, 0.00, 0.00, 0.00, 0.00, 0.82, -0.57, 0.13
92, 0.00, 46254.54, 0.00, 0.00, 0.00, 0.00, 0.00, 0.00, 0.82, -0.57, 0.13
93, 0.00, 46239.36, 0.00, 0.00, 0.00, 0.00, 0.00, 0.00, 0.82, -0.56, 0.13
94, 0.00, 46234.20, 0.00, 0.00, 0.00, 0.00, 0.00, 0.00, 0.82, -0.56, 0.13
95, 0.00, 46245.11, 0.00, 0.00, 0.00, 0.00, 0.00, 0.00, 0.82, -0.56, 0.13
96, 0.00, 46261.38, 0.00, 0.00, 0.00, 0.00, 0.00, 0.00, 0.82, -0.56, 0.13
97, 0.00, 46261.20, 0.00, 0.00, 0.00, 0.00, 0.00, 0.00, 0.82, -0.56, 0.13
98, 0.00, 46245.58, 0.00, 0.00, 0.00, 0.00, 0.00, 0.00, 0.81, -0.57, 0.13
99, 0.00, 46242.61, 0.00, 0.00, 0.00, 0.00, 0.00, 0.00, 0.81, -0.57, 0.13
100, 0.00, 46260.20, 0.00, 0.00, 0.00, 0.00, 0.00, 0.00, 0.81, -0.57, 0.13
101, 0.00, 46254.43, 0.00, 0.00, 0.00, 0.00, 0.00, 0.00, 0.81, -0.57, 0.13
102, 0.00, 46246.00, 0.00, 0.00, 0.00, 0.00, 0.00, 0.00, 0.81, -0.57, 0.13
103, 0.00, 46250.14, 0.00, 0.00, 0.00, 0.00, 0.00, 0.00, 0.82, -0.56, 0.14
104, 0.00, 46260.67, 0.00, 0.00, 0.00, 0.00, 0.00, 0.00, 0.82, -0.56, 0.14
105, 0.00, 46250.36, 0.00, 0.00, 0.00, 0.00, 0.00, 0.00, 0.82, -0.56, 0.14
106, 0.00, 46258.23, 0.00, 0.00, 0.00, 0.00, 0.00, 0.00, 0.82, -0.56, 0.14
107, 0.00, 46263.06, 0.00, 0.00, 0.00, 0.00, 0.00, 0.00, 0.82, -0.56, 0.14
108, 0.00, 46265.96, 0.00, 0.00, 0.00, 0.00, 0.00, 0.00, 0.81, -0.56, 0.13
109, 0.00, 46260.27, 0.00, 0.00, 0.00, 0.00, 0.00, 0.00, 0.81, -0.56, 0.13
110, 0.00, 46263.28, 0.00, 0.00, 0.00, 0.00, 0.00, 0.00, 0.81, -0.56, 0.13
111, 0.00, 46260.13, 0.00, 0.00, 0.00, 0.00, 0.00, 0.00, 0.81, -0.56, 0.13
112, 0.00, 46274.55, 0.00, 0.00, 0.00, 0.00, 0.00, 0.00, 0.81, -0.56, 0.13
113, 0.00, 46266.81, 0.00, 0.00, 0.00, 0.00, 0.00, 0.00, 0.81, -0.56, 0.13
114, 0.00, 46258.43, 0.00, 0.00, 0.00, 0.00, 0.00, 0.00, 0.81, -0.56, 0.13
115, 0.00, 46248.13, 0.00, 0.00, 0.00, 0.00, 0.00, 0.00, 0.81, -0.56, 0.13
116, 0.00, 46261.16, 0.00, 0.00, 0.00, 0.00, 0.00, 0.00, 0.81, -0.56, 0.13
117, 0.00, 46276.80, 0.00, 0.00, 0.00, 0.00, 0.00, 0.00, 0.81, -0.56, 0.13
118, 0.00, 46270.66, 0.00, 0.00, 0.00, 0.00, 0.00, 0.00, 0.81, -0.56, 0.13
119, 0.00, 46248.53, 0.00, 0.00, 0.00, 0.00, 0.00, 0.00, 0.81, -0.56, 0.13
120, 0.00, 46259.86, 0.00, 0.00, 0.00, 0.00, 0.00, 0.00, 0.81, -0.56, 0.13
121, 0.00, 46272.31, 0.00, 0.00, 0.00, 0.00, 0.00, 0.00, 0.81, -0.56, 0.13
122, 0.00, 46273.09, 0.00, 0.00, 0.00, 0.00, 0.00, 0.00, 0.81, -0.56, 0.13
123, 0.00, 46274.21, 0.00, 0.00, 0.00, 0.00, 0.00, 0.00, 0.81, -0.56, 0.13
124, 0.00, 46290.13, 0.00, 0.00, 0.00, 0.00, 0.00, 0.00, 0.81, -0.56, 0.14
125, 0.00, 46285.05, 0.00, 0.00, 0.00, 0.00, 0.00, 0.00, 0.81, -0.56, 0.14
126, 0.00, 46270.72, 0.00, 0.00, 0.00, 0.00, 0.00, 0.00, 0.81, -0.56, 0.14
127, 0.00, 46279.87, 0.00, 0.00, 0.00, 0.00, 0.00, 0.00, 0.81, -0.56, 0.14
128, 0.00, 46271.64, 0.00, 0.00, 0.00, 0.00, 0.00, 0.00, 0.81, -0.56, 0.14
129, 0.00, 46275.39, 0.00, 0.00, 0.00, 0.00, 0.00, 0.00, 0.81, -0.56, 0.14
130, 0.00, 46267.28, 0.00, 0.00, 0.00, 0.00, 0.00, 0.00, 0.81, -0.56, 0.14
131, 0.00, 46272.47, 0.00, 0.00, 0.00, 0.00, 0.00, 0.00, 0.81, -0.56, 0.14
132, 0.00, 46285.45, 0.00, 0.00, 0.00, 0.00, 0.00, 0.00, 0.81, -0.56, 0.14
133, 0.00, 46277.03, 0.00, 0.00, 0.00, 0.00, 0.00, 0.00, 0.81, -0.56, 0.14
134, 0.00, 46277.63, 0.00, 0.00, 0.00, 0.00, 0.00, 0.00, 0.82, -0.56, 0.14
135, 0.00, 46274.57, 0.00, 0.00, 0.00, 0.00, 0.00, 0.00, 0.82, -0.56, 0.14
136, 0.00, 46273.72, 0.00, 0.00, 0.00, 0.00, 0.00, 0.00, 0.82, -0.56, 0.14
137, 0.00, 46301.28, 0.00, 0.00, 0.00, 0.00, 0.00, 0.00, 0.82, -0.56, 0.14
138, 0.00, 46299.02, 0.00, 0.00, 0.00, 0.00, 0.00, 0.00, 0.82, -0.56, 0.14
139, 0.00, 46281.41, 0.00, 0.00, 0.00, 0.00, 0.00, 0.00, 0.81, -0.56, 0.14
140, 0.00, 46275.20, 0.00, 0.00, 0.00, 0.00, 0.00, 0.00, 0.81, -0.56, 0.14
141, 0.00, 46291.31, 0.00, 0.00, 0.00, 0.00, 0.00, 0.00, 0.81, -0.56, 0.14
142, 0.00, 46297.59, 0.00, 0.00, 0.00, 0.00, 0.00, 0.00, 0.81, -0.56, 0.14
143, 0.00, 46286.57, 0.00, 0.00, 0.00, 0.00, 0.00, 0.00, 0.81, -0.56, 0.14
144, 0.00, 46289.07, 0.00, 0.00, 0.00, 0.00, 0.00, 0.00, 0.81, -0.56, 0.14
145, 0.00, 46284.63, 0.00, 0.00, 0.00, 0.00, 0.00, 0.00, 0.81, -0.56, 0.14
146, 0.00, 46294.69, 0.00, 0.00, 0.00, 0.00, 0.00, 0.00, 0.81, -0.56, 0.14
147, 0.00, 46288.29, 0.00, 0.00, 0.00, 0.00, 0.00, 0.00, 0.81, -0.56, 0.14
148, 0.00, 46273.50, 0.00, 0.00, 0.00, 0.00, 0.00, 0.00, 0.81, -0.56, 0.14
149, 0.00, 46288.23, 0.00, 0.00, 0.00, 0.00, 0.00, 0.00, 0.81, -0.56, 0.14
150, 0.00, 46290.57, 0.00, 0.00, 0.00, 0.00, 0.00, 0.00, 0.81, -0.56, 0.14
151, 0.00, 46310.85, 0.00, 0.00, 0.00, 0.00, 0.00, 0.00, 0.81, -0.56, 0.14
152, 0.00, 46291.89, 0.00, 0.00, 0.00, 0.00, 0.00, 0.00, 0.81, -0.56, 0.14
153, 0.00, 46283.44, 0.00, 0.00, 0.00, 0.00, 0.00, 0.00, 0.81, -0.56, 0.14
154, 0.00, 46310.69, 0.00, 0.00, 0.00, 0.00, 0.00, 0.00, 0.81, -0.56, 0.14
155, 0.00, 46296.12, 0.00, 0.00, 0.00, 0.00, 0.00, 0.00, 0.81, -0.56, 0.14
156, 0.00, 46294.69, 0.00, 0.00, 0.00, 0.00, 0.00, 0.00, 0.81, -0.56, 0.14
157, 0.00, 46291.71, 0.00, 0.00, 0.00, 0.00, 0.00, 0.00, 0.81, -0.56, 0.14
158, 0.00, 46280.09, 0.00, 0.00, 0.00, 0.00, 0.00, 0.00, 0.81, -0.56, 0.14
159, 0.00, 46284.83, 0.00, 0.00, 0.00, 0.00, 0.00, 0.00, 0.82, -0.56, 0.13
160, 0.00, 46295.63, 0.00, 0.00, 0.00, 0.00, 0.00, 0.00, 0.82, -0.56, 0.13
161, 0.00, 46291.94, 0.00, 0.00, 0.00, 0.00, 0.00, 0.00, 0.82, -0.56, 0.13
162, 0.00, 46285.48, 0.00, 0.00, 0.00, 0.00, 0.00, 0.00, 0.82, -0.56, 0.13
163, 0.00, 46292.94, 0.00, 0.00, 0.00, 0.00, 0.00, 0.00, 0.82, -0.56, 0.13
164, 0.00, 46284.11, 0.00, 0.00, 0.00, 0.00, 0.00, 0.00, 0.82, -0.56, 0.14
165, 0.00, 46285.97, 0.00, 0.00, 0.00, 0.00, 0.00, 0.00, 0.82, -0.56, 0.14
166, 0.00, 46293.61, 0.00, 0.00, 0.00, 0.00, 0.00, 0.00, 0.82, -0.56, 0.14
167, 0.00, 46287.38, 0.00, 0.00, 0.00, 0.00, 0.00, 0.00, 0.82, -0.56, 0.14
168, 0.00, 46271.57, 0.00, 0.00, 0.00, 0.00, 0.00, 0.00, 0.82, -0.56, 0.14
169, 0.00, 46267.59, 0.00, 0.00, 0.00, 0.00, 0.00, 0.00, 0.81, -0.56, 0.14
170, 0.00, 46295.69, 0.00, 0.00, 0.00, 0.00, 0.00, 0.00, 0.81, -0.56, 0.14
171, 0.00, 46312.43, 0.00, 0.00, 0.00, 0.00, 0.00, 0.00, 0.81, -0.56, 0.14
172, 0.00, 46295.27, 0.00, 0.00, 0.00, 0.00, 0.00, 0.00, 0.81, -0.56, 0.14
173, 0.00, 46290.62, 0.00, 0.00, 0.00, 0.00, 0.00, 0.00, 0.81, -0.56, 0.14
174, 0.00, 46289.39, 0.00, 0.00, 0.00, 0.00, 0.00, 0.00, 0.82, -0.57, 0.14
175, 0.00, 46291.87, 0.00, 0.00, 0.00, 0.00, 0.00, 0.00, 0.82, -0.57, 0.14
176, 0.00, 46291.94, 0.00, 0.00, 0.00, 0.00, 0.00, 0.00, 0.82, -0.57, 0.14
177, 0.00, 46278.59, 0.00, 0.00, 0.00, 0.00, 0.00, 0.00, 0.82, -0.57, 0.14
178, 0.00, 46281.95, 0.00, 0.00, 0.00, 0.00, 0.00, 0.00, 0.82, -0.57, 0.14
179, 0.00, 46306.84, 0.00, 0.00, 0.00, 0.00, 0.00, 0.00, 0.82, -0.57, 0.13
180, 0.00, 46306.29, 0.00, 0.00, 0.00, 0.00, 0.00, 0.00, 0.82, -0.57, 0.13
181, 0.00, 46285.95, 0.00, 0.00, 0.00, 0.00, 0.00, 0.00, 0.82, -0.57, 0.13
182, 0.00, 46282.04, 0.00, 0.00, 0.00, 0.00, 0.00, 0.00, 0.82, -0.57, 0.13
183, 0.00, 46295.38, 0.00, 0.00, 0.00, 0.00, 0.00, 0.00, 0.82, -0.57, 0.13
184, 0.00, 46287.73, 0.00, 0.00, 0.00, 0.00, 0.00, 0.00, 0.82, -0.56, 0.14
185, 0.00, 46294.21, 0.00, 0.00, 0.00, 0.00, 0.00, 0.00, 0.82, -0.56, 0.14
186, 0.00, 46296.23, 0.00, 0.00, 0.00, 0.00, 0.00, 0.00, 0.82, -0.56, 0.14
187, 0.00, 46299.74, 0.00, 0.00, 0.00, 0.00, 0.00, 0.00, 0.82, -0.56, 0.14
188, 0.00, 46298.57, 0.00, 0.00, 0.00, 0.00, 0.00, 0.00, 0.82, -0.56, 0.14
189, 0.00, 46303.61, 0.00, 0.00, 0.00, 0.00, 0.00, 0.00, 0.82, -0.56, 0.14
190, 0.00, 46302.00, 0.00, 0.00, 0.00, 0.00, 0.00, 0.00, 0.82, -0.56, 0.14
191, 0.00, 46292.00, 0.00, 0.00, 0.00, 0.00, 0.00, 0.00, 0.82, -0.56, 0.14
192, 0.00, 46285.54, 0.00, 0.00, 0.00, 0.00, 0.00, 0.00, 0.82, -0.56, 0.14
193, 0.00, 46297.30, 0.00, 0.00, 0.00, 0.00, 0.00, 0.00, 0.82, -0.56, 0.14
194, 0.00, 46300.32, 0.00, 0.00, 0.00, 0.00, 0.00, 0.00, 0.82, -0.56, 0.14
195, 0.00, 46300.50, 0.00, 0.00, 0.00, 0.00, 0.00, 0.00, 0.82, -0.56, 0.14
196, 0.00, 46311.92, 0.00, 0.00, 0.00, 0.00, 0.00, 0.00, 0.82, -0.56, 0.14
197, 0.00, 46306.46, 0.00, 0.00, 0.00, 0.00, 0.00, 0.00, 0.82, -0.56, 0.14
198, 0.00, 46294.29, 0.00, 0.00, 0.00, 0.00, 0.00, 0.00, 0.82, -0.56, 0.14
199, 0.00, 46298.71, 0.00, 0.00, 0.00, 0.00, 0.00, 0.00, 0.82, -0.57, 0.13
200, 0.00, 46291.60, 0.00, 0.00, 0.00, 0.00, 0.00, 0.00, 0.82, -0.57, 0.13
201, 0.00, 46303.13, 0.00, 0.00, 0.00, 0.00, 0.00, 0.00, 0.82, -0.57, 0.13
202, 0.00, 46292.90, 0.00, 0.00, 0.00, 0.00, 0.00, 0.00, 0.82, -0.57, 0.13
203, 0.00, 46278.30, 0.00, 0.00, 0.00, 0.00, 0.00, 0.00, 0.82, -0.57, 0.13
204, 0.00, 46298.87, 0.00, 0.00, 0.00, 0.00, 0.00, 0.00, 0.82, -0.57, 0.14
205, 0.00, 46310.82, 0.00, 0.00, 0.00, 0.00, 0.00, 0.00, 0.82, -0.57, 0.14
206, 0.00, 46298.69, 0.00, 0.00, 0.00, 0.00, 0.00, 0.00, 0.82, -0.57, 0.14
207, 0.00, 46295.58, 0.00, 0.00, 0.00, 0.00, 0.00, 0.00, 0.82, -0.57, 0.14
208, 0.00, 46291.54, 0.00, 0.00, 0.00, 0.00, 0.00, 0.00, 0.82, -0.57, 0.14
209, 0.00, 46301.46, 0.00, 0.00, 0.00, 0.00, 0.00, 0.00, 0.82, -0.57, 0.14
210, 0.00, 46292.68, 0.00, 0.00, 0.00, 0.00, 0.00, 0.00, 0.82, -0.57, 0.14
211, 0.00, 46302.91, 0.00, 0.00, 0.00, 0.00, 0.00, 0.00, 0.82, -0.57, 0.14
212, 0.00, 46282.44, 0.00, 0.00, 0.00, 0.00, 0.00, 0.00, 0.82, -0.57, 0.14
213, 0.00, 46292.65, 0.00, 0.00, 0.00, 0.00, 0.00, 0.00, 0.82, -0.57, 0.14
214, 0.00, 46301.14, 0.00, 0.00, 0.00, 0.00, 0.00, 0.00, 0.81, -0.57, 0.14
215, 0.00, 46295.51, 0.00, 0.00, 0.00, 0.00, 0.00, 0.00, 0.81, -0.57, 0.14
216, 0.00, 46301.93, 0.00, 0.00, 0.00, 0.00, 0.00, 0.00, 0.81, -0.57, 0.14
217, 0.00, 46311.89, 0.00, 0.00, 0.00, 0.00, 0.00, 0.00, 0.81, -0.57, 0.14
218, 0.00, 46306.91, 0.00, 0.00, 0.00, 0.00, 0.00, 0.00, 0.81, -0.57, 0.14
219, 0.00, 46303.69, 0.00, 0.00, 0.00, 0.00, 0.00, 0.00, 0.81, -0.57, 0.14
220, 0.00, 46307.58, 0.00, 0.00, 0.00, 0.00, 0.00, 0.00, 0.81, -0.57, 0.14
221, 0.00, 46322.11, 0.00, 0.00, 0.00, 0.00, 0.00, 0.00, 0.81, -0.57, 0.14
222, 0.00, 46312.97, 0.00, 0.00, 0.00, 0.00, 0.00, 0.00, 0.81, -0.57, 0.14
223, 0.00, 46292.41, 0.00, 0.00, 0.00, 0.00, 0.00, 0.00, 0.81, -0.57, 0.14
224, 0.00, 46303.76, 0.00, 0.00, 0.00, 0.00, 0.00, 0.00, 0.82, -0.57, 0.14
225, 0.00, 46302.06, 0.00, 0.00, 0.00, 0.00, 0.00, 0.00, 0.82, -0.57, 0.14
226, 0.00, 46311.45, 0.00, 0.00, 0.00, 0.00, 0.00, 0.00, 0.82, -0.57, 0.14
227, 0.00, 46300.70, 0.00, 0.00, 0.00, 0.00, 0.00, 0.00, 0.82, -0.57, 0.14
228, 0.00, 46297.59, 0.00, 0.00, 0.00, 0.00, 0.00, 0.00, 0.82, -0.57, 0.14
229, 0.00, 46316.57, 0.00, 0.00, 0.00, 0.00, 0.00, 0.00, 0.81, -0.56, 0.14
230, 0.00, 46307.47, 0.00, 0.00, 0.00, 0.00, 0.00, 0.00, 0.81, -0.56, 0.14
231, 0.00, 46280.87, 0.00, 0.00, 0.00, 0.00, 0.00, 0.00, 0.81, -0.56, 0.14
232, 0.00, 46292.29, 0.00, 0.00, 0.00, 0.00, 0.00, 0.00, 0.81, -0.56, 0.14
233, 0.00, 46315.36, 0.00, 0.00, 0.00, 0.00, 0.00, 0.00, 0.81, -0.56, 0.14
234, 0.00, 46298.06, 0.00, 0.00, 0.00, 0.00, 0.00, 0.00, 0.82, -0.56, 0.13
235, 0.00, 46302.26, 0.00, 0.00, 0.00, 0.00, 0.00, 0.00, 0.82, -0.56, 0.13
236, 0.00, 46305.23, 0.00, 0.00, 0.00, 0.00, 0.00, 0.00, 0.82, -0.56, 0.13
237, 0.00, 46307.52, 0.00, 0.00, 0.00, 0.00, 0.00, 0.00, 0.82, -0.56, 0.13
238, 0.00, 46314.09, 0.00, 0.00, 0.00, 0.00, 0.00, 0.00, 0.82, -0.56, 0.13
239, 0.00, 46312.95, 0.00, 0.00, 0.00, 0.00, 0.00, 0.00, 0.82, -0.57, 0.13
240, 0.00, 46298.38, 0.00, 0.00, 0.00, 0.00, 0.00, 0.00, 0.82, -0.57, 0.13
241, 0.00, 46319.63, 0.00, 0.00, 0.00, 0.00, 0.00, 0.00, 0.82, -0.57, 0.13
242, 0.00, 46330.25, 0.00, 0.00, 0.00, 0.00, 0.00, 0.00, 0.82, -0.57, 0.13
243, 0.00, 46317.26, 0.00, 0.00, 0.00, 0.00, 0.00, 0.00, 0.82, -0.57, 0.13
244, 0.00, 46307.94, 0.00, 0.00, 0.00, 0.00, 0.00, 0.00, 0.82, -0.57, 0.14
245, 0.00, 46315.29, 0.00, 0.00, 0.00, 0.00, 0.00, 0.00, 0.82, -0.57, 0.14
246, 0.00, 46320.10, 0.00, 0.00, 0.00, 0.00, 0.00, 0.00, 0.82, -0.57, 0.14
247, 0.00, 46333.02, 0.00, 0.00, 0.00, 0.00, 0.00, 0.00, 0.82, -0.57, 0.14
248, 0.00, 46306.09, 0.00, 0.00, 0.00, 0.00, 0.00, 0.00, 0.82, -0.57, 0.14
249, 0.00, 46299.27, 0.00, 0.00, 0.00, 0.00, 0.00, 0.00, 0.82, -0.56, 0.14
250, 0.00, 46329.51, 0.00, 0.00, 0.00, 0.00, 0.00, 0.00, 0.82, -0.56, 0.14
251, 0.00, 46325.17, 0.00, 0.00, 0.00, 0.00, 0.00, 0.00, 0.82, -0.56, 0.14
252, 0.00, 46314.07, 0.00, 0.00, 0.00, 0.00, 0.00, 0.00, 0.82, -0.56, 0.14
253, 0.00, 46312.95, 0.00, 0.00, 0.00, 0.00, 0.00, 0.00, 0.82, -0.56, 0.14
254, 0.00, 46312.59, 0.00, 0.00, 0.00, 0.00, 0.00, 0.00, 0.82, -0.56, 0.13
255, 0.00, 46323.90, 0.00, 0.00, 0.00, 0.00, 0.00, 0.00, 0.82, -0.56, 0.13
0, 0.00, 46322.71, 0.00, 0.00, 0.00, 0.00, 0.00, 0.00, 0.82, -0.56, 0.13
1, 0.00, 46317.55, 0.00, 0.00, 0.00, 0.00, 0.00, 0.00, 0.82, -0.56, 0.13
2, 0.00, 46313.57, 0.00, 0.00, 0.00, 0.00, 0.00, 0.00, 0.82, -0.56, 0.13
3, 0.00, 46324.61, 0.00, 0.00, 0.00, 0.00, 0.00, 0.00, 0.82, -0.56, 0.13
4, 0.00, 46321.26, 0.00, 0.00, 0.00, 0.00, 0.00, 0.00, 0.82, -0.56, 0.13
5, 0.00, 46329.60, 0.00, 0.00, 0.00, 0.00, 0.00, 0.00, 0.82, -0.56, 0.13
6, 0.00, 46339.50, 0.00, 0.00, 0.00, 0.00, 0.00, 0.00, 0.82, -0.56, 0.13
7, 0.00, 46341.51, 0.00, 0.00, 0.00, 0.00, 0.00, 0.00, 0.82, -0.56, 0.13
8, 0.00, 46326.58, 0.00, 0.00, 0.00, 0.00, 0.00, 0.00, 0.82, -0.56, 0.13
9, 0.00, 46330.67, 0.00, 0.00, 0.00, 0.00, 0.00, 0.00, 0.82, -0.56, 0.13
10, 0.00, 46328.66, 0.00, 0.00, 0.00, 0.00, 0.00, 0.00, 0.82, -0.56, 0.13
11, 0.00, 46338.74, 0.00, 0.00, 0.00, 0.00, 0.00, 0.00, 0.82, -0.56, 0.13
12, 0.00, 46333.13, 0.00, 0.00, 0.00, 0.00, 0.00, 0.00, 0.82, -0.56, 0.13
13, 0.00, 46328.48, 0.00, 0.00, 0.00, 0.00, 0.00, 0.00, 0.81, -0.57, 0.13
14, 0.00, 46337.73, 0.00, 0.00, 0.00, 0.00, 0.00, 0.00, 0.81, -0.57, 0.13
15, 0.00, 46346.77, 0.00, 0.00, 0.00, 0.00, 0.00, 0.00, 0.81, -0.57, 0.13
16, 0.00, 46336.68, 0.00, 0.00, 0.00, 0.00, 0.00, 0.00, 0.81, -0.57, 0.13
17, 0.00, 46337.98, 0.00, 0.00, 0.00, 0.00, 0.00, 0.00, 0.81, -0.57, 0.13
18, 0.00, 46341.16, 0.00, 0.00, 0.00, 0.00, 0.00, 0.00, 0.81, -0.57, 0.14
19, 0.00, 46331.90, 0.00, 0.00, 0.00, 0.00, 0.00, 0.00, 0.81, -0.57, 0.14
20, 0.00, 46348.96, 0.00, 0.00, 0.00, 0.00, 0.00, 0.00, 0.81, -0.57, 0.14
21, 0.00, 46347.70, 0.00, 0.00, 0.00, 0.00, 0.00, 0.00, 0.81, -0.57, 0.14
22, 0.00, 46339.41, 0.00, 0.00, 0.00, 0.00, 0.00, 0.00, 0.81, -0.57, 0.14
23, 0.00, 46349.47, 0.00, 0.00, 0.00, 0.00, 0.00, 0.00, 0.81, -0.57, 0.13
24, 0.00, 46352.44, 0.00, 0.00, 0.00, 0.00, 0.00, 0.00, 0.81, -0.57, 0.13
25, 0.00, 46347.14, 0.00, 0.00, 0.00, 0.00, 0.00, 0.00, 0.81, -0.57, 0.13
26, 0.00, 46337.54, 0.00, 0.00, 0.00, 0.00, 0.00, 0.00, 0.81, -0.57, 0.13
27, 0.00, 46331.27, 0.00, 0.00, 0.00, 0.00, 0.00, 0.00, 0.81, -0.57, 0.13
28, 0.00, 46342.18, 0.00, 0.00, 0.00, 0.00, 0.00, 0.00, 0.81, -0.57, 0.13
29, 0.00, 46347.55, 0.00, 0.00, 0.00, 0.00, 0.00, 0.00, 0.81, -0.57, 0.13
30, 0.00, 46332.37, 0.00, 0.00, 0.00, 0.00, 0.00, 0.00, 0.81, -0.57, 0.13
31, 0.00, 46336.84, 0.00, 0.00, 0.00, 0.00, 0.00, 0.00, 0.81, -0.57, 0.13
32, 0.00, 46336.39, 0.00, 0.00, 0.00, 0.00, 0.00, 0.00, 0.81, -0.57, 0.13
33, 0.00, 46350.79, 0.00, 0.00, 0.00, 0.00, 0.00, 0.00, 0.81, -0.56, 0.13
34, 0.00, 46350.74, 0.00, 0.00, 0.00, 0.00, 0.00, 0.00, 0.81, -0.56, 0.13
35, 0.00, 46338.88, 0.00, 0.00, 0.00, 0.00, 0.00, 0.00, 0.81, -0.56, 0.13
36, 0.00, 46338.14, 0.00, 0.00, 0.00, 0.00, 0.00, 0.00, 0.81, -0.56, 0.13
37, 0.00, 46335.34, 0.00, 0.00, 0.00, 0.00, 0.00, 0.00, 0.81, -0.56, 0.13
38, 0.00, 46333.98, 0.00, 0.00, 0.00, 0.00, 0.00, 0.00, 0.81, -0.57, 0.13
39, 0.00, 46329.71, 0.00, 0.00, 0.00, 0.00, 0.00, 0.00, 0.81, -0.57, 0.13
40, 0.00, 46350.27, 0.00, 0.00, 0.00, 0.00, 0.00, 0.00, 0.81, -0.57, 0.13
41, 0.00, 46355.57, 0.00, 0.00, 0.00, 0.00, 0.00, 0.00, 0.81, -0.57, 0.13
42, 0.00, 46363.13, 0.00, 0.00, 0.00, 0.00, 0.00, 0.00, 0.81, -0.57, 0.13
43, 0.00, 46357.72, 0.00, 0.00, 0.00, 0.00, 0.00, 0.00, 0.81, -0.57, 0.13
44, 0.00, 46345.25, 0.00, 0.00, 0.00, 0.00, 0.00, 0.00, 0.81, -0.57, 0.13
45, 0.00, 46370.57, 0.00, 0.00, 0.00, 0.00, 0.00, 0.00, 0.81, -0.57, 0.13
46, 0.00, 46369.21, 0.00, 0.00, 0.00, 0.00, 0.00, 0.00, 0.81, -0.57, 0.13
47, 0.00, 46355.97, 0.00, 0.00, 0.00, 0.00, 0.00, 0.00, 0.81, -0.57, 0.13
48, 0.00, 46353.70, 0.00, 0.00, 0.00, 0.00, 0.00, 0.00, 0.81, -0.57, 0.13
49, 0.00, 46352.46, 0.00, 0.00, 0.00, 0.00, 0.00, 0.00, 0.81, -0.57, 0.13
50, 0.00, 46343.57, 0.00, 0.00, 0.00, 0.00, 0.00, 0.00, 0.81, -0.57, 0.13
51, 0.00, 46355.95, 0.00, 0.00, 0.00, 0.00, 0.00, 0.00, 0.81, -0.57, 0.13
52, 0.00, 46362.97, 0.00, 0.00, 0.00, 0.00, 0.00, 0.00, 0.81, -0.57, 0.13
53, 0.00, 46373.34, 0.00, 0.00, 0.00, 0.00, 0.00, 0.00, 0.82, -0.57, 0.14
54, 0.00, 46372.61, 0.00, 0.00, 0.00, 0.00, 0.00, 0.00, 0.82, -0.57, 0.14
55, 0.00, 46362.32, 0.00, 0.00, 0.00, 0.00, 0.00, 0.00, 0.82, -0.57, 0.14
56, 0.00, 46351.95, 0.00, 0.00, 0.00, 0.00, 0.00, 0.00, 0.82, -0.57, 0.14
57, 0.00, 46349.34, 0.00, 0.00, 0.00, 0.00, 0.00, 0.00, 0.82, -0.57, 0.14
58, 0.00, 46361.14, 0.00, 0.00, 0.00, 0.00, 0.00, 0.00, 0.82, -0.57, 0.14
59, 0.00, 46346.90, 0.00, 0.00, 0.00, 0.00, 0.00, 0.00, 0.82, -0.57, 0.13
60, 0.00, 46332.62, 0.00, 0.00, 0.00, 0.00, 0.00, 0.00, 0.82, -0.57, 0.13
61, 0.00, 46348.02, 0.00, 0.00, 0.00, 0.00, 0.00, 0.00, 0.82, -0.57, 0.13
62, 0.00, 46361.83, 0.00, 0.00, 0.00, 0.00, 0.00, 0.00, 0.82, -0.57, 0.13
63, 0.00, 46359.44, 0.00, 0.00, 0.00, 0.00, 0.00, 0.00, 0.82, -0.57, 0.13
64, 0.00, 46348.31, 0.00, 0.00, 0.00, 0.00, 0.00, 0.00, 0.82, -0.57, 0.12
65, 0.00, 46346.03, 0.00, 0.00, 0.00, 0.00, 0.00, 0.00, 0.82, -0.57, 0.12
66, 0.00, 46355.82, 0.00, 0.00, 0.00, 0.00, 0.00, 0.00, 0.82, -0.57, 0.12
67, 0.00, 46347.64, 0.00, 0.00, 0.00, 0.00, 0.00, 0.00, 0.82, -0.57, 0.12
68, 0.00, 46351.73, 0.00, 0.00, 0.00, 0.00, 0.00, 0.00, 0.82, -0.57, 0.12
69, 0.00, 46351.04, 0.00, 0.00, 0.00, 0.00, 0.00, 0.00, 0.82, -0.57, 0.13
70, 0.00, 46351.44, 0.00, 0.00, 0.00, 0.00, 0.00, 0.00, 0.82, -0.57, 0.13
71, 0.00, 46341.80, 0.00, 0.00, 0.00, 0.00, 0.00, 0.00, 0.82, -0.57, 0.13
72, 0.00, 46346.07, 0.00, 0.00, 0.00, 0.00, 0.00, 0.00, 0.82, -0.57, 0.13
73, 0.00, 46354.30, 0.00, 0.00, 0.00, 0.00, 0.00, 0.00, 0.82, -0.57, 0.13
74, 0.00, 46351.13, 0.00, 0.00, 0.00, 0.00, 0.00, 0.00, 0.82, -0.57, 0.14
75, 0.00, 46337.38, 0.00, 0.00, 0.00, 0.00, 0.00, 0.00, 0.82, -0.57, 0.14
76, 0.00, 46335.57, 0.00, 0.00, 0.00, 0.00, 0.00, 0.00, 0.82, -0.57, 0.14
77, 0.00, 46332.64, 0.00, 0.00, 0.00, 0.00, 0.00, 0.00, 0.82, -0.57, 0.14
78, 0.00, 46339.16, 0.00, 0.00, 0.00, 0.00, 0.00, 0.00, 0.82, -0.57, 0.14
79, 0.00, 46338.32, 0.00, 0.00, 0.00, 0.00, 0.00, 0.00, 0.82, -0.56, 0.14
80, 0.00, 46335.46, 0.00, 0.00, 0.00, 0.00, 0.00, 0.00, 0.82, -0.56, 0.14
81, 0.00, 46345.25, 0.00, 0.00, 0.00, 0.00, 0.00, 0.00, 0.82, -0.56, 0.14
82, 0.00, 46351.35, 0.00, 0.00, 0.00, 0.00, 0.00, 0.00, 0.82, -0.56, 0.14
83, 0.00, 46336.30, 0.00, 0.00, 0.00, 0.00, 0.00, 0.00, 0.82, -0.56, 0.14
84, 0.00, 46347.55, 0.00, 0.00, 0.00, 0.00, 0.00, 0.00, 0.82, -0.56, 0.13
85, 0.00, 46352.89, 0.00, 0.00, 0.00, 0.00, 0.00, 0.00, 0.82, -0.56, 0.13
86, 0.00, 46346.41, 0.00, 0.00, 0.00, 0.00, 0.00, 0.00, 0.82, -0.56, 0.13
87, 0.00, 46344.60, 0.00, 0.00, 0.00, 0.00, 0.00, 0.00, 0.82, -0.56, 0.13
88, 0.00, 46345.76, 0.00, 0.00, 0.00, 0.00, 0.00, 0.00, 0.82, -0.56, 0.13
89, 0.00, 46339.81, 0.00, 0.00, 0.00, 0.00, 0.00, 0.00, 0.82, -0.56, 0.13
90, 0.00, 46352.44, 0.00, 0.00, 0.00, 0.00, 0.00, 0.00, 0.82, -0.56, 0.13
91, 0.00, 46359.59, 0.00, 0.00, 0.00, 0.00, 0.00, 0.00, 0.82, -0.56, 0.13
92, 0.00, 46364.91, 0.00, 0.00, 0.00, 0.00, 0.00, 0.00, 0.82, -0.56, 0.13
93, 0.00, 46356.13, 0.00, 0.00, 0.00, 0.00, 0.00, 0.00, 0.82, -0.56, 0.13
94, 0.00, 46349.45, 0.00, 0.00, 0.00, 0.00, 0.00, 0.00, 0.81, -0.57, 0.13
95, 0.00, 46348.53, 0.00, 0.00, 0.00, 0.00, 0.00, 0.00, 0.81, -0.57, 0.13
96, 0.00, 46345.40, 0.00, 0.00, 0.00, 0.00, 0.00, 0.00, 0.81, -0.57, 0.13
97, 0.00, 46349.16, 0.00, 0.00, 0.00, 0.00, 0.00, 0.00, 0.81, -0.57, 0.13
98, 0.00, 46352.80, 0.00, 0.00, 0.00, 0.00, 0.00, 0.00, 0.81, -0.57, 0.13
99, 0.00, 46365.45, 0.00, 0.00, 0.00, 0.00, 0.00, 0.00, 0.82, -0.57, 0.13
100, 0.00, 46357.54, 0.00, 0.00, 0.00, 0.00, 0.00, 0.00, 0.82, -0.57, 0.13
101, 0.00, 46358.05, 0.00, 0.00, 0.00, 0.00, 0.00, 0.00, 0.82, -0.57, 0.13
102, 0.00, 46347.75, 0.00, 0.00, 0.00, 0.00, 0.00, 0.00, 0.82, -0.57, 0.13
103, 0.00, 46350.70, 0.00, 0.00, 0.00, 0.00, 0.00, 0.00, 0.82, -0.57, 0.13
104, 0.00, 46356.24, 0.00, 0.00, 0.00, 0.00, 0.00, 0.00, 0.82, -0.57, 0.14
105, 0.00, 46333.67, 0.00, 0.00, 0.00, 0.00, 0.00, 0.00, 0.82, -0.57, 0.14
106, 0.00, 46339.39, 0.00, 0.00, 0.00, 0.00, 0.00, 0.00, 0.82, -0.57, 0.14
107, 0.00, 46368.00, 0.00, 0.00, 0.00, 0.00, 0.00, 0.00, 0.82, -0.57, 0.14
108, 0.00, 46381.39, 0.00, 0.00, 0.00, 0.00, 0.00, 0.00, 0.82, -0.57, 0.14
109, 0.00, 46345.13, 0.00, 0.00, 0.00, 0.00, 0.00, 0.00, 0.81, -0.56, 0.14
110, 0.00, 46334.41, 0.00, 0.00, 0.00, 0.00, 0.00, 0.00, 0.81, -0.56, 0.14
111, 0.00, 46339.79, 0.00, 0.00, 0.00, 0.00, 0.00, 0.00, 0.81, -0.56, 0.14
112, 0.00, 46350.54, 0.00, 0.00, 0.00, 0.00, 0.00, 0.00, 0.81, -0.56, 0.14
113, 0.00, 46351.57, 0.00, 0.00, 0.00, 0.00, 0.00, 0.00, 0.81, -0.56, 0.14
114, 0.00, 46354.36, 0.00, 0.00, 0.00, 0.00, 0.00, 0.00, 0.81, -0.57, 0.14
115, 0.00, 46352.84, 0.00, 0.00, 0.00, 0.00, 0.00, 0.00, 0.81, -0.57, 0.14
116, 0.00, 46358.84, 0.00, 0.00, 0.00, 0.00, 0.00, 0.00, 0.81, -0.57, 0.14
117, 0.00, 46350.12, 0.00, 0.00, 0.00, 0.00, 0.00, 0.00, 0.81, -0.57, 0.14
118, 0.00, 46358.30, 0.00, 0.00, 0.00, 0.00, 0.00, 0.00, 0.81, -0.57, 0.14
119, 0.00, 46369.81, 0.00, 0.00, 0.00, 0.00, 0.00, 0.00, 0.81, -0.56, 0.14
120, 0.00, 46363.17, 0.00, 0.00, 0.00, 0.00, 0.00, 0.00, 0.81, -0.56, 0.14
121, 0.00, 46346.32, 0.00, 0.00, 0.00, 0.00, 0.00, 0.00, 0.81, -0.56, 0.14
122, 0.00, 46355.91, 0.00, 0.00, 0.00, 0.00, 0.00, 0.00, 0.81, -0.56, 0.14
123, 0.00, 46359.82, 0.00, 0.00, 0.00, 0.00, 0.00, 0.00, 0.81, -0.56, 0.14
124, 0.00, 46354.30, 0.00, 0.00, 0.00, 0.00, 0.00, 0.00, 0.81, -0.56, 0.13
125, 0.00, 46358.25, 0.00, 0.00, 0.00, 0.00, 0.00, 0.00, 0.81, -0.56, 0.13
126, 0.00, 46350.79, 0.00, 0.00, 0.00, 0.00, 0.00, 0.00, 0.81, -0.56, 0.13
127, 0.00, 46349.69, 0.00, 0.00, 0.00, 0.00, 0.00, 0.00, 0.81, -0.56, 0.13
128, 0.00, 46346.14, 0.00, 0.00, 0.00, 0.00, 0.00, 0.00, 0.81, -0.56, 0.13
129, 0.00, 46362.30, 0.00, 0.00, 0.00, 0.00, 0.00, 0.00, 0.81, -0.56, 0.13
130, 0.00, 46351.79, 0.00, 0.00, 0.00, 0.00, 0.00, 0.00, 0.81, -0.56, 0.13
131, 0.00, 46324.41, 0.00, 0.00, 0.00, 0.00, 0.00, 0.00, 0.81, -0.56, 0.13
132, 0.00, 46329.67, 0.00, 0.00, 0.00, 0.00, 0.00, 0.00, 0.81, -0.56, 0.13
133, 0.00, 46329.09, 0.00, 0.00, 0.00, 0.00, 0.00, 0.00, 0.81, -0.56, 0.13
134, 0.00, 46303.56, 0.00, 0.00, 0.00, 0.00, 0.00, 0.00, 0.82, -0.57, 0.14
135, 0.00, 46290.82, 0.00, 0.00, 0.00, 0.00, 0.00, 0.00, 0.82, -0.57, 0.14
136, 0.00, 46245.78, 0.00, 0.00, 0.00, 0.00, 0.00, 0.00, 0.82, -0.57, 0.14
137, 0.00, 46188.09, 0.00, 0.00, 0.00, 0.00, 0.00, 0.00, 0.82, -0.57, 0.14
138, 0.00, 46169.07, 0.00, 0.00, 0.00, 0.00, 0.00, 0.00, 0.82, -0.57, 0.14
139, 0.00, 46124.37, 0.00, 0.00, 0.00, 0.00, 0.00, 0.00, 0.81, -0.57, 0.14
140, 0.00, 46088.16, 0.00, 0.00, 0.00, 0.00, 0.00, 0.00, 0.81, -0.57, 0.14
141, 0.00, 46021.95, 0.00, 0.00, 0.00, 0.00, 0.00, 0.00, 0.81, -0.57, 0.14
142, 0.00, 45961.98, 0.00, 0.00, 0.00, 0.00, 0.00, 0.00, 0.81, -0.57, 0.14
143, 0.00, 45951.14, 0.00, 0.00, 0.00, 0.00, 0.00, 0.00, 0.81, -0.57, 0.14
144, 0.00, 45927.27, 0.00, 0.00, 0.00, 0.00, 0.00, 0.00, 0.82, -0.57, 0.14
145, 0.00, 45872.64, 0.00, 0.00, 0.00, 0.00, 0.00, 0.00, 0.82, -0.57, 0.14
146, 0.00, 45854.69, 0.00, 0.00, 0.00, 0.00, 0.00, 0.00, 0.82, -0.57, 0.14
147, 0.00, 45851.59, 0.00, 0.00, 0.00, 0.00, 0.00, 0.00, 0.82, -0.57, 0.14
148, 0.00, 45840.48, 0.00, 0.00, 0.00, 0.00, 0.00, 0.00, 0.82, -0.57, 0.14
149, 0.00, 45828.81, 0.00, 0.00, 0.00, 0.00, 0.00, 0.00, 0.82, -0.56, 0.14
150, 0.00, 45825.30, 0.00, 0.00, 0.00, 0.00, 0.00, 0.00, 0.82, -0.56, 0.14
151, 0.00, 45820.54, 0.00, 0.00, 0.00, 0.00, 0.00, 0.00, 0.82, -0.56, 0.14
152, 0.00, 45820.05, 0.00, 0.00, 0.00, 0.00, 0.00, 0.00, 0.82, -0.56, 0.14
153, 0.00, 45806.79, 0.00, 0.00, 0.00, 0.00, 0.00, 0.00, 0.82, -0.56, 0.14
154, 0.00, 45809.92, 0.00, 0.00, 0.00, 0.00, 0.00, 0.00, 0.82, -0.56, 0.14
155, 0.00, 45811.55, 0.00, 0.00, 0.00, 0.00, 0.00, 0.00, 0.82, -0.56, 0.14
156, 0.00, 45821.81, 0.00, 0.00, 0.00, 0.00, 0.00, 0.00, 0.82, -0.56, 0.14
157, 0.00, 45843.88, 0.00, 0.00, 0.00, 0.00, 0.00, 0.00, 0.82, -0.56, 0.14
158, 0.00, 45830.21, 0.00, 0.00, 0.00, 0.00, 0.00, 0.00, 0.82, -0.56, 0.14
159, 0.00, 45818.73, 0.00, 0.00, 0.00, 0.00, 0.00, 0.00, 0.82, -0.57, 0.13
160, 0.00, 45797.43, 0.00, 0.00, 0.00, 0.00, 0.00, 0.00, 0.82, -0.57, 0.13
161, 0.00, 45806.95, 0.00, 0.00, 0.00, 0.00, 0.00, 0.00, 0.82, -0.57, 0.13
162, 0.00, 45789.22, 0.00, 0.00, 0.00, 0.00, 0.00, 0.00, 0.82, -0.57, 0.13
163, 0.00, 45786.83, 0.00, 0.00, 0.00, 0.00, 0.00, 0.00, 0.82, -0.57, 0.13
164, 0.00, 45792.26, 0.00, 0.00, 0.00, 0.00, 0.00, 0.00, 0.82, -0.57, 0.14
165, 0.00, 45795.77, 0.00, 0.00, 0.00, 0.00, 0.00, 0.00, 0.82, -0.57, 0.14
166, 0.00, 45794.23, 0.00, 0.00, 0.00, 0.00, 0.00, 0.00, 0.82, -0.57, 0.14
167, 0.00, 45771.52, 0.00, 0.00, 0.00, 0.00, 0.00, 0.00, 0.82, -0.57, 0.14
168, 0.00, 45784.37, 0.00, 0.00, 0.00, 0.00, 0.00, 0.00, 0.82, -0.57, 0.14
169, 0.00, 45790.96, 0.00, 0.00, 0.00, 0.00, 0.00, 0.00, 0.81, -0.57, 0.13
170, 0.00, 45792.42, 0.00, 0.00, 0.00, 0.00, 0.00, 0.00, 0.81, -0.57, 0.13
171, 0.00, 45780.57, 0.00, 0.00, 0.00, 0.00, 0.00, 0.00, 0.81, -0.57, 0.13
172, 0.00, 45784.73, 0.00, 0.00, 0.00, 0.00, 0.00, 0.00, 0.81, -0.57, 0.13
173, 0.00, 45799.62, 0.00, 0.00, 0.00, 0.00, 0.00, 0.00, 0.81, -0.57, 0.13
174, 0.00, 45811.93, 0.00, 0.00, 0.00, 0.00, 0.00, 0.00, 0.81, -0.57, 0.13
175, 0.00, 45781.42, 0.00, 0.00, 0.00, 0.00, 0.00, 0.00, 0.81, -0.57, 0.13
176, 0.00, 45770.40, 0.00, 0.00, 0.00, 0.00, 0.00, 0.00, 0.81, -0.57, 0.13
177, 0.00, 45780.59, 0.00, 0.00, 0.00, 0.00, 0.00, 0.00, 0.81, -0.57, 0.13
178, 0.00, 45793.54, 0.00, 0.00, 0.00, 0.00, 0.00, 0.00, 0.81, -0.57, 0.13
179, 0.00, 45815.31, 0.00, 0.00, 0.00, 0.00, 0.00, 0.00, 0.82, -0.56, 0.13
180, 0.00, 45832.94, 0.00, 0.00, 0.00, 0.00, 0.00, 0.00, 0.82, -0.56, 0.13
181, 0.00, 45854.94, 0.00, 0.00, 0.00, 0.00, 0.00, 0.00, 0.82, -0.56, 0.13
182, 0.00, 45877.49, 0.00, 0.00, 0.00, 0.00, 0.00, 0.00, 0.82, -0.56, 0.13
183, 0.00, 45865.00, 0.00, 0.00, 0.00, 0.00, 0.00, 0.00, 0.82, -0.56, 0.13
184, 0.00, 45849.91, 0.00, 0.00, 0.00, 0.00, 0.00, 0.00, 0.82, -0.57, 0.13
185, 0.00, 45886.21, 0.00, 0.00, 0.00, 0.00, 0.00, 0.00, 0.82, -0.57, 0.13
186, 0.00, 45923.69, 0.00, 0.00, 0.00, 0.00, 0.00, 0.00, 0.82, -0.57, 0.13
187, 0.00, 45953.13, 0.00, 0.00, 0.00, 0.00, 0.00, 0.00, 0.82, -0.57, 0.13
188, 0.00, 45978.45, 0.00, 0.00, 0.00, 0.00, 0.00, 0.00, 0.82, -0.57, 0.13
189, 0.00, 45980.24, 0.00, 0.00, 0.00, 0.00, 0.00, 0.00, 0.82, -0.56, 0.13
190, 0.00, 46003.62, 0.00, 0.00, 0.00, 0.00, 0.00, 0.00, 0.82, -0.56, 0.13
191, 0.00, 46037.64, 0.00, 0.00, 0.00, 0.00, 0.00, 0.00, 0.82, -0.56, 0.13
192, 0.00, 46002.86, 0.00, 0.00, 0.00, 0.00, 0.00, 0.00, 0.82, -0.56, 0.13
193, 0.00, 46030.69, 0.00, 0.00, 0.00, 0.00, 0.00, 0.00, 0.82, -0.56, 0.13
194, 0.00, 46099.46, 0.00, 0.00, 0.00, 0.00, 0.00, 0.00, 0.82, -0.57, 0.14
195, 0.00, 46111.45, 0.00, 0.00, 0.00, 0.00, 0.00, 0.00, 0.82, -0.57, 0.14
196, 0.00, 46115.43, 0.00, 0.00, 0.00, 0.00, 0.00, 0.00, 0.82, -0.57, 0.14
197, 0.00, 46133.73, 0.00, 0.00, 0.00, 0.00, 0.00, 0.00, 0.82, -0.57, 0.14
198, 0.00, 46162.21, 0.00, 0.00, 0.00, 0.00, 0.00, 0.00, 0.82, -0.57, 0.14
199, 0.00, 46185.95, 0.00, 0.00, 0.00, 0.00, 0.00, 0.00, 0.81, -0.56, 0.14
200, 0.00, 46187.04, 0.00, 0.00, 0.00, 0.00, 0.00, 0.00, 0.81, -0.56, 0.14
201, 0.00, 46188.27, 0.00, 0.00, 0.00, 0.00, 0.00, 0.00, 0.81, -0.56, 0.14
202, 0.00, 46226.89, 0.00, 0.00, 0.00, 0.00, 0.00, 0.00, 0.81, -0.56, 0.14
203, 0.00, 46256.22, 0.00, 0.00, 0.00, 0.00, 0.00, 0.00, 0.81, -0.56, 0.14
204, 0.00, 46265.50, 0.00, 0.00, 0.00, 0.00, 0.00, 0.00, 0.82, -0.57, 0.14
205, 0.00, 46260.29, 0.00, 0.00, 0.00, 0.00, 0.00, 0.00, 0.82, -0.57, 0.14
206, 0.00, 46269.41, 0.00, 0.00, 0.00, 0.00, 0.00, 0.00, 0.82, -0.57, 0.14
207, 0.00, 46291.42, 0.00, 0.00, 0.00, 0.00, 0.00, 0.00, 0.82, -0.57, 0.14
208, 0.00, 46295.54, 0.00, 0.00, 0.00, 0.00, 0.00, 0.00, 0.82, -0.57, 0.14
209, 0.00, 46298.84, 0.00, 0.00, 0.00, 0.00, 0.00, 0.00, 0.82, -0.57, 0.14
210, 0.00, 46304.43, 0.00, 0.00, 0.00, 0.00, 0.00, 0.00, 0.82, -0.57, 0.14
211, 0.00, 46319.38, 0.00, 0.00, 0.00, 0.00, 0.00, 0.00, 0.82, -0.57, 0.14
212, 0.00, 46325.24, 0.00, 0.00, 0.00, 0.00, 0.00, 0.00, 0.82, -0.57, 0.14
213, 0.00, 46312.77, 0.00, 0.00, 0.00, 0.00, 0.00, 0.00, 0.82, -0.57, 0.14
214, 0.00, 46338.00, 0.00, 0.00, 0.00, 0.00, 0.00, 0.00, 0.82, -0.57, 0.14
215, 0.00, 46353.18, 0.00, 0.00, 0.00, 0.00, 0.00, 0.00, 0.82, -0.57, 0.14
216, 0.00, 46374.08, 0.00, 0.00, 0.00, 0.00, 0.00, 0.00, 0.82, -0.57, 0.14
217, 0.00, 46353.61, 0.00, 0.00, 0.00, 0.00, 0.00, 0.00, 0.82, -0.57, 0.14
218, 0.00, 46364.51, 0.00, 0.00, 0.00, 0.00, 0.00, 0.00, 0.82, -0.57, 0.14
219, 0.00, 46376.67, 0.00, 0.00, 0.00, 0.00, 0.00, 0.00, 0.82, -0.57, 0.14
220, 0.00, 46382.55, 0.00, 0.00, 0.00, 0.00, 0.00, 0.00, 0.82, -0.57, 0.14
221, 0.00, 46393.73, 0.00, 0.00, 0.00, 0.00, 0.00, 0.00, 0.82, -0.57, 0.14
222, 0.00, 46390.13, 0.00, 0.00, 0.00, 0.00, 0.00, 0.00, 0.82, -0.57, 0.14
223, 0.00, 46373.25, 0.00, 0.00, 0.00, 0.00, 0.00, 0.00, 0.82, -0.57, 0.14
224, 0.00, 46417.00, 0.00, 0.00, 0.00, 0.00, 0.00, 0.00, 0.83, -0.57, 0.14
225, 0.00, 46416.12, 0.00, 0.00, 0.00, 0.00, 0.00, 0.00, 0.83, -0.57, 0.14
226, 0.00, 46390.98, 0.00, 0.00, 0.00, 0.00, 0.00, 0.00, 0.83, -0.57, 0.14
227, 0.00, 46393.39, 0.00, 0.00, 0.00, 0.00, 0.00, 0.00, 0.83, -0.57, 0.14
228, 0.00, 46413.30, 0.00, 0.00, 0.00, 0.00, 0.00, 0.00, 0.83, -0.57, 0.14
229, 0.00, 46426.49, 0.00, 0.00, 0.00, 0.00, 0.00, 0.00, 0.82, -0.57, 0.14
230, 0.00, 46412.70, 0.00, 0.00, 0.00, 0.00, 0.00, 0.00, 0.82, -0.57, 0.14
231, 0.00, 46415.07, 0.00, 0.00, 0.00, 0.00, 0.00, 0.00, 0.82, -0.57, 0.14
232, 0.00, 46412.46, 0.00, 0.00, 0.00, 0.00, 0.00, 0.00, 0.82, -0.57, 0.14
233, 0.00, 46418.29, 0.00, 0.00, 0.00, 0.00, 0.00, 0.00, 0.82, -0.57, 0.14
234, 0.00, 46418.71, 0.00, 0.00, 0.00, 0.00, 0.00, 0.00, 0.81, -0.57, 0.14
235, 0.00, 46419.57, 0.00, 0.00, 0.00, 0.00, 0.00, 0.00, 0.81, -0.57, 0.14
236, 0.00, 46423.79, 0.00, 0.00, 0.00, 0.00, 0.00, 0.00, 0.81, -0.57, 0.14
237, 0.00, 46421.24, 0.00, 0.00, 0.00, 0.00, 0.00, 0.00, 0.81, -0.57, 0.14
238, 0.00, 46402.96, 0.00, 0.00, 0.00, 0.00, 0.00, 0.00, 0.81, -0.57, 0.14
239, 0.00, 46404.32, 0.00, 0.00, 0.00, 0.00, 0.00, 0.00, 0.82, -0.57, 0.13
240, 0.00, 46419.74, 0.00, 0.00, 0.00, 0.00, 0.00, 0.00, 0.82, -0.57, 0.13
241, 0.00, 46425.51, 0.00, 0.00, 0.00, 0.00, 0.00, 0.00, 0.82, -0.57, 0.13
242, 0.00, 46413.53, 0.00, 0.00, 0.00, 0.00, 0.00, 0.00, 0.82, -0.57, 0.13
243, 0.00, 46420.66, 0.00, 0.00, 0.00, 0.00, 0.00, 0.00, 0.82, -0.57, 0.13
244, 0.00, 46437.02, 0.00, 0.00, 0.00, 0.00, 0.00, 0.00, 0.82, -0.57, 0.13
245, 0.00, 46446.27, 0.00, 0.00, 0.00, 0.00, 0.00, 0.00, 0.82, -0.57, 0.13
246, 0.00, 46433.47, 0.00, 0.00, 0.00, 0.00, 0.00, 0.00, 0.82, -0.57, 0.13
247, 0.00, 46430.07, 0.00, 0.00, 0.00, 0.00, 0.00, 0.00, 0.82, -0.57, 0.13
248, 0.00, 46449.23, 0.00, 0.00, 0.00, 0.00, 0.00, 0.00, 0.82, -0.57, 0.13
249, 0.00, 46450.59, 0.00, 0.00, 0.00, 0.00, 0.00, 0.00, 0.82, -0.57, 0.13
250, 0.00, 46445.34, 0.00, 0.00, 0.00, 0.00, 0.00, 0.00, 0.82, -0.57, 0.13
251, 0.00, 46434.09, 0.00, 0.00, 0.00, 0.00, 0.00, 0.00, 0.82, -0.57, 0.13
252, 0.00, 46437.85, 0.00, 0.00, 0.00, 0.00, 0.00, 0.00, 0.82, -0.57, 0.13
253, 0.00, 46454.66, 0.00, 0.00, 0.00, 0.00, 0.00, 0.00, 0.82, -0.57, 0.13
254, 0.00, 46424.77, 0.00, 0.00, 0.00, 0.00, 0.00, 0.00, 0.82, -0.57, 0.13
255, 0.00, 46407.27, 0.00, 0.00, 0.00, 0.00, 0.00, 0.00, 0.81, -0.57, 0.14
0, 0.00, 46426.02, 0.00, 0.00, 0.00, 0.00, 0.00, 0.00, 0.81, -0.57, 0.14
1, 0.00, 46443.39, 0.00, 0.00, 0.00, 0.00, 0.00, 0.00, 0.81, -0.57, 0.14
2, 0.00, 46455.13, 0.00, 0.00, 0.00, 0.00, 0.00, 0.00, 0.81, -0.57, 0.14
3, 0.00, 46455.80, 0.00, 0.00, 0.00, 0.00, 0.00, 0.00, 0.81, -0.57, 0.14
4, 0.00, 46456.82, 0.00, 0.00, 0.00, 0.00, 0.00, 0.00, 0.82, -0.57, 0.13
5, 0.00, 46455.57, 0.00, 0.00, 0.00, 0.00, 0.00, 0.00, 0.82, -0.57, 0.13
6, 0.00, 46451.73, 0.00, 0.00, 0.00, 0.00, 0.00, 0.00, 0.82, -0.57, 0.13
7, 0.00, 46447.84, 0.00, 0.00, 0.00, 0.00, 0.00, 0.00, 0.82, -0.57, 0.13
8, 0.00, 46433.07, 0.00, 0.00, 0.00, 0.00, 0.00, 0.00, 0.82, -0.57, 0.13
9, 0.00, 46429.31, 0.00, 0.00, 0.00, 0.00, 0.00, 0.00, 0.82, -0.57, 0.14
10, 0.00, 46459.44, 0.00, 0.00, 0.00, 0.00, 0.00, 0.00, 0.82, -0.57, 0.14
11, 0.00, 46457.32, 0.00, 0.00, 0.00, 0.00, 0.00, 0.00, 0.82, -0.57, 0.14
12, 0.00, 46439.84, 0.00, 0.00, 0.00, 0.00, 0.00, 0.00, 0.82, -0.57, 0.14
13, 0.00, 46445.40, 0.00, 0.00, 0.00, 0.00, 0.00, 0.00, 0.82, -0.57, 0.14
14, 0.00, 46456.96, 0.00, 0.00, 0.00, 0.00, 0.00, 0.00, 0.82, -0.57, 0.14
15, 0.00, 46446.21, 0.00, 0.00, 0.00, 0.00, 0.00, 0.00, 0.82, -0.57, 0.14
16, 0.00, 46438.27, 0.00, 0.00, 0.00, 0.00, 0.00, 0.00, 0.82, -0.57, 0.14
17, 0.00, 46453.72, 0.00, 0.00, 0.00, 0.00, 0.00, 0.00, 0.82, -0.57, 0.14
18, 0.00, 46457.74, 0.00, 0.00, 0.00, 0.00, 0.00, 0.00, 0.82, -0.57, 0.14
19, 0.00, 46454.70, 0.00, 0.00, 0.00, 0.00, 0.00, 0.00, 0.81, -0.57, 0.13
20, 0.00, 46458.23, 0.00, 0.00, 0.00, 0.00, 0.00, 0.00, 0.81, -0.57, 0.13
21, 0.00, 46431.75, 0.00, 0.00, 0.00, 0.00, 0.00, 0.00, 0.81, -0.57, 0.13
22, 0.00, 46462.61, 0.00, 0.00, 0.00, 0.00, 0.00, 0.00, 0.81, -0.57, 0.13
23, 0.00, 46476.83, 0.00, 0.00, 0.00, 0.00, 0.00, 0.00, 0.81, -0.57, 0.13
24, 0.00, 46458.30, 0.00, 0.00, 0.00, 0.00, 0.00, 0.00, 0.81, -0.57, 0.13
25, 0.00, 46454.48, 0.00, 0.00, 0.00, 0.00, 0.00, 0.00, 0.81, -0.57, 0.13
26, 0.00, 46465.48, 0.00, 0.00, 0.00, 0.00, 0.00, 0.00, 0.81, -0.57, 0.13
27, 0.00, 46461.32, 0.00, 0.00, 0.00, 0.00, 0.00, 0.00, 0.81, -0.57, 0.13
28, 0.00, 46465.05, 0.00, 0.00, 0.00, 0.00, 0.00, 0.00, 0.81, -0.57, 0.13
29, 0.00, 46464.20, 0.00, 0.00, 0.00, 0.00, 0.00, 0.00, 0.83, -0.58, 0.14
30, 0.00, 46466.91, 0.00, 0.00, 0.00, 0.00, 0.00, 0.00, 0.83, -0.58, 0.14
31, 0.00, 46469.52, 0.00, 0.00, 0.00, 0.00, 0.00, 0.00, 0.83, -0.58, 0.14
32, 0.00, 46467.02, 0.00, 0.00, 0.00, 0.00, 0.00, 0.00, 0.83, -0.58, 0.14
33, 0.00, 46450.57, 0.00, 0.00, 0.00, 0.00, 0.00, 0.00, 0.83, -0.58, 0.14
34, 0.00, 46469.48, 0.00, 0.00, 0.00, 0.00, 0.00, 0.00, 0.82, -0.57, 0.13
35, 0.00, 46481.48, 0.00, 0.00, 0.00, 0.00, 0.00, 0.00, 0.82, -0.57, 0.13
36, 0.00, 46477.77, 0.00, 0.00, 0.00, 0.00, 0.00, 0.00, 0.82, -0.57, 0.13
37, 0.00, 46460.16, 0.00, 0.00, 0.00, 0.00, 0.00, 0.00, 0.82, -0.57, 0.13
38, 0.00, 46449.76, 0.00, 0.00, 0.00, 0.00, 0.00, 0.00, 0.82, -0.57, 0.13
39, 0.00, 46458.50, 0.00, 0.00, 0.00, 0.00, 0.00, 0.00, 0.82, -0.57, 0.13
40, 0.00, 46461.30, 0.00, 0.00, 0.00, 0.00, 0.00, 0.00, 0.82, -0.57, 0.13
41, 0.00, 46450.97, 0.00, 0.00, 0.00, 0.00, 0.00, 0.00, 0.82, -0.57, 0.13
42, 0.00, 46454.23, 0.00, 0.00, 0.00, 0.00, 0.00, 0.00, 0.82, -0.57, 0.13
43, 0.00, 46470.28, 0.00, 0.00, 0.00, 0.00, 0.00, 0.00, 0.82, -0.57, 0.13
44, 0.00, 46477.79, 0.00, 0.00, 0.00, 0.00, 0.00, 0.00, 0.82, -0.56, 0.13
45, 0.00, 46469.59, 0.00, 0.00, 0.00, 0.00, 0.00, 0.00, 0.82, -0.56, 0.13
46, 0.00, 46472.38, 0.00, 0.00, 0.00, 0.00, 0.00, 0.00, 0.82, -0.56, 0.13
47, 0.00, 46469.52, 0.00, 0.00, 0.00, 0.00, 0.00, 0.00, 0.82, -0.56, 0.13
48, 0.00, 46465.45, 0.00, 0.00, 0.00, 0.00, 0.00, 0.00, 0.82, -0.56, 0.13
49, 0.00, 46466.10, 0.00, 0.00, 0.00, 0.00, 0.00, 0.00, 0.82, -0.57, 0.13
50, 0.00, 46460.02, 0.00, 0.00, 0.00, 0.00, 0.00, 0.00, 0.82, -0.57, 0.13
51, 0.00, 46462.03, 0.00, 0.00, 0.00, 0.00, 0.00, 0.00, 0.82, -0.57, 0.13
52, 0.00, 46470.86, 0.00, 0.00, 0.00, 0.00, 0.00, 0.00, 0.82, -0.57, 0.13
53, 0.00, 46477.55, 0.00, 0.00, 0.00, 0.00, 0.00, 0.00, 0.82, -0.57, 0.13
54, 0.00, 46464.45, 0.00, 0.00, 0.00, 0.00, 0.00, 0.00, 0.82, -0.57, 0.13
55, 0.00, 46469.01, 0.00, 0.00, 0.00, 0.00, 0.00, 0.00, 0.82, -0.57, 0.13
56, 0.00, 46483.71, 0.00, 0.00, 0.00, 0.00, 0.00, 0.00, 0.82, -0.57, 0.13
57, 0.00, 46481.48, 0.00, 0.00, 0.00, 0.00, 0.00, 0.00, 0.82, -0.57, 0.13
58, 0.00, 46452.94, 0.00, 0.00, 0.00, 0.00, 0.00, 0.00, 0.82, -0.57, 0.13
59, 0.00, 46477.72, 0.00, 0.00, 0.00, 0.00, 0.00, 0.00, 0.82, -0.57, 0.13
60, 0.00, 46498.31, 0.00, 0.00, 0.00, 0.00, 0.00, 0.00, 0.82, -0.57, 0.13
61, 0.00, 46474.04, 0.00, 0.00, 0.00, 0.00, 0.00, 0.00, 0.82, -0.57, 0.13
62, 0.00, 46463.82, 0.00, 0.00, 0.00, 0.00, 0.00, 0.00, 0.82, -0.57, 0.13
63, 0.00, 46460.54, 0.00, 0.00, 0.00, 0.00, 0.00, 0.00, 0.82, -0.57, 0.13
64, 0.00, 46468.94, 0.00, 0.00, 0.00, 0.00, 0.00, 0.00, 0.82, -0.57, 0.14
65, 0.00, 46488.07, 0.00, 0.00, 0.00, 0.00, 0.00, 0.00, 0.82, -0.57, 0.14
66, 0.00, 46486.69, 0.00, 0.00, 0.00, 0.00, 0.00, 0.00, 0.82, -0.57, 0.14
67, 0.00, 46482.38, 0.00, 0.00, 0.00, 0.00, 0.00, 0.00, 0.82, -0.57, 0.14
68, 0.00, 46477.61, 0.00, 0.00, 0.00, 0.00, 0.00, 0.00, 0.82, -0.57, 0.14
69, 0.00, 46473.81, 0.00, 0.00, 0.00, 0.00, 0.00, 0.00, 0.81, -0.56, 0.13
70, 0.00, 46477.05, 0.00, 0.00, 0.00, 0.00, 0.00, 0.00, 0.81, -0.56, 0.13
