%OpenBCI Raw EEG Data
%
%Sample Rate = 250.0 Hz
%First Column = SampleIndex
%Other Columns = EEG data in microvolts followed by Accel Data (in G) interleaved with Aux Data
0, 0.00, 51296.27, 0.00, 0.00, 0.00, 0.00, 0.00, 0.00, 0.01, -0.19, 1.01
1, 0.00, 51309.59, 0.00, 0.00, 0.00, 0.00, 0.00, 0.00, 0.01, -0.19, 1.01
2, 0.00, 51237.95, 0.00, 0.00, 0.00, 0.00, 0.00, 0.00, 0.01, -0.18, 1.02
3, 0.00, 51200.51, 0.00, 0.00, 0.00, 0.00, 0.00, 0.00, 0.01, -0.18, 1.02
4, 0.00, 51240.68, 0.00, 0.00, 0.00, 0.00, 0.00, 0.00, 0.01, -0.18, 1.02
5, 0.00, 51279.19, 0.00, 0.00, 0.00, 0.00, 0.00, 0.00, 0.01, -0.18, 1.02
6, 0.00, 51247.05, 0.00, 0.00, 0.00, 0.00, 0.00, 0.00, 0.01, -0.18, 1.02
7, 0.00, 51190.48, 0.00, 0.00, 0.00, 0.00, 0.00, 0.00, 0.01, -0.18, 1.01
8, 0.00, 51230.11, 0.00, 0.00, 0.00, 0.00, 0.00, 0.00, 0.01, -0.18, 1.01
9, 0.00, 51285.96, 0.00, 0.00, 0.00, 0.00, 0.00, 0.00, 0.01, -0.18, 1.01
10, 0.00, 51258.05, 0.00, 0.00, 0.00, 0.00, 0.00, 0.00, 0.01, -0.18, 1.01
11, 0.00, 51213.01, 0.00, 0.00, 0.00, 0.00, 0.00, 0.00, 0.01, -0.18, 1.01
12, 0.00, 51251.68, 0.00, 0.00, 0.00, 0.00, 0.00, 0.00, 0.00, -0.18, 1.02
13, 0.00, 51317.93, 0.00, 0.00, 0.00, 0.00, 0.00, 0.00, 0.00, -0.18, 1.02
14, 0.00, 51307.73, 0.00, 0.00, 0.00, 0.00, 0.00, 0.00, 0.00, -0.18, 1.02
15, 0.00, 51240.28, 0.00, 0.00, 0.00, 0.00, 0.00, 0.00, 0.00, -0.18, 1.02
16, 0.00, 51239.23, 0.00, 0.00, 0.00, 0.00, 0.00, 0.00, 0.00, -0.18, 1.02
17, 0.00, 51309.66, 0.00, 0.00, 0.00, 0.00, 0.00, 0.00, 0.01, -0.18, 1.02
18, 0.00, 51319.40, 0.00, 0.00, 0.00, 0.00, 0.00, 0.00, 0.01, -0.18, 1.02
19, 0.00, 51265.98, 0.00, 0.00, 0.00, 0.00, 0.00, 0.00, 0.01, -0.18, 1.02
20, 0.00, 51242.85, 0.00, 0.00, 0.00, 0.00, 0.00, 0.00, 0.01, -0.18, 1.02
21, 0.00, 51306.95, 0.00, 0.00, 0.00, 0.00, 0.00, 0.00, 0.01, -0.18, 1.02
22, 0.00, 51329.41, 0.00, 0.00, 0.00, 0.00, 0.00, 0.00, 0.01, -0.18, 1.01
23, 0.00, 51274.74, 0.00, 0.00, 0.00, 0.00, 0.00, 0.00, 0.01, -0.18, 1.01
24, 0.00, 51240.81, 0.00, 0.00, 0.00, 0.00, 0.00, 0.00, 0.01, -0.18, 1.01
25, 0.00, 51299.00, 0.00, 0.00, 0.00, 0.00, 0.00, 0.00, 0.01, -0.18, 1.01
26, 0.00, 51327.74, 0.00, 0.00, 0.00, 0.00, 0.00, 0.00, 0.01, -0.18, 1.01
27, 0.00, 51298.55, 0.00, 0.00, 0.00, 0.00, 0.00, 0.00, 0.01, -0.19, 1.01
28, 0.00, 51244.93, 0.00, 0.00, 0.00, 0.00, 0.00, 0.00, 0.01, -0.19, 1.01
29, 0.00, 51298.77, 0.00, 0.00, 0.00, 0.00, 0.00, 0.00, 0.01, -0.19, 1.01
30, 0.00, 51349.13, 0.00, 0.00, 0.00, 0.00, 0.00, 0.00, 0.01, -0.19, 1.01
31, 0.00, 51320.14, 0.00, 0.00, 0.00, 0.00, 0.00, 0.00, 0.01, -0.19, 1.01
32, 0.00, 51258.38, 0.00, 0.00, 0.00, 0.00, 0.00, 0.00, 0.01, -0.18, 1.02
33, 0.00, 51268.62, 0.00, 0.00, 0.00, 0.00, 0.00, 0.00, 0.01, -0.18, 1.02
34, 0.00, 51342.20, 0.00, 0.00, 0.00, 0.00, 0.00, 0.00, 0.01, -0.18, 1.02
35, 0.00, 51327.52, 0.00, 0.00, 0.00, 0.00, 0.00, 0.00, 0.01, -0.18, 1.02
36, 0.00, 51256.32, 0.00, 0.00, 0.00, 0.00, 0.00, 0.00, 0.01, -0.18, 1.02
37, 0.00, 51258.02, 0.00, 0.00, 0.00, 0.00, 0.00, 0.00, 0.01, -0.19, 1.01
38, 0.00, 51322.13, 0.00, 0.00, 0.00, 0.00, 0.00, 0.00, 0.01, -0.19, 1.01
39, 0.00, 51316.16, 0.00, 0.00, 0.00, 0.00, 0.00, 0.00, 0.01, -0.19, 1.01
40, 0.00, 51258.14, 0.00, 0.00, 0.00, 0.00, 0.00, 0.00, 0.01, -0.19, 1.01
41, 0.00, 51266.09, 0.00, 0.00, 0.00, 0.00, 0.00, 0.00, 0.01, -0.19, 1.01
42, 0.00, 51324.66, 0.00, 0.00, 0.00, 0.00, 0.00, 0.00, 0.00, -0.18, 1.01
43, 0.00, 51337.39, 0.00, 0.00, 0.00, 0.00, 0.00, 0.00, 0.00, -0.18, 1.01
44, 0.00, 51282.61, 0.00, 0.00, 0.00, 0.00, 0.00, 0.00, 0.00, -0.18, 1.01
45, 0.00, 51260.06, 0.00, 0.00, 0.00, 0.00, 0.00, 0.00, 0.00, -0.18, 1.01
46, 0.00, 51304.54, 0.00, 0.00, 0.00, 0.00, 0.00, 0.00, 0.00, -0.18, 1.01
47, 0.00, 51333.89, 0.00, 0.00, 0.00, 0.00, 0.00, 0.00, 0.01, -0.19, 1.01
48, 0.00, 51311.07, 0.00, 0.00, 0.00, 0.00, 0.00, 0.00, 0.01, -0.19, 1.01
49, 0.00, 51270.47, 0.00, 0.00, 0.00, 0.00, 0.00, 0.00, 0.01, -0.19, 1.01
50, 0.00, 51315.38, 0.00, 0.00, 0.00, 0.00, 0.00, 0.00, 0.01, -0.19, 1.01
51, 0.00, 51348.84, 0.00, 0.00, 0.00, 0.00, 0.00, 0.00, 0.01, -0.19, 1.01
52, 0.00, 51299.51, 0.00, 0.00, 0.00, 0.00, 0.00, 0.00, 0.01, -0.19, 1.01
53, 0.00, 51265.56, 0.00, 0.00, 0.00, 0.00, 0.00, 0.00, 0.01, -0.19, 1.01
54, 0.00, 51310.84, 0.00, 0.00, 0.00, 0.00, 0.00, 0.00, 0.01, -0.19, 1.01
55, 0.00, 51357.47, 0.00, 0.00, 0.00, 0.00, 0.00, 0.00, 0.01, -0.19, 1.01
56, 0.00, 51325.93, 0.00, 0.00, 0.00, 0.00, 0.00, 0.00, 0.01, -0.19, 1.01
57, 0.00, 51274.50, 0.00, 0.00, 0.00, 0.00, 0.00, 0.00, 0.00, -0.18, 1.02
58, 0.00, 51303.87, 0.00, 0.00, 0.00, 0.00, 0.00, 0.00, 0.00, -0.18, 1.02
59, 0.00, 51335.38, 0.00, 0.00, 0.00, 0.00, 0.00, 0.00, 0.00, -0.18, 1.02
60, 0.00, 51327.29, 0.00, 0.00, 0.00, 0.00, 0.00, 0.00, 0.00, -0.18, 1.02
61, 0.00, 51271.84, 0.00, 0.00, 0.00, 0.00, 0.00, 0.00, 0.00, -0.18, 1.02
62, 0.00, 51298.75, 0.00, 0.00, 0.00, 0.00, 0.00, 0.00, 0.01, -0.18, 1.01
63, 0.00, 51375.97, 0.00, 0.00, 0.00, 0.00, 0.00, 0.00, 0.01, -0.18, 1.01
64, 0.00, 51370.61, 0.00, 0.00, 0.00, 0.00, 0.00, 0.00, 0.01, -0.18, 1.01
65, 0.00, 51303.13, 0.00, 0.00, 0.00, 0.00, 0.00, 0.00, 0.01, -0.18, 1.01
66, 0.00, 51287.66, 0.00, 0.00, 0.00, 0.00, 0.00, 0.00, 0.01, -0.18, 1.01
67, 0.00, 51345.33, 0.00, 0.00, 0.00, 0.00, 0.00, 0.00, 0.01, -0.19, 1.01
68, 0.00, 51362.47, 0.00, 0.00, 0.00, 0.00, 0.00, 0.00, 0.01, -0.19, 1.01
69, 0.00, 51312.83, 0.00, 0.00, 0.00, 0.00, 0.00, 0.00, 0.01, -0.19, 1.01
70, 0.00, 51275.41, 0.00, 0.00, 0.00, 0.00, 0.00, 0.00, 0.01, -0.19, 1.01
71, 0.00, 51326.44, 0.00, 0.00, 0.00, 0.00, 0.00, 0.00, 0.01, -0.19, 1.01
72, 0.00, 51374.86, 0.00, 0.00, 0.00, 0.00, 0.00, 0.00, 0.01, -0.18, 1.01
73, 0.00, 51325.06, 0.00, 0.00, 0.00, 0.00, 0.00, 0.00, 0.01, -0.18, 1.01
74, 0.00, 51279.68, 0.00, 0.00, 0.00, 0.00, 0.00, 0.00, 0.01, -0.18, 1.01
75, 0.00, 51315.76, 0.00, 0.00, 0.00, 0.00, 0.00, 0.00, 0.01, -0.18, 1.01
76, 0.00, 51378.70, 0.00, 0.00, 0.00, 0.00, 0.00, 0.00, 0.01, -0.18, 1.01
77, 0.00, 51329.84, 0.00, 0.00, 0.00, 0.00, 0.00, 0.00, 0.01, -0.18, 1.02
78, 0.00, 51275.41, 0.00, 0.00, 0.00, 0.00, 0.00, 0.00, 0.01, -0.18, 1.02
79, 0.00, 51300.96, 0.00, 0.00, 0.00, 0.00, 0.00, 0.00, 0.01, -0.18, 1.02
80, 0.00, 51336.79, 0.00, 0.00, 0.00, 0.00, 0.00, 0.00, 0.01, -0.18, 1.02
81, 0.00, 51311.73, 0.00, 0.00, 0.00, 0.00, 0.00, 0.00, 0.01, -0.18, 1.02
82, 0.00, 51278.10, 0.00, 0.00, 0.00, 0.00, 0.00, 0.00, 0.00, -0.18, 1.01
83, 0.00, 51315.45, 0.00, 0.00, 0.00, 0.00, 0.00, 0.00, 0.00, -0.18, 1.01
84, 0.00, 51359.90, 0.00, 0.00, 0.00, 0.00, 0.00, 0.00, 0.00, -0.18, 1.01
85, 0.00, 51330.54, 0.00, 0.00, 0.00, 0.00, 0.00, 0.00, 0.00, -0.18, 1.01
86, 0.00, 51273.31, 0.00, 0.00, 0.00, 0.00, 0.00, 0.00, 0.00, -0.18, 1.01
87, 0.00, 51276.73, 0.00, 0.00, 0.00, 0.00, 0.00, 0.00, 0.00, -0.18, 1.00
88, 0.00, 51337.06, 0.00, 0.00, 0.00, 0.00, 0.00, 0.00, 0.00, -0.18, 1.00
89, 0.00, 51347.45, 0.00, 0.00, 0.00, 0.00, 0.00, 0.00, 0.00, -0.18, 1.00
90, 0.00, 51306.73, 0.00, 0.00, 0.00, 0.00, 0.00, 0.00, 0.00, -0.18, 1.00
91, 0.00, 51286.66, 0.00, 0.00, 0.00, 0.00, 0.00, 0.00, 0.00, -0.18, 1.00
92, 0.00, 51337.11, 0.00, 0.00, 0.00, 0.00, 0.00, 0.00, 0.00, -0.19, 1.01
93, 0.00, 51347.81, 0.00, 0.00, 0.00, 0.00, 0.00, 0.00, 0.00, -0.19, 1.01
94, 0.00, 51302.41, 0.00, 0.00, 0.00, 0.00, 0.00, 0.00, 0.00, -0.19, 1.01
95, 0.00, 51289.00, 0.00, 0.00, 0.00, 0.00, 0.00, 0.00, 0.00, -0.19, 1.01
96, 0.00, 51348.30, 0.00, 0.00, 0.00, 0.00, 0.00, 0.00, 0.00, -0.19, 1.01
97, 0.00, 51376.69, 0.00, 0.00, 0.00, 0.00, 0.00, 0.00, 0.01, -0.19, 1.01
98, 0.00, 51329.66, 0.00, 0.00, 0.00, 0.00, 0.00, 0.00, 0.01, -0.19, 1.01
99, 0.00, 51276.98, 0.00, 0.00, 0.00, 0.00, 0.00, 0.00, 0.01, -0.19, 1.01
100, 0.00, 51309.05, 0.00, 0.00, 0.00, 0.00, 0.00, 0.00, 0.01, -0.19, 1.01
101, 0.00, 51360.48, 0.00, 0.00, 0.00, 0.00, 0.00, 0.00, 0.01, -0.19, 1.01
102, 0.00, 51315.45, 0.00, 0.00, 0.00, 0.00, 0.00, 0.00, 0.01, -0.19, 1.01
103, 0.00, 51271.28, 0.00, 0.00, 0.00, 0.00, 0.00, 0.00, 0.01, -0.19, 1.01
104, 0.00, 51313.99, 0.00, 0.00, 0.00, 0.00, 0.00, 0.00, 0.01, -0.19, 1.01
105, 0.00, 51364.22, 0.00, 0.00, 0.00, 0.00, 0.00, 0.00, 0.01, -0.19, 1.01
106, 0.00, 51344.32, 0.00, 0.00, 0.00, 0.00, 0.00, 0.00, 0.01, -0.19, 1.01
107, 0.00, 51272.24, 0.00, 0.00, 0.00, 0.00, 0.00, 0.00, 0.01, -0.18, 1.01
108, 0.00, 51291.51, 0.00, 0.00, 0.00, 0.00, 0.00, 0.00, 0.01, -0.18, 1.01
109, 0.00, 51355.68, 0.00, 0.00, 0.00, 0.00, 0.00, 0.00, 0.01, -0.18, 1.01
110, 0.00, 51340.70, 0.00, 0.00, 0.00, 0.00, 0.00, 0.00, 0.01, -0.18, 1.01
111, 0.00, 51278.57, 0.00, 0.00, 0.00, 0.00, 0.00, 0.00, 0.01, -0.18, 1.01
112, 0.00, 51292.63, 0.00, 0.00, 0.00, 0.00, 0.00, 0.00, 0.01, -0.18, 1.01
113, 0.00, 51360.37, 0.00, 0.00, 0.00, 0.00, 0.00, 0.00, 0.01, -0.18, 1.01
114, 0.00, 51364.51, 0.00, 0.00, 0.00, 0.00, 0.00, 0.00, 0.01, -0.18, 1.01
115, 0.00, 51301.72, 0.00, 0.00, 0.00, 0.00, 0.00, 0.00, 0.01, -0.18, 1.01
116, 0.00, 51281.09, 0.00, 0.00, 0.00, 0.00, 0.00, 0.00, 0.01, -0.18, 1.01
117, 0.00, 51325.50, 0.00, 0.00, 0.00, 0.00, 0.00, 0.00, 0.00, -0.19, 1.01
118, 0.00, 51359.41, 0.00, 0.00, 0.00, 0.00, 0.00, 0.00, 0.00, -0.19, 1.01
119, 0.00, 51308.38, 0.00, 0.00, 0.00, 0.00, 0.00, 0.00, 0.00, -0.19, 1.01
120, 0.00, 51278.63, 0.00, 0.00, 0.00, 0.00, 0.00, 0.00, 0.00, -0.19, 1.01
121, 0.00, 51325.06, 0.00, 0.00, 0.00, 0.00, 0.00, 0.00, 0.00, -0.19, 1.01
122, 0.00, 51365.04, 0.00, 0.00, 0.00, 0.00, 0.00, 0.00, 0.01, -0.19, 1.01
123, 0.00, 51321.53, 0.00, 0.00, 0.00, 0.00, 0.00, 0.00, 0.01, -0.19, 1.01
124, 0.00, 51277.83, 0.00, 0.00, 0.00, 0.00, 0.00, 0.00, 0.01, -0.19, 1.01
125, 0.00, 51305.21, 0.00, 0.00, 0.00, 0.00, 0.00, 0.00, 0.01, -0.19, 1.01
126, 0.00, 51341.38, 0.00, 0.00, 0.00, 0.00, 0.00, 0.00, 0.01, -0.19, 1.01
127, 0.00, 51324.43, 0.00, 0.00, 0.00, 0.00, 0.00, 0.00, 0.01, -0.19, 1.02
128, 0.00, 51279.80, 0.00, 0.00, 0.00, 0.00, 0.00, 0.00, 0.01, -0.19, 1.02
129, 0.00, 51309.48, 0.00, 0.00, 0.00, 0.00, 0.00, 0.00, 0.01, -0.19, 1.02
130, 0.00, 51367.05, 0.00, 0.00, 0.00, 0.00, 0.00, 0.00, 0.01, -0.19, 1.02
131, 0.00, 51336.05, 0.00, 0.00, 0.00, 0.00, 0.00, 0.00, 0.01, -0.19, 1.02
132, 0.00, 51273.52, 0.00, 0.00, 0.00, 0.00, 0.00, 0.00, 0.00, -0.18, 1.02
133, 0.00, 51278.57, 0.00, 0.00, 0.00, 0.00, 0.00, 0.00, 0.00, -0.18, 1.02
134, 0.00, 51334.27, 0.00, 0.00, 0.00, 0.00, 0.00, 0.00, 0.00, -0.18, 1.02
135, 0.00, 51348.75, 0.00, 0.00, 0.00, 0.00, 0.00, 0.00, 0.00, -0.18, 1.02
136, 0.00, 51274.77, 0.00, 0.00, 0.00, 0.00, 0.00, 0.00, 0.00, -0.18, 1.02
137, 0.00, 51285.74, 0.00, 0.00, 0.00, 0.00, 0.00, 0.00, -0.00, -0.18, 1.02
138, 0.00, 51350.18, 0.00, 0.00, 0.00, 0.00, 0.00, 0.00, -0.00, -0.18, 1.02
139, 0.00, 51371.17, 0.00, 0.00, 0.00, 0.00, 0.00, 0.00, -0.00, -0.18, 1.02
140, 0.00, 51316.77, 0.00, 0.00, 0.00, 0.00, 0.00, 0.00, -0.00, -0.18, 1.02
141, 0.00, 51297.21, 0.00, 0.00, 0.00, 0.00, 0.00, 0.00, -0.00, -0.18, 1.02
142, 0.00, 51348.84, 0.00, 0.00, 0.00, 0.00, 0.00, 0.00, 0.00, -0.18, 1.01
143, 0.00, 51373.32, 0.00, 0.00, 0.00, 0.00, 0.00, 0.00, 0.00, -0.18, 1.01
144, 0.00, 51300.89, 0.00, 0.00, 0.00, 0.00, 0.00, 0.00, 0.00, -0.18, 1.01
145, 0.00, 51272.06, 0.00, 0.00, 0.00, 0.00, 0.00, 0.00, 0.00, -0.18, 1.01
146, 0.00, 51331.54, 0.00, 0.00, 0.00, 0.00, 0.00, 0.00, 0.00, -0.18, 1.01
147, 0.00, 51374.88, 0.00, 0.00, 0.00, 0.00, 0.00, 0.00, 0.01, -0.18, 1.01
148, 0.00, 51360.02, 0.00, 0.00, 0.00, 0.00, 0.00, 0.00, 0.01, -0.18, 1.01
149, 0.00, 51315.38, 0.00, 0.00, 0.00, 0.00, 0.00, 0.00, 0.01, -0.18, 1.01
150, 0.00, 51340.75, 0.00, 0.00, 0.00, 0.00, 0.00, 0.00, 0.01, -0.18, 1.01
151, 0.00, 51388.87, 0.00, 0.00, 0.00, 0.00, 0.00, 0.00, 0.01, -0.18, 1.01
152, 0.00, 51370.18, 0.00, 0.00, 0.00, 0.00, 0.00, 0.00, 0.01, -0.18, 1.01
153, 0.00, 51304.02, 0.00, 0.00, 0.00, 0.00, 0.00, 0.00, 0.01, -0.19, 1.01
154, 0.00, 51319.02, 0.00, 0.00, 0.00, 0.00, 0.00, 0.00, 0.01, -0.19, 1.01
155, 0.00, 51390.66, 0.00, 0.00, 0.00, 0.00, 0.00, 0.00, 0.01, -0.19, 1.01
156, 0.00, 51379.84, 0.00, 0.00, 0.00, 0.00, 0.00, 0.00, 0.01, -0.19, 1.01
157, 0.00, 51320.05, 0.00, 0.00, 0.00, 0.00, 0.00, 0.00, 0.01, -0.19, 1.01
158, 0.00, 51324.61, 0.00, 0.00, 0.00, 0.00, 0.00, 0.00, 0.01, -0.19, 1.01
159, 0.00, 51385.88, 0.00, 0.00, 0.00, 0.00, 0.00, 0.00, 0.01, -0.19, 1.01
160, 0.00, 51385.95, 0.00, 0.00, 0.00, 0.00, 0.00, 0.00, 0.01, -0.19, 1.01
161, 0.00, 51331.36, 0.00, 0.00, 0.00, 0.00, 0.00, 0.00, 0.01, -0.19, 1.01
162, 0.00, 51318.08, 0.00, 0.00, 0.00, 0.00, 0.00, 0.00, 0.01, -0.19, 1.01
163, 0.00, 51378.81, 0.00, 0.00, 0.00, 0.00, 0.00, 0.00, 0.01, -0.19, 1.01
164, 0.00, 51397.36, 0.00, 0.00, 0.00, 0.00, 0.00, 0.00, 0.01, -0.19, 1.01
165, 0.00, 51353.89, 0.00, 0.00, 0.00, 0.00, 0.00, 0.00, 0.01, -0.19, 1.01
166, 0.00, 51315.07, 0.00, 0.00, 0.00, 0.00, 0.00, 0.00, 0.01, -0.19, 1.01
167, 0.00, 51369.58, 0.00, 0.00, 0.00, 0.00, 0.00, 0.00, 0.01, -0.19, 1.01
168, 0.00, 51408.96, 0.00, 0.00, 0.00, 0.00, 0.00, 0.00, 0.01, -0.19, 1.01
169, 0.00, 51362.27, 0.00, 0.00, 0.00, 0.00, 0.00, 0.00, 0.01, -0.19, 1.01
170, 0.00, 51316.59, 0.00, 0.00, 0.00, 0.00, 0.00, 0.00, 0.01, -0.19, 1.01
171, 0.00, 51341.57, 0.00, 0.00, 0.00, 0.00, 0.00, 0.00, 0.01, -0.19, 1.01
172, 0.00, 51391.71, 0.00, 0.00, 0.00, 0.00, 0.00, 0.00, 0.01, -0.19, 1.01
173, 0.00, 51372.11, 0.00, 0.00, 0.00, 0.00, 0.00, 0.00, 0.01, -0.19, 1.02
174, 0.00, 51321.26, 0.00, 0.00, 0.00, 0.00, 0.00, 0.00, 0.01, -0.19, 1.02
175, 0.00, 51361.45, 0.00, 0.00, 0.00, 0.00, 0.00, 0.00, 0.01, -0.19, 1.02
176, 0.00, 51403.51, 0.00, 0.00, 0.00, 0.00, 0.00, 0.00, 0.01, -0.19, 1.02
177, 0.00, 51375.73, 0.00, 0.00, 0.00, 0.00, 0.00, 0.00, 0.01, -0.19, 1.02
178, 0.00, 51324.16, 0.00, 0.00, 0.00, 0.00, 0.00, 0.00, 0.02, -0.19, 1.02
179, 0.00, 51326.31, 0.00, 0.00, 0.00, 0.00, 0.00, 0.00, 0.02, -0.19, 1.02
180, 0.00, 51381.88, 0.00, 0.00, 0.00, 0.00, 0.00, 0.00, 0.02, -0.19, 1.02
181, 0.00, 51385.90, 0.00, 0.00, 0.00, 0.00, 0.00, 0.00, 0.02, -0.19, 1.02
182, 0.00, 51304.52, 0.00, 0.00, 0.00, 0.00, 0.00, 0.00, 0.02, -0.19, 1.02
183, 0.00, 51322.53, 0.00, 0.00, 0.00, 0.00, 0.00, 0.00, 0.01, -0.18, 1.02
184, 0.00, 51377.56, 0.00, 0.00, 0.00, 0.00, 0.00, 0.00, 0.01, -0.18, 1.02
185, 0.00, 51395.46, 0.00, 0.00, 0.00, 0.00, 0.00, 0.00, 0.01, -0.18, 1.02
186, 0.00, 51346.56, 0.00, 0.00, 0.00, 0.00, 0.00, 0.00, 0.01, -0.18, 1.02
187, 0.00, 51318.87, 0.00, 0.00, 0.00, 0.00, 0.00, 0.00, 0.01, -0.18, 1.02
188, 0.00, 51367.41, 0.00, 0.00, 0.00, 0.00, 0.00, 0.00, 0.01, -0.18, 1.02
189, 0.00, 51403.04, 0.00, 0.00, 0.00, 0.00, 0.00, 0.00, 0.01, -0.18, 1.02
190, 0.00, 51367.35, 0.00, 0.00, 0.00, 0.00, 0.00, 0.00, 0.01, -0.18, 1.02
191, 0.00, 51318.82, 0.00, 0.00, 0.00, 0.00, 0.00, 0.00, 0.01, -0.18, 1.02
192, 0.00, 51349.78, 0.00, 0.00, 0.00, 0.00, 0.00, 0.00, 0.01, -0.18, 1.02
193, 0.00, 51401.59, 0.00, 0.00, 0.00, 0.00, 0.00, 0.00, 0.00, -0.18, 1.02
194, 0.00, 51373.11, 0.00, 0.00, 0.00, 0.00, 0.00, 0.00, 0.00, -0.18, 1.02
195, 0.00, 51332.16, 0.00, 0.00, 0.00, 0.00, 0.00, 0.00, 0.00, -0.18, 1.02
196, 0.00, 51348.08, 0.00, 0.00, 0.00, 0.00, 0.00, 0.00, 0.00, -0.18, 1.02
197, 0.00, 51392.78, 0.00, 0.00, 0.00, 0.00, 0.00, 0.00, 0.00, -0.18, 1.02
198, 0.00, 51371.91, 0.00, 0.00, 0.00, 0.00, 0.00, 0.00, 0.00, -0.19, 1.01
199, 0.00, 51331.85, 0.00, 0.00, 0.00, 0.00, 0.00, 0.00, 0.00, -0.19, 1.01
200, 0.00, 51354.34, 0.00, 0.00, 0.00, 0.00, 0.00, 0.00, 0.00, -0.19, 1.01
201, 0.00, 51395.29, 0.00, 0.00, 0.00, 0.00, 0.00, 0.00, 0.00, -0.19, 1.01
202, 0.00, 51385.12, 0.00, 0.00, 0.00, 0.00, 0.00, 0.00, 0.00, -0.19, 1.01
203, 0.00, 51343.59, 0.00, 0.00, 0.00, 0.00, 0.00, 0.00, 0.01, -0.18, 1.01
204, 0.00, 51341.02, 0.00, 0.00, 0.00, 0.00, 0.00, 0.00, 0.01, -0.18, 1.01
205, 0.00, 51371.75, 0.00, 0.00, 0.00, 0.00, 0.00, 0.00, 0.01, -0.18, 1.01
206, 0.00, 51385.38, 0.00, 0.00, 0.00, 0.00, 0.00, 0.00, 0.01, -0.18, 1.01
207, 0.00, 51350.52, 0.00, 0.00, 0.00, 0.00, 0.00, 0.00, 0.01, -0.18, 1.01
208, 0.00, 51332.48, 0.00, 0.00, 0.00, 0.00, 0.00, 0.00, 0.01, -0.19, 1.01
209, 0.00, 51352.97, 0.00, 0.00, 0.00, 0.00, 0.00, 0.00, 0.01, -0.19, 1.01
210, 0.00, 51369.61, 0.00, 0.00, 0.00, 0.00, 0.00, 0.00, 0.01, -0.19, 1.01
211, 0.00, 51350.94, 0.00, 0.00, 0.00, 0.00, 0.00, 0.00, 0.01, -0.19, 1.01
212, 0.00, 51346.29, 0.00, 0.00, 0.00, 0.00, 0.00, 0.00, 0.01, -0.19, 1.01
213, 0.00, 51367.91, 0.00, 0.00, 0.00, 0.00, 0.00, 0.00, 0.01, -0.19, 1.01
214, 0.00, 51372.31, 0.00, 0.00, 0.00, 0.00, 0.00, 0.00, 0.01, -0.19, 1.01
215, 0.00, 51355.28, 0.00, 0.00, 0.00, 0.00, 0.00, 0.00, 0.01, -0.19, 1.01
216, 0.00, 51339.92, 0.00, 0.00, 0.00, 0.00, 0.00, 0.00, 0.01, -0.19, 1.01
217, 0.00, 51359.10, 0.00, 0.00, 0.00, 0.00, 0.00, 0.00, 0.01, -0.19, 1.01
218, 0.00, 51380.76, 0.00, 0.00, 0.00, 0.00, 0.00, 0.00, 0.01, -0.18, 1.02
219, 0.00, 51361.25, 0.00, 0.00, 0.00, 0.00, 0.00, 0.00, 0.01, -0.18, 1.02
220, 0.00, 51324.77, 0.00, 0.00, 0.00, 0.00, 0.00, 0.00, 0.01, -0.18, 1.02
221, 0.00, 51341.89, 0.00, 0.00, 0.00, 0.00, 0.00, 0.00, 0.01, -0.18, 1.02
222, 0.00, 51374.52, 0.00, 0.00, 0.00, 0.00, 0.00, 0.00, 0.01, -0.18, 1.02
223, 0.00, 51369.58, 0.00, 0.00, 0.00, 0.00, 0.00, 0.00, 0.00, -0.18, 1.01
224, 0.00, 51350.96, 0.00, 0.00, 0.00, 0.00, 0.00, 0.00, 0.00, -0.18, 1.01
225, 0.00, 51354.43, 0.00, 0.00, 0.00, 0.00, 0.00, 0.00, 0.00, -0.18, 1.01
226, 0.00, 51386.68, 0.00, 0.00, 0.00, 0.00, 0.00, 0.00, 0.00, -0.18, 1.01
227, 0.00, 51374.72, 0.00, 0.00, 0.00, 0.00, 0.00, 0.00, 0.00, -0.18, 1.01
228, 0.00, 51341.69, 0.00, 0.00, 0.00, 0.00, 0.00, 0.00, 0.00, -0.18, 1.01
229, 0.00, 51340.73, 0.00, 0.00, 0.00, 0.00, 0.00, 0.00, 0.00, -0.18, 1.01
230, 0.00, 51374.14, 0.00, 0.00, 0.00, 0.00, 0.00, 0.00, 0.00, -0.18, 1.01
231, 0.00, 51396.70, 0.00, 0.00, 0.00, 0.00, 0.00, 0.00, 0.00, -0.18, 1.01
232, 0.00, 51349.69, 0.00, 0.00, 0.00, 0.00, 0.00, 0.00, 0.00, -0.18, 1.01
233, 0.00, 51328.45, 0.00, 0.00, 0.00, 0.00, 0.00, 0.00, -0.00, -0.18, 1.01
234, 0.00, 51358.99, 0.00, 0.00, 0.00, 0.00, 0.00, 0.00, -0.00, -0.18, 1.01
235, 0.00, 51399.69, 0.00, 0.00, 0.00, 0.00, 0.00, 0.00, -0.00, -0.18, 1.01
236, 0.00, 51369.76, 0.00, 0.00, 0.00, 0.00, 0.00, 0.00, -0.00, -0.18, 1.01
237, 0.00, 51345.40, 0.00, 0.00, 0.00, 0.00, 0.00, 0.00, -0.00, -0.18, 1.01
238, 0.00, 51369.40, 0.00, 0.00, 0.00, 0.00, 0.00, 0.00, 0.00, -0.19, 1.01
239, 0.00, 51394.46, 0.00, 0.00, 0.00, 0.00, 0.00, 0.00, 0.00, -0.19, 1.01
240, 0.00, 51370.25, 0.00, 0.00, 0.00, 0.00, 0.00, 0.00, 0.00, -0.19, 1.01
241, 0.00, 51340.43, 0.00, 0.00, 0.00, 0.00, 0.00, 0.00, 0.00, -0.19, 1.01
242, 0.00, 51375.08, 0.00, 0.00, 0.00, 0.00, 0.00, 0.00, 0.00, -0.19, 1.01
243, 0.00, 51406.13, 0.00, 0.00, 0.00, 0.00, 0.00, 0.00, 0.00, -0.18, 1.01
244, 0.00, 51382.10, 0.00, 0.00, 0.00, 0.00, 0.00, 0.00, 0.00, -0.18, 1.01
245, 0.00, 51350.20, 0.00, 0.00, 0.00, 0.00, 0.00, 0.00, 0.00, -0.18, 1.01
246, 0.00, 51360.08, 0.00, 0.00, 0.00, 0.00, 0.00, 0.00, 0.00, -0.18, 1.01
247, 0.00, 51407.58, 0.00, 0.00, 0.00, 0.00, 0.00, 0.00, 0.00, -0.18, 1.01
248, 0.00, 51393.77, 0.00, 0.00, 0.00, 0.00, 0.00, 0.00, 0.00, -0.19, 1.01
249, 0.00, 51345.62, 0.00, 0.00, 0.00, 0.00, 0.00, 0.00, 0.00, -0.19, 1.01
250, 0.00, 51348.39, 0.00, 0.00, 0.00, 0.00, 0.00, 0.00, 0.00, -0.19, 1.01
251, 0.00, 51392.67, 0.00, 0.00, 0.00, 0.00, 0.00, 0.00, 0.00, -0.19, 1.01
252, 0.00, 51392.63, 0.00, 0.00, 0.00, 0.00, 0.00, 0.00, 0.00, -0.19, 1.01
253, 0.00, 51335.52, 0.00, 0.00, 0.00, 0.00, 0.00, 0.00, 0.01, -0.19, 1.01
254, 0.00, 51323.40, 0.00, 0.00, 0.00, 0.00, 0.00, 0.00, 0.01, -0.19, 1.01
255, 0.00, 51379.91, 0.00, 0.00, 0.00, 0.00, 0.00, 0.00, 0.01, -0.19, 1.01
0, 0.00, 51383.33, 0.00, 0.00, 0.00, 0.00, 0.00, 0.00, 0.01, -0.19, 1.01
1, 0.00, 51347.66, 0.00, 0.00, 0.00, 0.00, 0.00, 0.00, 0.01, -0.19, 1.01
2, 0.00, 51328.41, 0.00, 0.00, 0.00, 0.00, 0.00, 0.00, 0.00, -0.19, 1.02
3, 0.00, 51358.99, 0.00, 0.00, 0.00, 0.00, 0.00, 0.00, 0.00, -0.19, 1.02
4, 0.00, 51388.56, 0.00, 0.00, 0.00, 0.00, 0.00, 0.00, 0.00, -0.19, 1.02
5, 0.00, 51359.88, 0.00, 0.00, 0.00, 0.00, 0.00, 0.00, 0.00, -0.19, 1.02
6, 0.00, 51306.21, 0.00, 0.00, 0.00, 0.00, 0.00, 0.00, 0.00, -0.19, 1.02
7, 0.00, 51343.95, 0.00, 0.00, 0.00, 0.00, 0.00, 0.00, 0.00, -0.19, 1.01
8, 0.00, 51396.45, 0.00, 0.00, 0.00, 0.00, 0.00, 0.00, 0.00, -0.19, 1.01
9, 0.00, 51346.40, 0.00, 0.00, 0.00, 0.00, 0.00, 0.00, 0.00, -0.19, 1.01
10, 0.00, 51306.66, 0.00, 0.00, 0.00, 0.00, 0.00, 0.00, 0.00, -0.19, 1.01
11, 0.00, 51335.43, 0.00, 0.00, 0.00, 0.00, 0.00, 0.00, 0.00, -0.19, 1.01
12, 0.00, 51376.27, 0.00, 0.00, 0.00, 0.00, 0.00, 0.00, 0.01, -0.19, 1.01
13, 0.00, 51363.28, 0.00, 0.00, 0.00, 0.00, 0.00, 0.00, 0.01, -0.19, 1.01
14, 0.00, 51286.88, 0.00, 0.00, 0.00, 0.00, 0.00, 0.00, 0.01, -0.19, 1.01
15, 0.00, 51298.17, 0.00, 0.00, 0.00, 0.00, 0.00, 0.00, 0.01, -0.19, 1.01
16, 0.00, 51335.38, 0.00, 0.00, 0.00, 0.00, 0.00, 0.00, 0.01, -0.19, 1.01
17, 0.00, 51299.42, 0.00, 0.00, 0.00, 0.00, 0.00, 0.00, 0.01, -0.18, 1.01
18, 0.00, 51210.24, 0.00, 0.00, 0.00, 0.00, 0.00, 0.00, 0.01, -0.18, 1.01
19, 0.00, 51182.59, 0.00, 0.00, 0.00, 0.00, 0.00, 0.00, 0.01, -0.18, 1.01
20, 0.00, 51215.96, 0.00, 0.00, 0.00, 0.00, 0.00, 0.00, 0.01, -0.18, 1.01
21, 0.00, 51192.91, 0.00, 0.00, 0.00, 0.00, 0.00, 0.00, 0.01, -0.18, 1.01
22, 0.00, 51115.11, 0.00, 0.00, 0.00, 0.00, 0.00, 0.00, 0.01, -0.18, 1.01
23, 0.00, 51072.62, 0.00, 0.00, 0.00, 0.00, 0.00, 0.00, 0.01, -0.18, 1.01
24, 0.00, 51084.89, 0.00, 0.00, 0.00, 0.00, 0.00, 0.00, 0.01, -0.18, 1.01
25, 0.00, 51062.43, 0.00, 0.00, 0.00, 0.00, 0.00, 0.00, 0.01, -0.18, 1.01
26, 0.00, 50989.42, 0.00, 0.00, 0.00, 0.00, 0.00, 0.00, 0.01, -0.18, 1.01
27, 0.00, 50956.68, 0.00, 0.00, 0.00, 0.00, 0.00, 0.00, 0.00, -0.19, 1.01
28, 0.00, 50990.34, 0.00, 0.00, 0.00, 0.00, 0.00, 0.00, 0.00, -0.19, 1.01
29, 0.00, 51001.79, 0.00, 0.00, 0.00, 0.00, 0.00, 0.00, 0.00, -0.19, 1.01
30, 0.00, 50940.70, 0.00, 0.00, 0.00, 0.00, 0.00, 0.00, 0.00, -0.19, 1.01
31, 0.00, 50899.23, 0.00, 0.00, 0.00, 0.00, 0.00, 0.00, 0.00, -0.19, 1.01
32, 0.00, 50933.23, 0.00, 0.00, 0.00, 0.00, 0.00, 0.00, 0.00, -0.19, 1.01
33, 0.00, 50969.75, 0.00, 0.00, 0.00, 0.00, 0.00, 0.00, 0.00, -0.19, 1.01
34, 0.00, 50921.81, 0.00, 0.00, 0.00, 0.00, 0.00, 0.00, 0.00, -0.19, 1.01
35, 0.00, 50878.34, 0.00, 0.00, 0.00, 0.00, 0.00, 0.00, 0.00, -0.19, 1.01
36, 0.00, 50898.12, 0.00, 0.00, 0.00, 0.00, 0.00, 0.00, 0.00, -0.19, 1.01
37, 0.00, 50949.41, 0.00, 0.00, 0.00, 0.00, 0.00, 0.00, 0.00, -0.19, 1.02
38, 0.00, 50913.52, 0.00, 0.00, 0.00, 0.00, 0.00, 0.00, 0.00, -0.19, 1.02
39, 0.00, 50865.50, 0.00, 0.00, 0.00, 0.00, 0.00, 0.00, 0.00, -0.19, 1.02
40, 0.00, 50879.00, 0.00, 0.00, 0.00, 0.00, 0.00, 0.00, 0.00, -0.19, 1.02
41, 0.00, 50935.85, 0.00, 0.00, 0.00, 0.00, 0.00, 0.00, 0.00, -0.19, 1.02
42, 0.00, 50928.47, 0.00, 0.00, 0.00, 0.00, 0.00, 0.00, 0.01, -0.19, 1.02
43, 0.00, 50874.00, 0.00, 0.00, 0.00, 0.00, 0.00, 0.00, 0.01, -0.19, 1.02
44, 0.00, 50883.10, 0.00, 0.00, 0.00, 0.00, 0.00, 0.00, 0.01, -0.19, 1.02
45, 0.00, 50960.97, 0.00, 0.00, 0.00, 0.00, 0.00, 0.00, 0.01, -0.19, 1.02
46, 0.00, 50978.27, 0.00, 0.00, 0.00, 0.00, 0.00, 0.00, 0.01, -0.19, 1.02
47, 0.00, 50917.59, 0.00, 0.00, 0.00, 0.00, 0.00, 0.00, 0.00, -0.18, 1.02
48, 0.00, 50927.06, 0.00, 0.00, 0.00, 0.00, 0.00, 0.00, 0.00, -0.18, 1.02
49, 0.00, 50998.59, 0.00, 0.00, 0.00, 0.00, 0.00, 0.00, 0.00, -0.18, 1.02
50, 0.00, 51043.98, 0.00, 0.00, 0.00, 0.00, 0.00, 0.00, 0.00, -0.18, 1.02
51, 0.00, 51000.24, 0.00, 0.00, 0.00, 0.00, 0.00, 0.00, 0.00, -0.18, 1.02
52, 0.00, 50972.61, 0.00, 0.00, 0.00, 0.00, 0.00, 0.00, 0.01, -0.19, 1.01
53, 0.00, 51040.83, 0.00, 0.00, 0.00, 0.00, 0.00, 0.00, 0.01, -0.19, 1.01
54, 0.00, 51113.72, 0.00, 0.00, 0.00, 0.00, 0.00, 0.00, 0.01, -0.19, 1.01
55, 0.00, 51080.84, 0.00, 0.00, 0.00, 0.00, 0.00, 0.00, 0.01, -0.19, 1.01
56, 0.00, 51048.48, 0.00, 0.00, 0.00, 0.00, 0.00, 0.00, 0.01, -0.19, 1.01
57, 0.00, 51101.36, 0.00, 0.00, 0.00, 0.00, 0.00, 0.00, 0.01, -0.18, 1.01
58, 0.00, 51154.51, 0.00, 0.00, 0.00, 0.00, 0.00, 0.00, 0.01, -0.18, 1.01
59, 0.00, 51143.05, 0.00, 0.00, 0.00, 0.00, 0.00, 0.00, 0.01, -0.18, 1.01
60, 0.00, 51092.31, 0.00, 0.00, 0.00, 0.00, 0.00, 0.00, 0.01, -0.18, 1.01
61, 0.00, 51140.75, 0.00, 0.00, 0.00, 0.00, 0.00, 0.00, 0.01, -0.18, 1.01
62, 0.00, 51204.47, 0.00, 0.00, 0.00, 0.00, 0.00, 0.00, 0.00, -0.18, 1.01
63, 0.00, 51195.17, 0.00, 0.00, 0.00, 0.00, 0.00, 0.00, 0.00, -0.18, 1.01
64, 0.00, 51154.40, 0.00, 0.00, 0.00, 0.00, 0.00, 0.00, 0.00, -0.18, 1.01
65, 0.00, 51173.16, 0.00, 0.00, 0.00, 0.00, 0.00, 0.00, 0.00, -0.18, 1.01
66, 0.00, 51235.83, 0.00, 0.00, 0.00, 0.00, 0.00, 0.00, 0.00, -0.18, 1.01
67, 0.00, 51234.18, 0.00, 0.00, 0.00, 0.00, 0.00, 0.00, 0.00, -0.18, 1.01
68, 0.00, 51176.64, 0.00, 0.00, 0.00, 0.00, 0.00, 0.00, 0.00, -0.18, 1.01
69, 0.00, 51196.40, 0.00, 0.00, 0.00, 0.00, 0.00, 0.00, 0.00, -0.18, 1.01
70, 0.00, 51261.94, 0.00, 0.00, 0.00, 0.00, 0.00, 0.00, 0.00, -0.18, 1.01
71, 0.00, 51287.73, 0.00, 0.00, 0.00, 0.00, 0.00, 0.00, 0.00, -0.18, 1.01
72, 0.00, 51232.72, 0.00, 0.00, 0.00, 0.00, 0.00, 0.00, 0.01, -0.18, 1.01
73, 0.00, 51203.53, 0.00, 0.00, 0.00, 0.00, 0.00, 0.00, 0.01, -0.18, 1.01
74, 0.00, 51252.08, 0.00, 0.00, 0.00, 0.00, 0.00, 0.00, 0.01, -0.18, 1.01
75, 0.00, 51288.73, 0.00, 0.00, 0.00, 0.00, 0.00, 0.00, 0.01, -0.18, 1.01
76, 0.00, 51256.37, 0.00, 0.00, 0.00, 0.00, 0.00, 0.00, 0.01, -0.18, 1.01
77, 0.00, 51233.93, 0.00, 0.00, 0.00, 0.00, 0.00, 0.00, 0.00, -0.19, 1.01
78, 0.00, 51279.06, 0.00, 0.00, 0.00, 0.00, 0.00, 0.00, 0.00, -0.19, 1.01
79, 0.00, 51315.49, 0.00, 0.00, 0.00, 0.00, 0.00, 0.00, 0.00, -0.19, 1.01
80, 0.00, 51269.22, 0.00, 0.00, 0.00, 0.00, 0.00, 0.00, 0.00, -0.19, 1.01
81, 0.00, 51231.07, 0.00, 0.00, 0.00, 0.00, 0.00, 0.00, 0.00, -0.19, 1.01
82, 0.00, 51280.53, 0.00, 0.00, 0.00, 0.00, 0.00, 0.00, 0.00, -0.19, 1.01
83, 0.00, 51326.00, 0.00, 0.00, 0.00, 0.00, 0.00, 0.00, 0.01, -0.18, 1.01
84, 0.00, 51303.38, 0.00, 0.00, 0.00, 0.00, 0.00, 0.00, 0.01, -0.18, 1.01
85, 0.00, 51261.87, 0.00, 0.00, 0.00, 0.00, 0.00, 0.00, 0.01, -0.18, 1.01
86, 0.00, 51290.88, 0.00, 0.00, 0.00, 0.00, 0.00, 0.00, 0.01, -0.18, 1.01
87, 0.00, 51331.76, 0.00, 0.00, 0.00, 0.00, 0.00, 0.00, 0.01, -0.18, 1.01
88, 0.00, 51322.20, 0.00, 0.00, 0.00, 0.00, 0.00, 0.00, 0.00, -0.18, 1.01
89, 0.00, 51261.55, 0.00, 0.00, 0.00, 0.00, 0.00, 0.00, 0.00, -0.18, 1.01
90, 0.00, 51260.80, 0.00, 0.00, 0.00, 0.00, 0.00, 0.00, 0.00, -0.18, 1.01
91, 0.00, 51326.33, 0.00, 0.00, 0.00, 0.00, 0.00, 0.00, 0.00, -0.18, 1.01
92, 0.00, 51339.68, 0.00, 0.00, 0.00, 0.00, 0.00, 0.00, 0.00, -0.18, 1.01
93, 0.00, 51282.48, 0.00, 0.00, 0.00, 0.00, 0.00, 0.00, 0.00, -0.19, 1.02
94, 0.00, 51267.97, 0.00, 0.00, 0.00, 0.00, 0.00, 0.00, 0.00, -0.19, 1.02
95, 0.00, 51325.93, 0.00, 0.00, 0.00, 0.00, 0.00, 0.00, 0.00, -0.19, 1.02
96, 0.00, 51352.66, 0.00, 0.00, 0.00, 0.00, 0.00, 0.00, 0.00, -0.19, 1.02
97, 0.00, 51287.02, 0.00, 0.00, 0.00, 0.00, 0.00, 0.00, 0.00, -0.19, 1.02
98, 0.00, 51259.77, 0.00, 0.00, 0.00, 0.00, 0.00, 0.00, 0.01, -0.18, 1.02
99, 0.00, 51323.43, 0.00, 0.00, 0.00, 0.00, 0.00, 0.00, 0.01, -0.18, 1.02
100, 0.00, 51344.55, 0.00, 0.00, 0.00, 0.00, 0.00, 0.00, 0.01, -0.18, 1.02
101, 0.00, 51298.66, 0.00, 0.00, 0.00, 0.00, 0.00, 0.00, 0.01, -0.18, 1.02
102, 0.00, 51261.20, 0.00, 0.00, 0.00, 0.00, 0.00, 0.00, 0.01, -0.18, 1.02
103, 0.00, 51307.13, 0.00, 0.00, 0.00, 0.00, 0.00, 0.00, 0.01, -0.18, 1.02
104, 0.00, 51347.54, 0.00, 0.00, 0.00, 0.00, 0.00, 0.00, 0.01, -0.18, 1.02
105, 0.00, 51284.80, 0.00, 0.00, 0.00, 0.00, 0.00, 0.00, 0.01, -0.18, 1.02
106, 0.00, 51255.32, 0.00, 0.00, 0.00, 0.00, 0.00, 0.00, 0.01, -0.18, 1.02
107, 0.00, 51319.89, 0.00, 0.00, 0.00, 0.00, 0.00, 0.00, 0.01, -0.18, 1.02
108, 0.00, 51384.67, 0.00, 0.00, 0.00, 0.00, 0.00, 0.00, 0.01, -0.18, 1.02
109, 0.00, 51337.29, 0.00, 0.00, 0.00, 0.00, 0.00, 0.00, 0.01, -0.18, 1.02
110, 0.00, 51253.89, 0.00, 0.00, 0.00, 0.00, 0.00, 0.00, 0.01, -0.18, 1.02
111, 0.00, 51280.78, 0.00, 0.00, 0.00, 0.00, 0.00, 0.00, 0.01, -0.18, 1.02
112, 0.00, 51358.70, 0.00, 0.00, 0.00, 0.00, 0.00, 0.00, 0.01, -0.18, 1.02
113, 0.00, 51351.34, 0.00, 0.00, 0.00, 0.00, 0.00, 0.00, 0.01, -0.19, 1.02
114, 0.00, 51296.16, 0.00, 0.00, 0.00, 0.00, 0.00, 0.00, 0.01, -0.19, 1.02
115, 0.00, 51289.72, 0.00, 0.00, 0.00, 0.00, 0.00, 0.00, 0.01, -0.19, 1.02
116, 0.00, 51360.48, 0.00, 0.00, 0.00, 0.00, 0.00, 0.00, 0.01, -0.19, 1.02
117, 0.00, 51375.97, 0.00, 0.00, 0.00, 0.00, 0.00, 0.00, 0.01, -0.19, 1.02
118, 0.00, 51312.27, 0.00, 0.00, 0.00, 0.00, 0.00, 0.00, 0.01, -0.18, 1.02
119, 0.00, 51290.05, 0.00, 0.00, 0.00, 0.00, 0.00, 0.00, 0.01, -0.18, 1.02
120, 0.00, 51346.11, 0.00, 0.00, 0.00, 0.00, 0.00, 0.00, 0.01, -0.18, 1.02
121, 0.00, 51383.98, 0.00, 0.00, 0.00, 0.00, 0.00, 0.00, 0.01, -0.18, 1.02
122, 0.00, 51338.29, 0.00, 0.00, 0.00, 0.00, 0.00, 0.00, 0.01, -0.18, 1.02
123, 0.00, 51292.45, 0.00, 0.00, 0.00, 0.00, 0.00, 0.00, 0.00, -0.19, 1.02
124, 0.00, 51337.11, 0.00, 0.00, 0.00, 0.00, 0.00, 0.00, 0.00, -0.19, 1.02
125, 0.00, 51376.11, 0.00, 0.00, 0.00, 0.00, 0.00, 0.00, 0.00, -0.19, 1.02
126, 0.00, 51340.70, 0.00, 0.00, 0.00, 0.00, 0.00, 0.00, 0.00, -0.19, 1.02
127, 0.00, 51298.35, 0.00, 0.00, 0.00, 0.00, 0.00, 0.00, 0.00, -0.19, 1.02
128, 0.00, 51335.96, 0.00, 0.00, 0.00, 0.00, 0.00, 0.00, 0.00, -0.19, 1.01
129, 0.00, 51385.23, 0.00, 0.00, 0.00, 0.00, 0.00, 0.00, 0.00, -0.19, 1.01
130, 0.00, 51366.39, 0.00, 0.00, 0.00, 0.00, 0.00, 0.00, 0.00, -0.19, 1.01
131, 0.00, 51306.24, 0.00, 0.00, 0.00, 0.00, 0.00, 0.00, 0.00, -0.19, 1.01
132, 0.00, 51321.01, 0.00, 0.00, 0.00, 0.00, 0.00, 0.00, 0.00, -0.19, 1.01
133, 0.00, 51382.55, 0.00, 0.00, 0.00, 0.00, 0.00, 0.00, 0.00, -0.19, 1.01
134, 0.00, 51369.87, 0.00, 0.00, 0.00, 0.00, 0.00, 0.00, 0.00, -0.19, 1.01
135, 0.00, 51320.90, 0.00, 0.00, 0.00, 0.00, 0.00, 0.00, 0.00, -0.19, 1.01
136, 0.00, 51326.27, 0.00, 0.00, 0.00, 0.00, 0.00, 0.00, 0.00, -0.19, 1.01
137, 0.00, 51379.80, 0.00, 0.00, 0.00, 0.00, 0.00, 0.00, 0.00, -0.19, 1.01
138, 0.00, 51378.19, 0.00, 0.00, 0.00, 0.00, 0.00, 0.00, 0.01, -0.19, 1.01
139, 0.00, 51326.58, 0.00, 0.00, 0.00, 0.00, 0.00, 0.00, 0.01, -0.19, 1.01
140, 0.00, 51325.10, 0.00, 0.00, 0.00, 0.00, 0.00, 0.00, 0.01, -0.19, 1.01
141, 0.00, 51389.43, 0.00, 0.00, 0.00, 0.00, 0.00, 0.00, 0.01, -0.19, 1.01
142, 0.00, 51410.75, 0.00, 0.00, 0.00, 0.00, 0.00, 0.00, 0.01, -0.19, 1.01
143, 0.00, 51347.72, 0.00, 0.00, 0.00, 0.00, 0.00, 0.00, 0.01, -0.19, 1.01
144, 0.00, 51324.83, 0.00, 0.00, 0.00, 0.00, 0.00, 0.00, 0.01, -0.19, 1.01
145, 0.00, 51368.96, 0.00, 0.00, 0.00, 0.00, 0.00, 0.00, 0.01, -0.19, 1.01
146, 0.00, 51400.18, 0.00, 0.00, 0.00, 0.00, 0.00, 0.00, 0.01, -0.19, 1.01
147, 0.00, 51366.36, 0.00, 0.00, 0.00, 0.00, 0.00, 0.00, 0.01, -0.19, 1.01
148, 0.00, 51321.79, 0.00, 0.00, 0.00, 0.00, 0.00, 0.00, 0.00, -0.19, 1.01
149, 0.00, 51380.54, 0.00, 0.00, 0.00, 0.00, 0.00, 0.00, 0.00, -0.19, 1.01
150, 0.00, 51429.20, 0.00, 0.00, 0.00, 0.00, 0.00, 0.00, 0.00, -0.19, 1.01
151, 0.00, 51378.16, 0.00, 0.00, 0.00, 0.00, 0.00, 0.00, 0.00, -0.19, 1.01
152, 0.00, 51326.69, 0.00, 0.00, 0.00, 0.00, 0.00, 0.00, 0.00, -0.19, 1.01
153, 0.00, 51364.42, 0.00, 0.00, 0.00, 0.00, 0.00, 0.00, 0.01, -0.18, 1.01
154, 0.00, 51415.20, 0.00, 0.00, 0.00, 0.00, 0.00, 0.00, 0.01, -0.18, 1.01
155, 0.00, 51392.94, 0.00, 0.00, 0.00, 0.00, 0.00, 0.00, 0.01, -0.18, 1.01
156, 0.00, 51344.82, 0.00, 0.00, 0.00, 0.00, 0.00, 0.00, 0.01, -0.18, 1.01
157, 0.00, 51375.44, 0.00, 0.00, 0.00, 0.00, 0.00, 0.00, 0.01, -0.18, 1.01
158, 0.00, 51426.87, 0.00, 0.00, 0.00, 0.00, 0.00, 0.00, 0.01, -0.18, 1.02
159, 0.00, 51414.46, 0.00, 0.00, 0.00, 0.00, 0.00, 0.00, 0.01, -0.18, 1.02
160, 0.00, 51345.42, 0.00, 0.00, 0.00, 0.00, 0.00, 0.00, 0.01, -0.18, 1.02
161, 0.00, 51352.26, 0.00, 0.00, 0.00, 0.00, 0.00, 0.00, 0.01, -0.18, 1.02
162, 0.00, 51411.45, 0.00, 0.00, 0.00, 0.00, 0.00, 0.00, 0.01, -0.18, 1.02
163, 0.00, 51422.22, 0.00, 0.00, 0.00, 0.00, 0.00, 0.00, 0.01, -0.18, 1.02
164, 0.00, 51359.43, 0.00, 0.00, 0.00, 0.00, 0.00, 0.00, 0.01, -0.18, 1.02
165, 0.00, 51334.40, 0.00, 0.00, 0.00, 0.00, 0.00, 0.00, 0.01, -0.18, 1.02
166, 0.00, 51396.85, 0.00, 0.00, 0.00, 0.00, 0.00, 0.00, 0.01, -0.18, 1.02
167, 0.00, 51439.05, 0.00, 0.00, 0.00, 0.00, 0.00, 0.00, 0.01, -0.18, 1.02
168, 0.00, 51376.00, 0.00, 0.00, 0.00, 0.00, 0.00, 0.00, 0.01, -0.18, 1.02
169, 0.00, 51335.27, 0.00, 0.00, 0.00, 0.00, 0.00, 0.00, 0.01, -0.18, 1.02
170, 0.00, 51394.44, 0.00, 0.00, 0.00, 0.00, 0.00, 0.00, 0.01, -0.18, 1.02
171, 0.00, 51452.24, 0.00, 0.00, 0.00, 0.00, 0.00, 0.00, 0.01, -0.18, 1.02
172, 0.00, 51390.70, 0.00, 0.00, 0.00, 0.00, 0.00, 0.00, 0.01, -0.18, 1.02
173, 0.00, 51338.89, 0.00, 0.00, 0.00, 0.00, 0.00, 0.00, 0.01, -0.18, 1.01
174, 0.00, 51390.93, 0.00, 0.00, 0.00, 0.00, 0.00, 0.00, 0.01, -0.18, 1.01
175, 0.00, 51444.24, 0.00, 0.00, 0.00, 0.00, 0.00, 0.00, 0.01, -0.18, 1.01
176, 0.00, 51411.00, 0.00, 0.00, 0.00, 0.00, 0.00, 0.00, 0.01, -0.18, 1.01
177, 0.00, 51356.21, 0.00, 0.00, 0.00, 0.00, 0.00, 0.00, 0.01, -0.18, 1.01
178, 0.00, 51375.73, 0.00, 0.00, 0.00, 0.00, 0.00, 0.00, 0.00, -0.18, 1.02
179, 0.00, 51437.38, 0.00, 0.00, 0.00, 0.00, 0.00, 0.00, 0.00, -0.18, 1.02
180, 0.00, 51427.09, 0.00, 0.00, 0.00, 0.00, 0.00, 0.00, 0.00, -0.18, 1.02
181, 0.00, 51391.09, 0.00, 0.00, 0.00, 0.00, 0.00, 0.00, 0.00, -0.18, 1.02
182, 0.00, 51388.78, 0.00, 0.00, 0.00, 0.00, 0.00, 0.00, 0.00, -0.18, 1.02
183, 0.00, 51427.38, 0.00, 0.00, 0.00, 0.00, 0.00, 0.00, 0.00, -0.19, 1.02
184, 0.00, 51428.30, 0.00, 0.00, 0.00, 0.00, 0.00, 0.00, 0.00, -0.19, 1.02
185, 0.00, 51372.76, 0.00, 0.00, 0.00, 0.00, 0.00, 0.00, 0.00, -0.19, 1.02
186, 0.00, 51372.87, 0.00, 0.00, 0.00, 0.00, 0.00, 0.00, 0.00, -0.19, 1.02
187, 0.00, 51448.62, 0.00, 0.00, 0.00, 0.00, 0.00, 0.00, 0.00, -0.19, 1.02
188, 0.00, 51468.27, 0.00, 0.00, 0.00, 0.00, 0.00, 0.00, 0.01, -0.19, 1.01
189, 0.00, 51418.31, 0.00, 0.00, 0.00, 0.00, 0.00, 0.00, 0.01, -0.19, 1.01
190, 0.00, 51389.00, 0.00, 0.00, 0.00, 0.00, 0.00, 0.00, 0.01, -0.19, 1.01
191, 0.00, 51444.73, 0.00, 0.00, 0.00, 0.00, 0.00, 0.00, 0.01, -0.19, 1.01
192, 0.00, 51487.55, 0.00, 0.00, 0.00, 0.00, 0.00, 0.00, 0.01, -0.19, 1.01
193, 0.00, 51431.23, 0.00, 0.00, 0.00, 0.00, 0.00, 0.00, 0.00, -0.19, 1.01
194, 0.00, 51401.97, 0.00, 0.00, 0.00, 0.00, 0.00, 0.00, 0.00, -0.19, 1.01
195, 0.00, 51451.05, 0.00, 0.00, 0.00, 0.00, 0.00, 0.00, 0.00, -0.19, 1.01
196, 0.00, 51501.32, 0.00, 0.00, 0.00, 0.00, 0.00, 0.00, 0.00, -0.19, 1.01
197, 0.00, 51462.16, 0.00, 0.00, 0.00, 0.00, 0.00, 0.00, 0.00, -0.19, 1.01
198, 0.00, 51411.85, 0.00, 0.00, 0.00, 0.00, 0.00, 0.00, 0.00, -0.18, 1.02
199, 0.00, 51449.24, 0.00, 0.00, 0.00, 0.00, 0.00, 0.00, 0.00, -0.18, 1.02
200, 0.00, 51493.48, 0.00, 0.00, 0.00, 0.00, 0.00, 0.00, 0.00, -0.18, 1.02
201, 0.00, 51471.73, 0.00, 0.00, 0.00, 0.00, 0.00, 0.00, 0.00, -0.18, 1.02
202, 0.00, 51418.60, 0.00, 0.00, 0.00, 0.00, 0.00, 0.00, 0.00, -0.18, 1.02
203, 0.00, 51444.73, 0.00, 0.00, 0.00, 0.00, 0.00, 0.00, 0.01, -0.18, 1.02
204, 0.00, 51504.92, 0.00, 0.00, 0.00, 0.00, 0.00, 0.00, 0.01, -0.18, 1.02
205, 0.00, 51493.19, 0.00, 0.00, 0.00, 0.00, 0.00, 0.00, 0.01, -0.18, 1.02
206, 0.00, 51431.65, 0.00, 0.00, 0.00, 0.00, 0.00, 0.00, 0.01, -0.18, 1.02
207, 0.00, 51437.57, 0.00, 0.00, 0.00, 0.00, 0.00, 0.00, 0.01, -0.18, 1.02
208, 0.00, 51498.86, 0.00, 0.00, 0.00, 0.00, 0.00, 0.00, 0.01, -0.18, 1.01
209, 0.00, 51500.99, 0.00, 0.00, 0.00, 0.00, 0.00, 0.00, 0.01, -0.18, 1.01
210, 0.00, 51441.18, 0.00, 0.00, 0.00, 0.00, 0.00, 0.00, 0.01, -0.18, 1.01
211, 0.00, 51432.50, 0.00, 0.00, 0.00, 0.00, 0.00, 0.00, 0.01, -0.18, 1.01
212, 0.00, 51487.42, 0.00, 0.00, 0.00, 0.00, 0.00, 0.00, 0.01, -0.18, 1.01
213, 0.00, 51514.42, 0.00, 0.00, 0.00, 0.00, 0.00, 0.00, 0.01, -0.18, 1.01
214, 0.00, 51451.61, 0.00, 0.00, 0.00, 0.00, 0.00, 0.00, 0.01, -0.18, 1.01
215, 0.00, 51423.09, 0.00, 0.00, 0.00, 0.00, 0.00, 0.00, 0.01, -0.18, 1.01
216, 0.00, 51482.12, 0.00, 0.00, 0.00, 0.00, 0.00, 0.00, 0.01, -0.18, 1.01
217, 0.00, 51509.32, 0.00, 0.00, 0.00, 0.00, 0.00, 0.00, 0.01, -0.18, 1.01
218, 0.00, 51461.29, 0.00, 0.00, 0.00, 0.00, 0.00, 0.00, 0.00, -0.18, 1.01
219, 0.00, 51435.68, 0.00, 0.00, 0.00, 0.00, 0.00, 0.00, 0.00, -0.18, 1.01
220, 0.00, 51472.96, 0.00, 0.00, 0.00, 0.00, 0.00, 0.00, 0.00, -0.18, 1.01
221, 0.00, 51512.12, 0.00, 0.00, 0.00, 0.00, 0.00, 0.00, 0.00, -0.18, 1.01
222, 0.00, 51472.94, 0.00, 0.00, 0.00, 0.00, 0.00, 0.00, 0.00, -0.18, 1.01
223, 0.00, 51431.52, 0.00, 0.00, 0.00, 0.00, 0.00, 0.00, 0.00, -0.18, 1.01
224, 0.00, 51466.10, 0.00, 0.00, 0.00, 0.00, 0.00, 0.00, 0.00, -0.18, 1.01
225, 0.00, 51513.48, 0.00, 0.00, 0.00, 0.00, 0.00, 0.00, 0.00, -0.18, 1.01
226, 0.00, 51482.93, 0.00, 0.00, 0.00, 0.00, 0.00, 0.00, 0.00, -0.18, 1.01
227, 0.00, 51421.62, 0.00, 0.00, 0.00, 0.00, 0.00, 0.00, 0.00, -0.18, 1.01
228, 0.00, 51441.53, 0.00, 0.00, 0.00, 0.00, 0.00, 0.00, 0.01, -0.18, 1.01
229, 0.00, 51505.30, 0.00, 0.00, 0.00, 0.00, 0.00, 0.00, 0.01, -0.18, 1.01
230, 0.00, 51490.91, 0.00, 0.00, 0.00, 0.00, 0.00, 0.00, 0.01, -0.18, 1.01
231, 0.00, 51427.99, 0.00, 0.00, 0.00, 0.00, 0.00, 0.00, 0.01, -0.18, 1.01
232, 0.00, 51441.71, 0.00, 0.00, 0.00, 0.00, 0.00, 0.00, 0.01, -0.18, 1.01
233, 0.00, 51501.21, 0.00, 0.00, 0.00, 0.00, 0.00, 0.00, 0.01, -0.18, 1.01
234, 0.00, 51510.93, 0.00, 0.00, 0.00, 0.00, 0.00, 0.00, 0.01, -0.18, 1.01
235, 0.00, 51453.13, 0.00, 0.00, 0.00, 0.00, 0.00, 0.00, 0.01, -0.18, 1.01
236, 0.00, 51431.18, 0.00, 0.00, 0.00, 0.00, 0.00, 0.00, 0.01, -0.18, 1.01
237, 0.00, 51493.70, 0.00, 0.00, 0.00, 0.00, 0.00, 0.00, 0.01, -0.18, 1.01
238, 0.00, 51514.82, 0.00, 0.00, 0.00, 0.00, 0.00, 0.00, 0.01, -0.19, 1.01
239, 0.00, 51459.19, 0.00, 0.00, 0.00, 0.00, 0.00, 0.00, 0.01, -0.19, 1.01
240, 0.00, 51432.86, 0.00, 0.00, 0.00, 0.00, 0.00, 0.00, 0.01, -0.19, 1.01
241, 0.00, 51484.85, 0.00, 0.00, 0.00, 0.00, 0.00, 0.00, 0.01, -0.19, 1.01
242, 0.00, 51521.20, 0.00, 0.00, 0.00, 0.00, 0.00, 0.00, 0.01, -0.19, 1.01
243, 0.00, 51482.21, 0.00, 0.00, 0.00, 0.00, 0.00, 0.00, 0.01, -0.18, 1.01
244, 0.00, 51451.52, 0.00, 0.00, 0.00, 0.00, 0.00, 0.00, 0.01, -0.18, 1.01
245, 0.00, 51486.93, 0.00, 0.00, 0.00, 0.00, 0.00, 0.00, 0.01, -0.18, 1.01
246, 0.00, 51508.66, 0.00, 0.00, 0.00, 0.00, 0.00, 0.00, 0.01, -0.18, 1.01
247, 0.00, 51466.66, 0.00, 0.00, 0.00, 0.00, 0.00, 0.00, 0.01, -0.18, 1.01
248, 0.00, 51398.57, 0.00, 0.00, 0.00, 0.00, 0.00, 0.00, 0.02, -0.18, 1.01
249, 0.00, 51442.29, 0.00, 0.00, 0.00, 0.00, 0.00, 0.00, 0.02, -0.18, 1.01
250, 0.00, 51501.68, 0.00, 0.00, 0.00, 0.00, 0.00, 0.00, 0.02, -0.18, 1.01
251, 0.00, 51475.62, 0.00, 0.00, 0.00, 0.00, 0.00, 0.00, 0.02, -0.18, 1.01
252, 0.00, 51410.84, 0.00, 0.00, 0.00, 0.00, 0.00, 0.00, 0.02, -0.18, 1.01
253, 0.00, 51419.52, 0.00, 0.00, 0.00, 0.00, 0.00, 0.00, 0.01, -0.18, 1.02
254, 0.00, 51484.85, 0.00, 0.00, 0.00, 0.00, 0.00, 0.00, 0.01, -0.18, 1.02
255, 0.00, 51474.14, 0.00, 0.00, 0.00, 0.00, 0.00, 0.00, 0.01, -0.18, 1.02
0, 0.00, 51416.43, 0.00, 0.00, 0.00, 0.00, 0.00, 0.00, 0.01, -0.18, 1.02
1, 0.00, 51412.23, 0.00, 0.00, 0.00, 0.00, 0.00, 0.00, 0.01, -0.18, 1.02
2, 0.00, 51462.16, 0.00, 0.00, 0.00, 0.00, 0.00, 0.00, 0.00, -0.19, 1.01
3, 0.00, 51482.28, 0.00, 0.00, 0.00, 0.00, 0.00, 0.00, 0.00, -0.19, 1.01
4, 0.00, 51416.74, 0.00, 0.00, 0.00, 0.00, 0.00, 0.00, 0.00, -0.19, 1.01
5, 0.00, 51395.00, 0.00, 0.00, 0.00, 0.00, 0.00, 0.00, 0.00, -0.19, 1.01
6, 0.00, 51450.79, 0.00, 0.00, 0.00, 0.00, 0.00, 0.00, 0.00, -0.19, 1.01
7, 0.00, 51469.38, 0.00, 0.00, 0.00, 0.00, 0.00, 0.00, 0.00, -0.19, 1.01
8, 0.00, 51425.53, 0.00, 0.00, 0.00, 0.00, 0.00, 0.00, 0.01, -0.19, 1.01
9, 0.00, 51396.29, 0.00, 0.00, 0.00, 0.00, 0.00, 0.00, 0.01, -0.19, 1.01
10, 0.00, 51441.60, 0.00, 0.00, 0.00, 0.00, 0.00, 0.00, 0.01, -0.19, 1.01
11, 0.00, 51481.54, 0.00, 0.00, 0.00, 0.00, 0.00, 0.00, 0.01, -0.19, 1.01
12, 0.00, 51430.11, 0.00, 0.00, 0.00, 0.00, 0.00, 0.00, 0.01, -0.19, 1.01
13, 0.00, 51389.61, 0.00, 0.00, 0.00, 0.00, 0.00, 0.00, 0.00, -0.18, 1.02
14, 0.00, 51419.25, 0.00, 0.00, 0.00, 0.00, 0.00, 0.00, 0.00, -0.18, 1.02
15, 0.00, 51483.06, 0.00, 0.00, 0.00, 0.00, 0.00, 0.00, 0.00, -0.18, 1.02
16, 0.00, 51461.02, 0.00, 0.00, 0.00, 0.00, 0.00, 0.00, 0.00, -0.18, 1.02
17, 0.00, 51396.85, 0.00, 0.00, 0.00, 0.00, 0.00, 0.00, 0.00, -0.18, 1.02
18, 0.00, 51422.58, 0.00, 0.00, 0.00, 0.00, 0.00, 0.00, 0.01, -0.18, 1.02
19, 0.00, 51481.48, 0.00, 0.00, 0.00, 0.00, 0.00, 0.00, 0.01, -0.18, 1.02
20, 0.00, 51462.23, 0.00, 0.00, 0.00, 0.00, 0.00, 0.00, 0.01, -0.18, 1.02
21, 0.00, 51393.70, 0.00, 0.00, 0.00, 0.00, 0.00, 0.00, 0.01, -0.18, 1.02
22, 0.00, 51395.35, 0.00, 0.00, 0.00, 0.00, 0.00, 0.00, 0.01, -0.18, 1.02
23, 0.00, 51467.21, 0.00, 0.00, 0.00, 0.00, 0.00, 0.00, 0.00, -0.18, 1.01
24, 0.00, 51479.39, 0.00, 0.00, 0.00, 0.00, 0.00, 0.00, 0.00, -0.18, 1.01
25, 0.00, 51428.55, 0.00, 0.00, 0.00, 0.00, 0.00, 0.00, 0.00, -0.18, 1.01
26, 0.00, 51412.77, 0.00, 0.00, 0.00, 0.00, 0.00, 0.00, 0.00, -0.18, 1.01
27, 0.00, 51467.86, 0.00, 0.00, 0.00, 0.00, 0.00, 0.00, 0.00, -0.18, 1.01
28, 0.00, 51497.10, 0.00, 0.00, 0.00, 0.00, 0.00, 0.00, 0.00, -0.18, 1.01
29, 0.00, 51430.76, 0.00, 0.00, 0.00, 0.00, 0.00, 0.00, 0.00, -0.18, 1.01
30, 0.00, 51401.93, 0.00, 0.00, 0.00, 0.00, 0.00, 0.00, 0.00, -0.18, 1.01
31, 0.00, 51458.09, 0.00, 0.00, 0.00, 0.00, 0.00, 0.00, 0.00, -0.18, 1.01
32, 0.00, 51487.91, 0.00, 0.00, 0.00, 0.00, 0.00, 0.00, 0.00, -0.18, 1.01
33, 0.00, 51436.53, 0.00, 0.00, 0.00, 0.00, 0.00, 0.00, 0.01, -0.19, 1.02
34, 0.00, 51404.68, 0.00, 0.00, 0.00, 0.00, 0.00, 0.00, 0.01, -0.19, 1.02
35, 0.00, 51443.84, 0.00, 0.00, 0.00, 0.00, 0.00, 0.00, 0.01, -0.19, 1.02
36, 0.00, 51488.76, 0.00, 0.00, 0.00, 0.00, 0.00, 0.00, 0.01, -0.19, 1.02
37, 0.00, 51450.50, 0.00, 0.00, 0.00, 0.00, 0.00, 0.00, 0.01, -0.19, 1.02
38, 0.00, 51398.46, 0.00, 0.00, 0.00, 0.00, 0.00, 0.00, 0.01, -0.19, 1.02
39, 0.00, 51430.47, 0.00, 0.00, 0.00, 0.00, 0.00, 0.00, 0.01, -0.19, 1.02
40, 0.00, 51486.75, 0.00, 0.00, 0.00, 0.00, 0.00, 0.00, 0.01, -0.19, 1.02
41, 0.00, 51469.88, 0.00, 0.00, 0.00, 0.00, 0.00, 0.00, 0.01, -0.19, 1.02
42, 0.00, 51415.89, 0.00, 0.00, 0.00, 0.00, 0.00, 0.00, 0.01, -0.19, 1.02
43, 0.00, 51423.34, 0.00, 0.00, 0.00, 0.00, 0.00, 0.00, 0.01, -0.18, 1.02
44, 0.00, 51481.90, 0.00, 0.00, 0.00, 0.00, 0.00, 0.00, 0.01, -0.18, 1.02
45, 0.00, 51480.71, 0.00, 0.00, 0.00, 0.00, 0.00, 0.00, 0.01, -0.18, 1.02
46, 0.00, 51421.26, 0.00, 0.00, 0.00, 0.00, 0.00, 0.00, 0.01, -0.18, 1.02
47, 0.00, 51400.79, 0.00, 0.00, 0.00, 0.00, 0.00, 0.00, 0.01, -0.18, 1.02
48, 0.00, 51466.45, 0.00, 0.00, 0.00, 0.00, 0.00, 0.00, 0.01, -0.18, 1.01
49, 0.00, 51485.77, 0.00, 0.00, 0.00, 0.00, 0.00, 0.00, 0.01, -0.18, 1.01
50, 0.00, 51441.11, 0.00, 0.00, 0.00, 0.00, 0.00, 0.00, 0.01, -0.18, 1.01
51, 0.00, 51419.98, 0.00, 0.00, 0.00, 0.00, 0.00, 0.00, 0.01, -0.18, 1.01
52, 0.00, 51470.48, 0.00, 0.00, 0.00, 0.00, 0.00, 0.00, 0.01, -0.18, 1.01
53, 0.00, 51495.82, 0.00, 0.00, 0.00, 0.00, 0.00, 0.00, 0.00, -0.19, 1.01
54, 0.00, 51449.67, 0.00, 0.00, 0.00, 0.00, 0.00, 0.00, 0.00, -0.19, 1.01
55, 0.00, 51417.62, 0.00, 0.00, 0.00, 0.00, 0.00, 0.00, 0.00, -0.19, 1.01
56, 0.00, 51466.75, 0.00, 0.00, 0.00, 0.00, 0.00, 0.00, 0.00, -0.19, 1.01
57, 0.00, 51507.07, 0.00, 0.00, 0.00, 0.00, 0.00, 0.00, 0.00, -0.19, 1.01
58, 0.00, 51458.83, 0.00, 0.00, 0.00, 0.00, 0.00, 0.00, 0.00, -0.18, 1.02
59, 0.00, 51420.63, 0.00, 0.00, 0.00, 0.00, 0.00, 0.00, 0.00, -0.18, 1.02
60, 0.00, 51468.09, 0.00, 0.00, 0.00, 0.00, 0.00, 0.00, 0.00, -0.18, 1.02
61, 0.00, 51513.24, 0.00, 0.00, 0.00, 0.00, 0.00, 0.00, 0.00, -0.18, 1.02
62, 0.00, 51484.27, 0.00, 0.00, 0.00, 0.00, 0.00, 0.00, 0.00, -0.18, 1.02
63, 0.00, 51422.67, 0.00, 0.00, 0.00, 0.00, 0.00, 0.00, 0.00, -0.19, 1.02
64, 0.00, 51450.81, 0.00, 0.00, 0.00, 0.00, 0.00, 0.00, 0.00, -0.19, 1.02
65, 0.00, 51513.01, 0.00, 0.00, 0.00, 0.00, 0.00, 0.00, 0.00, -0.19, 1.02
66, 0.00, 51491.85, 0.00, 0.00, 0.00, 0.00, 0.00, 0.00, 0.00, -0.19, 1.02
67, 0.00, 51435.68, 0.00, 0.00, 0.00, 0.00, 0.00, 0.00, 0.00, -0.19, 1.02
68, 0.00, 51451.01, 0.00, 0.00, 0.00, 0.00, 0.00, 0.00, 0.01, -0.19, 1.02
69, 0.00, 51507.43, 0.00, 0.00, 0.00, 0.00, 0.00, 0.00, 0.01, -0.19, 1.02
70, 0.00, 51503.09, 0.00, 0.00, 0.00, 0.00, 0.00, 0.00, 0.01, -0.19, 1.02
71, 0.00, 51461.61, 0.00, 0.00, 0.00, 0.00, 0.00, 0.00, 0.01, -0.19, 1.02
72, 0.00, 51441.93, 0.00, 0.00, 0.00, 0.00, 0.00, 0.00, 0.01, -0.19, 1.02
73, 0.00, 51476.98, 0.00, 0.00, 0.00, 0.00, 0.00, 0.00, 0.01, -0.19, 1.02
74, 0.00, 51476.63, 0.00, 0.00, 0.00, 0.00, 0.00, 0.00, 0.01, -0.19, 1.02
75, 0.00, 51418.46, 0.00, 0.00, 0.00, 0.00, 0.00, 0.00, 0.01, -0.19, 1.02
76, 0.00, 51381.20, 0.00, 0.00, 0.00, 0.00, 0.00, 0.00, 0.01, -0.19, 1.02
77, 0.00, 51422.89, 0.00, 0.00, 0.00, 0.00, 0.00, 0.00, 0.01, -0.19, 1.02
78, 0.00, 51438.13, 0.00, 0.00, 0.00, 0.00, 0.00, 0.00, 0.01, -0.19, 1.02
79, 0.00, 51396.00, 0.00, 0.00, 0.00, 0.00, 0.00, 0.00, 0.01, -0.19, 1.02
80, 0.00, 51369.43, 0.00, 0.00, 0.00, 0.00, 0.00, 0.00, 0.01, -0.19, 1.02
81, 0.00, 51416.07, 0.00, 0.00, 0.00, 0.00, 0.00, 0.00, 0.01, -0.19, 1.02
82, 0.00, 51454.07, 0.00, 0.00, 0.00, 0.00, 0.00, 0.00, 0.01, -0.19, 1.02
83, 0.00, 51411.94, 0.00, 0.00, 0.00, 0.00, 0.00, 0.00, 0.01, -0.18, 1.01
84, 0.00, 51366.00, 0.00, 0.00, 0.00, 0.00, 0.00, 0.00, 0.01, -0.18, 1.01
85, 0.00, 51401.68, 0.00, 0.00, 0.00, 0.00, 0.00, 0.00, 0.01, -0.18, 1.01
86, 0.00, 51457.20, 0.00, 0.00, 0.00, 0.00, 0.00, 0.00, 0.01, -0.18, 1.01
87, 0.00, 51431.00, 0.00, 0.00, 0.00, 0.00, 0.00, 0.00, 0.01, -0.18, 1.01
88, 0.00, 51378.37, 0.00, 0.00, 0.00, 0.00, 0.00, 0.00, 0.00, -0.18, 1.01
89, 0.00, 51403.42, 0.00, 0.00, 0.00, 0.00, 0.00, 0.00, 0.00, -0.18, 1.01
90, 0.00, 51464.87, 0.00, 0.00, 0.00, 0.00, 0.00, 0.00, 0.00, -0.18, 1.01
91, 0.00, 51455.10, 0.00, 0.00, 0.00, 0.00, 0.00, 0.00, 0.00, -0.18, 1.01
92, 0.00, 51394.79, 0.00, 0.00, 0.00, 0.00, 0.00, 0.00, 0.00, -0.18, 1.01
93, 0.00, 51396.49, 0.00, 0.00, 0.00, 0.00, 0.00, 0.00, -0.00, -0.18, 1.01
94, 0.00, 51465.43, 0.00, 0.00, 0.00, 0.00, 0.00, 0.00, -0.00, -0.18, 1.01
95, 0.00, 51468.20, 0.00, 0.00, 0.00, 0.00, 0.00, 0.00, -0.00, -0.18, 1.01
96, 0.00, 51406.13, 0.00, 0.00, 0.00, 0.00, 0.00, 0.00, -0.00, -0.18, 1.01
97, 0.00, 51385.83, 0.00, 0.00, 0.00, 0.00, 0.00, 0.00, -0.00, -0.18, 1.01
98, 0.00, 51450.05, 0.00, 0.00, 0.00, 0.00, 0.00, 0.00, 0.00, -0.18, 1.01
99, 0.00, 51475.86, 0.00, 0.00, 0.00, 0.00, 0.00, 0.00, 0.00, -0.18, 1.01
100, 0.00, 51415.36, 0.00, 0.00, 0.00, 0.00, 0.00, 0.00, 0.00, -0.18, 1.01
101, 0.00, 51393.27, 0.00, 0.00, 0.00, 0.00, 0.00, 0.00, 0.00, -0.18, 1.01
102, 0.00, 51444.80, 0.00, 0.00, 0.00, 0.00, 0.00, 0.00, 0.00, -0.18, 1.01
103, 0.00, 51473.45, 0.00, 0.00, 0.00, 0.00, 0.00, 0.00, 0.01, -0.18, 1.01
104, 0.00, 51421.95, 0.00, 0.00, 0.00, 0.00, 0.00, 0.00, 0.01, -0.18, 1.01
105, 0.00, 51378.57, 0.00, 0.00, 0.00, 0.00, 0.00, 0.00, 0.01, -0.18, 1.01
106, 0.00, 51428.37, 0.00, 0.00, 0.00, 0.00, 0.00, 0.00, 0.01, -0.18, 1.01
107, 0.00, 51472.29, 0.00, 0.00, 0.00, 0.00, 0.00, 0.00, 0.01, -0.18, 1.01
108, 0.00, 51441.64, 0.00, 0.00, 0.00, 0.00, 0.00, 0.00, 0.01, -0.18, 1.01
109, 0.00, 51382.88, 0.00, 0.00, 0.00, 0.00, 0.00, 0.00, 0.01, -0.18, 1.01
110, 0.00, 51408.88, 0.00, 0.00, 0.00, 0.00, 0.00, 0.00, 0.01, -0.18, 1.01
111, 0.00, 51470.43, 0.00, 0.00, 0.00, 0.00, 0.00, 0.00, 0.01, -0.18, 1.01
112, 0.00, 51453.85, 0.00, 0.00, 0.00, 0.00, 0.00, 0.00, 0.01, -0.18, 1.01
113, 0.00, 51397.72, 0.00, 0.00, 0.00, 0.00, 0.00, 0.00, 0.01, -0.18, 1.01
114, 0.00, 51414.11, 0.00, 0.00, 0.00, 0.00, 0.00, 0.00, 0.01, -0.18, 1.01
115, 0.00, 51465.88, 0.00, 0.00, 0.00, 0.00, 0.00, 0.00, 0.01, -0.18, 1.01
116, 0.00, 51452.13, 0.00, 0.00, 0.00, 0.00, 0.00, 0.00, 0.01, -0.18, 1.01
117, 0.00, 51387.04, 0.00, 0.00, 0.00, 0.00, 0.00, 0.00, 0.01, -0.18, 1.01
118, 0.00, 51378.48, 0.00, 0.00, 0.00, 0.00, 0.00, 0.00, 0.01, -0.18, 1.02
119, 0.00, 51453.67, 0.00, 0.00, 0.00, 0.00, 0.00, 0.00, 0.01, -0.18, 1.02
120, 0.00, 51471.15, 0.00, 0.00, 0.00, 0.00, 0.00, 0.00, 0.01, -0.18, 1.02
121, 0.00, 51410.75, 0.00, 0.00, 0.00, 0.00, 0.00, 0.00, 0.01, -0.18, 1.02
122, 0.00, 51388.69, 0.00, 0.00, 0.00, 0.00, 0.00, 0.00, 0.01, -0.18, 1.02
123, 0.00, 51450.90, 0.00, 0.00, 0.00, 0.00, 0.00, 0.00, 0.01, -0.19, 1.02
124, 0.00, 51477.54, 0.00, 0.00, 0.00, 0.00, 0.00, 0.00, 0.01, -0.19, 1.02
125, 0.00, 51416.86, 0.00, 0.00, 0.00, 0.00, 0.00, 0.00, 0.01, -0.19, 1.02
126, 0.00, 51390.04, 0.00, 0.00, 0.00, 0.00, 0.00, 0.00, 0.01, -0.19, 1.02
127, 0.00, 51434.56, 0.00, 0.00, 0.00, 0.00, 0.00, 0.00, 0.01, -0.19, 1.02
128, 0.00, 51472.11, 0.00, 0.00, 0.00, 0.00, 0.00, 0.00, 0.01, -0.19, 1.02
129, 0.00, 51427.54, 0.00, 0.00, 0.00, 0.00, 0.00, 0.00, 0.01, -0.19, 1.02
130, 0.00, 51377.25, 0.00, 0.00, 0.00, 0.00, 0.00, 0.00, 0.01, -0.19, 1.02
131, 0.00, 51410.35, 0.00, 0.00, 0.00, 0.00, 0.00, 0.00, 0.01, -0.19, 1.02
132, 0.00, 51449.67, 0.00, 0.00, 0.00, 0.00, 0.00, 0.00, 0.01, -0.19, 1.02
133, 0.00, 51418.42, 0.00, 0.00, 0.00, 0.00, 0.00, 0.00, 0.01, -0.18, 1.02
134, 0.00, 51365.20, 0.00, 0.00, 0.00, 0.00, 0.00, 0.00, 0.01, -0.18, 1.02
135, 0.00, 51391.71, 0.00, 0.00, 0.00, 0.00, 0.00, 0.00, 0.01, -0.18, 1.02
136, 0.00, 51449.22, 0.00, 0.00, 0.00, 0.00, 0.00, 0.00, 0.01, -0.18, 1.02
137, 0.00, 51440.37, 0.00, 0.00, 0.00, 0.00, 0.00, 0.00, 0.01, -0.18, 1.02
138, 0.00, 51375.50, 0.00, 0.00, 0.00, 0.00, 0.00, 0.00, 0.01, -0.18, 1.02
139, 0.00, 51377.58, 0.00, 0.00, 0.00, 0.00, 0.00, 0.00, 0.01, -0.18, 1.02
140, 0.00, 51444.57, 0.00, 0.00, 0.00, 0.00, 0.00, 0.00, 0.01, -0.18, 1.02
141, 0.00, 51455.17, 0.00, 0.00, 0.00, 0.00, 0.00, 0.00, 0.01, -0.18, 1.02
142, 0.00, 51389.43, 0.00, 0.00, 0.00, 0.00, 0.00, 0.00, 0.01, -0.18, 1.02
143, 0.00, 51367.79, 0.00, 0.00, 0.00, 0.00, 0.00, 0.00, 0.01, -0.18, 1.02
144, 0.00, 51425.08, 0.00, 0.00, 0.00, 0.00, 0.00, 0.00, 0.01, -0.18, 1.02
145, 0.00, 51451.32, 0.00, 0.00, 0.00, 0.00, 0.00, 0.00, 0.01, -0.18, 1.02
146, 0.00, 51390.53, 0.00, 0.00, 0.00, 0.00, 0.00, 0.00, 0.01, -0.18, 1.02
147, 0.00, 51360.80, 0.00, 0.00, 0.00, 0.00, 0.00, 0.00, 0.01, -0.18, 1.02
148, 0.00, 51428.97, 0.00, 0.00, 0.00, 0.00, 0.00, 0.00, 0.01, -0.18, 1.01
149, 0.00, 51474.99, 0.00, 0.00, 0.00, 0.00, 0.00, 0.00, 0.01, -0.18, 1.01
150, 0.00, 51416.54, 0.00, 0.00, 0.00, 0.00, 0.00, 0.00, 0.01, -0.18, 1.01
151, 0.00, 51364.26, 0.00, 0.00, 0.00, 0.00, 0.00, 0.00, 0.01, -0.18, 1.01
152, 0.00, 51415.89, 0.00, 0.00, 0.00, 0.00, 0.00, 0.00, 0.01, -0.18, 1.01
153, 0.00, 51458.39, 0.00, 0.00, 0.00, 0.00, 0.00, 0.00, 0.01, -0.18, 1.02
154, 0.00, 51421.73, 0.00, 0.00, 0.00, 0.00, 0.00, 0.00, 0.01, -0.18, 1.02
155, 0.00, 51375.46, 0.00, 0.00, 0.00, 0.00, 0.00, 0.00, 0.01, -0.18, 1.02
156, 0.00, 51408.88, 0.00, 0.00, 0.00, 0.00, 0.00, 0.00, 0.01, -0.18, 1.02
157, 0.00, 51465.34, 0.00, 0.00, 0.00, 0.00, 0.00, 0.00, 0.01, -0.18, 1.02
158, 0.00, 51442.72, 0.00, 0.00, 0.00, 0.00, 0.00, 0.00, 0.01, -0.18, 1.02
159, 0.00, 51370.12, 0.00, 0.00, 0.00, 0.00, 0.00, 0.00, 0.01, -0.18, 1.02
160, 0.00, 51389.48, 0.00, 0.00, 0.00, 0.00, 0.00, 0.00, 0.01, -0.18, 1.02
161, 0.00, 51464.53, 0.00, 0.00, 0.00, 0.00, 0.00, 0.00, 0.01, -0.18, 1.02
162, 0.00, 51453.42, 0.00, 0.00, 0.00, 0.00, 0.00, 0.00, 0.01, -0.18, 1.02
163, 0.00, 51381.16, 0.00, 0.00, 0.00, 0.00, 0.00, 0.00, 0.02, -0.18, 1.01
164, 0.00, 51374.81, 0.00, 0.00, 0.00, 0.00, 0.00, 0.00, 0.02, -0.18, 1.01
165, 0.00, 51451.55, 0.00, 0.00, 0.00, 0.00, 0.00, 0.00, 0.02, -0.18, 1.01
166, 0.00, 51464.13, 0.00, 0.00, 0.00, 0.00, 0.00, 0.00, 0.02, -0.18, 1.01
167, 0.00, 51394.97, 0.00, 0.00, 0.00, 0.00, 0.00, 0.00, 0.02, -0.18, 1.01
168, 0.00, 51382.16, 0.00, 0.00, 0.00, 0.00, 0.00, 0.00, 0.01, -0.19, 1.01
169, 0.00, 51442.23, 0.00, 0.00, 0.00, 0.00, 0.00, 0.00, 0.01, -0.19, 1.01
170, 0.00, 51467.86, 0.00, 0.00, 0.00, 0.00, 0.00, 0.00, 0.01, -0.19, 1.01
171, 0.00, 51419.36, 0.00, 0.00, 0.00, 0.00, 0.00, 0.00, 0.01, -0.19, 1.01
172, 0.00, 51387.84, 0.00, 0.00, 0.00, 0.00, 0.00, 0.00, 0.01, -0.19, 1.01
173, 0.00, 51431.68, 0.00, 0.00, 0.00, 0.00, 0.00, 0.00, 0.01, -0.18, 1.01
174, 0.00, 51475.26, 0.00, 0.00, 0.00, 0.00, 0.00, 0.00, 0.01, -0.18, 1.01
175, 0.00, 51429.08, 0.00, 0.00, 0.00, 0.00, 0.00, 0.00, 0.01, -0.18, 1.01
176, 0.00, 51386.32, 0.00, 0.00, 0.00, 0.00, 0.00, 0.00, 0.01, -0.18, 1.01
177, 0.00, 51424.25, 0.00, 0.00, 0.00, 0.00, 0.00, 0.00, 0.01, -0.18, 1.01
178, 0.00, 51465.76, 0.00, 0.00, 0.00, 0.00, 0.00, 0.00, 0.01, -0.18, 1.01
179, 0.00, 51431.83, 0.00, 0.00, 0.00, 0.00, 0.00, 0.00, 0.01, -0.18, 1.01
180, 0.00, 51364.78, 0.00, 0.00, 0.00, 0.00, 0.00, 0.00, 0.01, -0.18, 1.01
181, 0.00, 51394.21, 0.00, 0.00, 0.00, 0.00, 0.00, 0.00, 0.01, -0.18, 1.01
182, 0.00, 51443.79, 0.00, 0.00, 0.00, 0.00, 0.00, 0.00, 0.01, -0.18, 1.01
183, 0.00, 51439.36, 0.00, 0.00, 0.00, 0.00, 0.00, 0.00, 0.01, -0.18, 1.01
184, 0.00, 51389.50, 0.00, 0.00, 0.00, 0.00, 0.00, 0.00, 0.00, -0.18, 1.01
185, 0.00, 51419.25, 0.00, 0.00, 0.00, 0.00, 0.00, 0.00, 0.00, -0.18, 1.01
186, 0.00, 51455.70, 0.00, 0.00, 0.00, 0.00, 0.00, 0.00, 0.00, -0.18, 1.01
187, 0.00, 51433.51, 0.00, 0.00, 0.00, 0.00, 0.00, 0.00, 0.00, -0.18, 1.01
188, 0.00, 51372.40, 0.00, 0.00, 0.00, 0.00, 0.00, 0.00, 0.00, -0.18, 1.01
189, 0.00, 51361.31, 0.00, 0.00, 0.00, 0.00, 0.00, 0.00, 0.00, -0.18, 1.01
190, 0.00, 51421.28, 0.00, 0.00, 0.00, 0.00, 0.00, 0.00, 0.00, -0.18, 1.01
191, 0.00, 51438.89, 0.00, 0.00, 0.00, 0.00, 0.00, 0.00, 0.00, -0.18, 1.01
192, 0.00, 51372.96, 0.00, 0.00, 0.00, 0.00, 0.00, 0.00, 0.00, -0.18, 1.01
193, 0.00, 51345.22, 0.00, 0.00, 0.00, 0.00, 0.00, 0.00, 0.00, -0.18, 1.01
194, 0.00, 51409.03, 0.00, 0.00, 0.00, 0.00, 0.00, 0.00, 0.00, -0.18, 1.01
195, 0.00, 51450.38, 0.00, 0.00, 0.00, 0.00, 0.00, 0.00, 0.00, -0.18, 1.01
196, 0.00, 51393.34, 0.00, 0.00, 0.00, 0.00, 0.00, 0.00, 0.00, -0.18, 1.01
197, 0.00, 51358.18, 0.00, 0.00, 0.00, 0.00, 0.00, 0.00, 0.00, -0.18, 1.01
198, 0.00, 51416.86, 0.00, 0.00, 0.00, 0.00, 0.00, 0.00, 0.00, -0.18, 1.01
199, 0.00, 51449.15, 0.00, 0.00, 0.00, 0.00, 0.00, 0.00, -0.00, -0.18, 1.01
200, 0.00, 51407.04, 0.00, 0.00, 0.00, 0.00, 0.00, 0.00, -0.00, -0.18, 1.01
201, 0.00, 51372.09, 0.00, 0.00, 0.00, 0.00, 0.00, 0.00, -0.00, -0.18, 1.01
202, 0.00, 51425.39, 0.00, 0.00, 0.00, 0.00, 0.00, 0.00, -0.00, -0.18, 1.01
203, 0.00, 51489.36, 0.00, 0.00, 0.00, 0.00, 0.00, 0.00, -0.00, -0.18, 1.01
204, 0.00, 51452.39, 0.00, 0.00, 0.00, 0.00, 0.00, 0.00, 0.00, -0.18, 1.01
205, 0.00, 51387.48, 0.00, 0.00, 0.00, 0.00, 0.00, 0.00, 0.00, -0.18, 1.01
206, 0.00, 51415.49, 0.00, 0.00, 0.00, 0.00, 0.00, 0.00, 0.00, -0.18, 1.01
207, 0.00, 51482.70, 0.00, 0.00, 0.00, 0.00, 0.00, 0.00, 0.00, -0.18, 1.01
208, 0.00, 51466.12, 0.00, 0.00, 0.00, 0.00, 0.00, 0.00, 0.00, -0.18, 1.01
209, 0.00, 51418.91, 0.00, 0.00, 0.00, 0.00, 0.00, 0.00, 0.01, -0.19, 1.01
210, 0.00, 51428.95, 0.00, 0.00, 0.00, 0.00, 0.00, 0.00, 0.01, -0.19, 1.01
211, 0.00, 51485.81, 0.00, 0.00, 0.00, 0.00, 0.00, 0.00, 0.01, -0.19, 1.01
212, 0.00, 51487.06, 0.00, 0.00, 0.00, 0.00, 0.00, 0.00, 0.01, -0.19, 1.01
213, 0.00, 51426.76, 0.00, 0.00, 0.00, 0.00, 0.00, 0.00, 0.01, -0.19, 1.01
214, 0.00, 51421.06, 0.00, 0.00, 0.00, 0.00, 0.00, 0.00, 0.01, -0.18, 1.01
215, 0.00, 51472.40, 0.00, 0.00, 0.00, 0.00, 0.00, 0.00, 0.01, -0.18, 1.01
216, 0.00, 51498.15, 0.00, 0.00, 0.00, 0.00, 0.00, 0.00, 0.01, -0.18, 1.01
217, 0.00, 51439.43, 0.00, 0.00, 0.00, 0.00, 0.00, 0.00, 0.01, -0.18, 1.01
218, 0.00, 51415.31, 0.00, 0.00, 0.00, 0.00, 0.00, 0.00, 0.01, -0.18, 1.01
219, 0.00, 51469.50, 0.00, 0.00, 0.00, 0.00, 0.00, 0.00, 0.00, -0.18, 1.01
220, 0.00, 51497.59, 0.00, 0.00, 0.00, 0.00, 0.00, 0.00, 0.00, -0.18, 1.01
221, 0.00, 51458.21, 0.00, 0.00, 0.00, 0.00, 0.00, 0.00, 0.00, -0.18, 1.01
222, 0.00, 51407.51, 0.00, 0.00, 0.00, 0.00, 0.00, 0.00, 0.00, -0.18, 1.01
223, 0.00, 51448.26, 0.00, 0.00, 0.00, 0.00, 0.00, 0.00, 0.00, -0.18, 1.01
224, 0.00, 51506.91, 0.00, 0.00, 0.00, 0.00, 0.00, 0.00, 0.01, -0.18, 1.02
225, 0.00, 51478.26, 0.00, 0.00, 0.00, 0.00, 0.00, 0.00, 0.01, -0.18, 1.02
226, 0.00, 51417.37, 0.00, 0.00, 0.00, 0.00, 0.00, 0.00, 0.01, -0.18, 1.02
227, 0.00, 51448.35, 0.00, 0.00, 0.00, 0.00, 0.00, 0.00, 0.01, -0.18, 1.02
228, 0.00, 51506.26, 0.00, 0.00, 0.00, 0.00, 0.00, 0.00, 0.01, -0.18, 1.02
229, 0.00, 51489.28, 0.00, 0.00, 0.00, 0.00, 0.00, 0.00, 0.00, -0.18, 1.02
230, 0.00, 51427.81, 0.00, 0.00, 0.00, 0.00, 0.00, 0.00, 0.00, -0.18, 1.02
231, 0.00, 51448.33, 0.00, 0.00, 0.00, 0.00, 0.00, 0.00, 0.00, -0.18, 1.02
232, 0.00, 51509.91, 0.00, 0.00, 0.00, 0.00, 0.00, 0.00, 0.00, -0.18, 1.02
233, 0.00, 51497.64, 0.00, 0.00, 0.00, 0.00, 0.00, 0.00, 0.00, -0.18, 1.02
234, 0.00, 51437.35, 0.00, 0.00, 0.00, 0.00, 0.00, 0.00, 0.01, -0.19, 1.02
235, 0.00, 51439.66, 0.00, 0.00, 0.00, 0.00, 0.00, 0.00, 0.01, -0.19, 1.02
236, 0.00, 51498.62, 0.00, 0.00, 0.00, 0.00, 0.00, 0.00, 0.01, -0.19, 1.02
237, 0.00, 51517.35, 0.00, 0.00, 0.00, 0.00, 0.00, 0.00, 0.01, -0.19, 1.02
238, 0.00, 51446.34, 0.00, 0.00, 0.00, 0.00, 0.00, 0.00, 0.01, -0.19, 1.02
239, 0.00, 51427.20, 0.00, 0.00, 0.00, 0.00, 0.00, 0.00, 0.01, -0.19, 1.01
240, 0.00, 51505.50, 0.00, 0.00, 0.00, 0.00, 0.00, 0.00, 0.01, -0.19, 1.01
241, 0.00, 51523.50, 0.00, 0.00, 0.00, 0.00, 0.00, 0.00, 0.01, -0.19, 1.01
242, 0.00, 51464.80, 0.00, 0.00, 0.00, 0.00, 0.00, 0.00, 0.01, -0.19, 1.01
243, 0.00, 51431.65, 0.00, 0.00, 0.00, 0.00, 0.00, 0.00, 0.01, -0.19, 1.01
244, 0.00, 51494.19, 0.00, 0.00, 0.00, 0.00, 0.00, 0.00, 0.01, -0.19, 1.01
245, 0.00, 51537.80, 0.00, 0.00, 0.00, 0.00, 0.00, 0.00, 0.01, -0.19, 1.01
246, 0.00, 51492.90, 0.00, 0.00, 0.00, 0.00, 0.00, 0.00, 0.01, -0.19, 1.01
247, 0.00, 51443.34, 0.00, 0.00, 0.00, 0.00, 0.00, 0.00, 0.01, -0.19, 1.01
248, 0.00, 51480.40, 0.00, 0.00, 0.00, 0.00, 0.00, 0.00, 0.01, -0.19, 1.01
249, 0.00, 51528.55, 0.00, 0.00, 0.00, 0.00, 0.00, 0.00, 0.01, -0.18, 1.02
250, 0.00, 51491.02, 0.00, 0.00, 0.00, 0.00, 0.00, 0.00, 0.01, -0.18, 1.02
251, 0.00, 51444.68, 0.00, 0.00, 0.00, 0.00, 0.00, 0.00, 0.01, -0.18, 1.02
252, 0.00, 51468.24, 0.00, 0.00, 0.00, 0.00, 0.00, 0.00, 0.01, -0.18, 1.02
253, 0.00, 51521.35, 0.00, 0.00, 0.00, 0.00, 0.00, 0.00, 0.01, -0.18, 1.02
254, 0.00, 51497.32, 0.00, 0.00, 0.00, 0.00, 0.00, 0.00, 0.00, -0.18, 1.02
255, 0.00, 51435.52, 0.00, 0.00, 0.00, 0.00, 0.00, 0.00, 0.00, -0.18, 1.02
0, 0.00, 51436.70, 0.00, 0.00, 0.00, 0.00, 0.00, 0.00, 0.00, -0.18, 1.02
1, 0.00, 51492.00, 0.00, 0.00, 0.00, 0.00, 0.00, 0.00, 0.00, -0.18, 1.02
2, 0.00, 51492.38, 0.00, 0.00, 0.00, 0.00, 0.00, 0.00, 0.00, -0.18, 1.02
3, 0.00, 51427.85, 0.00, 0.00, 0.00, 0.00, 0.00, 0.00, 0.01, -0.18, 1.02
4, 0.00, 51409.99, 0.00, 0.00, 0.00, 0.00, 0.00, 0.00, 0.01, -0.18, 1.02
5, 0.00, 51470.28, 0.00, 0.00, 0.00, 0.00, 0.00, 0.00, 0.01, -0.18, 1.02
6, 0.00, 51491.18, 0.00, 0.00, 0.00, 0.00, 0.00, 0.00, 0.01, -0.18, 1.02
7, 0.00, 51423.61, 0.00, 0.00, 0.00, 0.00, 0.00, 0.00, 0.01, -0.18, 1.02
8, 0.00, 51393.43, 0.00, 0.00, 0.00, 0.00, 0.00, 0.00, 0.01, -0.19, 1.02
9, 0.00, 51466.03, 0.00, 0.00, 0.00, 0.00, 0.00, 0.00, 0.01, -0.19, 1.02
10, 0.00, 51498.82, 0.00, 0.00, 0.00, 0.00, 0.00, 0.00, 0.01, -0.19, 1.02
11, 0.00, 51437.60, 0.00, 0.00, 0.00, 0.00, 0.00, 0.00, 0.01, -0.19, 1.02
12, 0.00, 51393.43, 0.00, 0.00, 0.00, 0.00, 0.00, 0.00, 0.01, -0.19, 1.02
13, 0.00, 51432.34, 0.00, 0.00, 0.00, 0.00, 0.00, 0.00, 0.01, -0.19, 1.01
14, 0.00, 51478.03, 0.00, 0.00, 0.00, 0.00, 0.00, 0.00, 0.01, -0.19, 1.01
15, 0.00, 51437.33, 0.00, 0.00, 0.00, 0.00, 0.00, 0.00, 0.01, -0.19, 1.01
16, 0.00, 51389.68, 0.00, 0.00, 0.00, 0.00, 0.00, 0.00, 0.01, -0.19, 1.01
17, 0.00, 51432.97, 0.00, 0.00, 0.00, 0.00, 0.00, 0.00, 0.01, -0.19, 1.01
18, 0.00, 51476.31, 0.00, 0.00, 0.00, 0.00, 0.00, 0.00, 0.01, -0.18, 1.01
19, 0.00, 51453.60, 0.00, 0.00, 0.00, 0.00, 0.00, 0.00, 0.01, -0.18, 1.01
20, 0.00, 51384.22, 0.00, 0.00, 0.00, 0.00, 0.00, 0.00, 0.01, -0.18, 1.01
21, 0.00, 51402.51, 0.00, 0.00, 0.00, 0.00, 0.00, 0.00, 0.01, -0.18, 1.01
22, 0.00, 51466.19, 0.00, 0.00, 0.00, 0.00, 0.00, 0.00, 0.01, -0.18, 1.01
23, 0.00, 51468.60, 0.00, 0.00, 0.00, 0.00, 0.00, 0.00, 0.01, -0.18, 1.01
24, 0.00, 51398.75, 0.00, 0.00, 0.00, 0.00, 0.00, 0.00, 0.01, -0.18, 1.01
25, 0.00, 51395.29, 0.00, 0.00, 0.00, 0.00, 0.00, 0.00, 0.01, -0.18, 1.01
26, 0.00, 51456.06, 0.00, 0.00, 0.00, 0.00, 0.00, 0.00, 0.01, -0.18, 1.01
27, 0.00, 51471.51, 0.00, 0.00, 0.00, 0.00, 0.00, 0.00, 0.01, -0.18, 1.01
28, 0.00, 51410.44, 0.00, 0.00, 0.00, 0.00, 0.00, 0.00, 0.01, -0.18, 1.01
29, 0.00, 51393.39, 0.00, 0.00, 0.00, 0.00, 0.00, 0.00, 0.01, -0.18, 1.01
30, 0.00, 51470.19, 0.00, 0.00, 0.00, 0.00, 0.00, 0.00, 0.01, -0.18, 1.01
31, 0.00, 51491.82, 0.00, 0.00, 0.00, 0.00, 0.00, 0.00, 0.01, -0.18, 1.01
32, 0.00, 51434.13, 0.00, 0.00, 0.00, 0.00, 0.00, 0.00, 0.01, -0.18, 1.01
33, 0.00, 51411.16, 0.00, 0.00, 0.00, 0.00, 0.00, 0.00, 0.01, -0.18, 1.00
34, 0.00, 51461.18, 0.00, 0.00, 0.00, 0.00, 0.00, 0.00, 0.01, -0.18, 1.00
35, 0.00, 51516.01, 0.00, 0.00, 0.00, 0.00, 0.00, 0.00, 0.01, -0.18, 1.00
36, 0.00, 51460.09, 0.00, 0.00, 0.00, 0.00, 0.00, 0.00, 0.01, -0.18, 1.00
37, 0.00, 51433.26, 0.00, 0.00, 0.00, 0.00, 0.00, 0.00, 0.01, -0.18, 1.00
38, 0.00, 51463.97, 0.00, 0.00, 0.00, 0.00, 0.00, 0.00, 0.01, -0.18, 1.01
39, 0.00, 51509.28, 0.00, 0.00, 0.00, 0.00, 0.00, 0.00, 0.01, -0.18, 1.01
40, 0.00, 51468.20, 0.00, 0.00, 0.00, 0.00, 0.00, 0.00, 0.01, -0.18, 1.01
41, 0.00, 51419.92, 0.00, 0.00, 0.00, 0.00, 0.00, 0.00, 0.01, -0.18, 1.01
42, 0.00, 51450.68, 0.00, 0.00, 0.00, 0.00, 0.00, 0.00, 0.01, -0.18, 1.01
43, 0.00, 51526.49, 0.00, 0.00, 0.00, 0.00, 0.00, 0.00, 0.01, -0.18, 1.01
44, 0.00, 51502.33, 0.00, 0.00, 0.00, 0.00, 0.00, 0.00, 0.01, -0.18, 1.01
45, 0.00, 51445.36, 0.00, 0.00, 0.00, 0.00, 0.00, 0.00, 0.01, -0.18, 1.01
46, 0.00, 51448.80, 0.00, 0.00, 0.00, 0.00, 0.00, 0.00, 0.01, -0.18, 1.01
47, 0.00, 51493.70, 0.00, 0.00, 0.00, 0.00, 0.00, 0.00, 0.01, -0.18, 1.01
48, 0.00, 51497.99, 0.00, 0.00, 0.00, 0.00, 0.00, 0.00, 0.01, -0.18, 1.02
49, 0.00, 51451.43, 0.00, 0.00, 0.00, 0.00, 0.00, 0.00, 0.01, -0.18, 1.02
50, 0.00, 51429.55, 0.00, 0.00, 0.00, 0.00, 0.00, 0.00, 0.01, -0.18, 1.02
51, 0.00, 51501.34, 0.00, 0.00, 0.00, 0.00, 0.00, 0.00, 0.01, -0.18, 1.02
52, 0.00, 51519.05, 0.00, 0.00, 0.00, 0.00, 0.00, 0.00, 0.01, -0.18, 1.02
53, 0.00, 51447.68, 0.00, 0.00, 0.00, 0.00, 0.00, 0.00, 0.01, -0.18, 1.02
54, 0.00, 51444.32, 0.00, 0.00, 0.00, 0.00, 0.00, 0.00, 0.01, -0.18, 1.02
55, 0.00, 51510.44, 0.00, 0.00, 0.00, 0.00, 0.00, 0.00, 0.01, -0.18, 1.02
56, 0.00, 51526.09, 0.00, 0.00, 0.00, 0.00, 0.00, 0.00, 0.01, -0.18, 1.02
57, 0.00, 51475.37, 0.00, 0.00, 0.00, 0.00, 0.00, 0.00, 0.01, -0.18, 1.02
58, 0.00, 51436.64, 0.00, 0.00, 0.00, 0.00, 0.00, 0.00, 0.01, -0.18, 1.02
59, 0.00, 51489.32, 0.00, 0.00, 0.00, 0.00, 0.00, 0.00, 0.01, -0.18, 1.02
60, 0.00, 51550.50, 0.00, 0.00, 0.00, 0.00, 0.00, 0.00, 0.01, -0.18, 1.02
61, 0.00, 51504.52, 0.00, 0.00, 0.00, 0.00, 0.00, 0.00, 0.01, -0.18, 1.02
62, 0.00, 51451.97, 0.00, 0.00, 0.00, 0.00, 0.00, 0.00, 0.01, -0.18, 1.02
63, 0.00, 51484.96, 0.00, 0.00, 0.00, 0.00, 0.00, 0.00, 0.01, -0.19, 1.02
64, 0.00, 51538.16, 0.00, 0.00, 0.00, 0.00, 0.00, 0.00, 0.01, -0.19, 1.02
65, 0.00, 51508.54, 0.00, 0.00, 0.00, 0.00, 0.00, 0.00, 0.01, -0.19, 1.02
66, 0.00, 51453.73, 0.00, 0.00, 0.00, 0.00, 0.00, 0.00, 0.01, -0.19, 1.02
67, 0.00, 51479.91, 0.00, 0.00, 0.00, 0.00, 0.00, 0.00, 0.01, -0.19, 1.02
68, 0.00, 51538.11, 0.00, 0.00, 0.00, 0.00, 0.00, 0.00, 0.00, -0.17, 1.02
69, 0.00, 51521.62, 0.00, 0.00, 0.00, 0.00, 0.00, 0.00, 0.00, -0.17, 1.02
70, 0.00, 51489.01, 0.00, 0.00, 0.00, 0.00, 0.00, 0.00, 0.00, -0.17, 1.02
71, 0.00, 51494.86, 0.00, 0.00, 0.00, 0.00, 0.00, 0.00, 0.00, -0.17, 1.02
72, 0.00, 51546.16, 0.00, 0.00, 0.00, 0.00, 0.00, 0.00, 0.00, -0.17, 1.02
73, 0.00, 51539.77, 0.00, 0.00, 0.00, 0.00, 0.00, 0.00, 0.01, -0.17, 1.01
74, 0.00, 51476.09, 0.00, 0.00, 0.00, 0.00, 0.00, 0.00, 0.01, -0.17, 1.01
75, 0.00, 51468.58, 0.00, 0.00, 0.00, 0.00, 0.00, 0.00, 0.01, -0.17, 1.01
76, 0.00, 51527.14, 0.00, 0.00, 0.00, 0.00, 0.00, 0.00, 0.01, -0.17, 1.01
77, 0.00, 51559.68, 0.00, 0.00, 0.00, 0.00, 0.00, 0.00, 0.01, -0.17, 1.01
78, 0.00, 51498.93, 0.00, 0.00, 0.00, 0.00, 0.00, 0.00, 0.01, -0.18, 1.02
79, 0.00, 51467.08, 0.00, 0.00, 0.00, 0.00, 0.00, 0.00, 0.01, -0.18, 1.02
80, 0.00, 51534.07, 0.00, 0.00, 0.00, 0.00, 0.00, 0.00, 0.01, -0.18, 1.02
81, 0.00, 51568.04, 0.00, 0.00, 0.00, 0.00, 0.00, 0.00, 0.01, -0.18, 1.02
82, 0.00, 51513.86, 0.00, 0.00, 0.00, 0.00, 0.00, 0.00, 0.01, -0.18, 1.02
83, 0.00, 51476.09, 0.00, 0.00, 0.00, 0.00, 0.00, 0.00, 0.01, -0.18, 1.01
84, 0.00, 51531.39, 0.00, 0.00, 0.00, 0.00, 0.00, 0.00, 0.01, -0.18, 1.01
85, 0.00, 51575.78, 0.00, 0.00, 0.00, 0.00, 0.00, 0.00, 0.01, -0.18, 1.01
86, 0.00, 51525.93, 0.00, 0.00, 0.00, 0.00, 0.00, 0.00, 0.01, -0.18, 1.01
87, 0.00, 51473.05, 0.00, 0.00, 0.00, 0.00, 0.00, 0.00, 0.01, -0.18, 1.01
88, 0.00, 51528.50, 0.00, 0.00, 0.00, 0.00, 0.00, 0.00, 0.01, -0.19, 1.01
89, 0.00, 51572.91, 0.00, 0.00, 0.00, 0.00, 0.00, 0.00, 0.01, -0.19, 1.01
90, 0.00, 51544.91, 0.00, 0.00, 0.00, 0.00, 0.00, 0.00, 0.01, -0.19, 1.01
91, 0.00, 51489.72, 0.00, 0.00, 0.00, 0.00, 0.00, 0.00, 0.01, -0.19, 1.01
92, 0.00, 51517.95, 0.00, 0.00, 0.00, 0.00, 0.00, 0.00, 0.01, -0.19, 1.01
93, 0.00, 51580.87, 0.00, 0.00, 0.00, 0.00, 0.00, 0.00, 0.01, -0.19, 1.02
94, 0.00, 51567.35, 0.00, 0.00, 0.00, 0.00, 0.00, 0.00, 0.01, -0.19, 1.02
95, 0.00, 51499.63, 0.00, 0.00, 0.00, 0.00, 0.00, 0.00, 0.01, -0.19, 1.02
96, 0.00, 51495.60, 0.00, 0.00, 0.00, 0.00, 0.00, 0.00, 0.01, -0.19, 1.02
97, 0.00, 51561.72, 0.00, 0.00, 0.00, 0.00, 0.00, 0.00, 0.01, -0.19, 1.02
98, 0.00, 51567.35, 0.00, 0.00, 0.00, 0.00, 0.00, 0.00, 0.01, -0.19, 1.02
99, 0.00, 51502.48, 0.00, 0.00, 0.00, 0.00, 0.00, 0.00, 0.01, -0.19, 1.02
100, 0.00, 51484.89, 0.00, 0.00, 0.00, 0.00, 0.00, 0.00, 0.01, -0.19, 1.02
101, 0.00, 51543.93, 0.00, 0.00, 0.00, 0.00, 0.00, 0.00, 0.01, -0.19, 1.02
102, 0.00, 51572.63, 0.00, 0.00, 0.00, 0.00, 0.00, 0.00, 0.01, -0.19, 1.02
103, 0.00, 51514.93, 0.00, 0.00, 0.00, 0.00, 0.00, 0.00, 0.01, -0.19, 1.02
104, 0.00, 51483.75, 0.00, 0.00, 0.00, 0.00, 0.00, 0.00, 0.01, -0.19, 1.02
105, 0.00, 51537.71, 0.00, 0.00, 0.00, 0.00, 0.00, 0.00, 0.01, -0.19, 1.02
106, 0.00, 51579.53, 0.00, 0.00, 0.00, 0.00, 0.00, 0.00, 0.01, -0.19, 1.02
107, 0.00, 51523.41, 0.00, 0.00, 0.00, 0.00, 0.00, 0.00, 0.01, -0.19, 1.02
108, 0.00, 51472.31, 0.00, 0.00, 0.00, 0.00, 0.00, 0.00, 0.01, -0.19, 1.02
109, 0.00, 51517.71, 0.00, 0.00, 0.00, 0.00, 0.00, 0.00, 0.00, -0.18, 1.02
110, 0.00, 51576.78, 0.00, 0.00, 0.00, 0.00, 0.00, 0.00, 0.00, -0.18, 1.02
111, 0.00, 51534.98, 0.00, 0.00, 0.00, 0.00, 0.00, 0.00, 0.00, -0.18, 1.02
112, 0.00, 51484.27, 0.00, 0.00, 0.00, 0.00, 0.00, 0.00, 0.00, -0.18, 1.02
113, 0.00, 51513.59, 0.00, 0.00, 0.00, 0.00, 0.00, 0.00, 0.00, -0.18, 1.02
114, 0.00, 51565.36, 0.00, 0.00, 0.00, 0.00, 0.00, 0.00, 0.00, -0.18, 1.02
115, 0.00, 51541.64, 0.00, 0.00, 0.00, 0.00, 0.00, 0.00, 0.00, -0.18, 1.02
116, 0.00, 51480.49, 0.00, 0.00, 0.00, 0.00, 0.00, 0.00, 0.00, -0.18, 1.02
117, 0.00, 51491.13, 0.00, 0.00, 0.00, 0.00, 0.00, 0.00, 0.00, -0.18, 1.02
118, 0.00, 51551.64, 0.00, 0.00, 0.00, 0.00, 0.00, 0.00, 0.00, -0.18, 1.02
119, 0.00, 51553.20, 0.00, 0.00, 0.00, 0.00, 0.00, 0.00, 0.00, -0.18, 1.02
120, 0.00, 51489.34, 0.00, 0.00, 0.00, 0.00, 0.00, 0.00, 0.00, -0.18, 1.02
121, 0.00, 51483.13, 0.00, 0.00, 0.00, 0.00, 0.00, 0.00, 0.00, -0.18, 1.02
122, 0.00, 51545.11, 0.00, 0.00, 0.00, 0.00, 0.00, 0.00, 0.00, -0.18, 1.02
123, 0.00, 51561.20, 0.00, 0.00, 0.00, 0.00, 0.00, 0.00, 0.00, -0.18, 1.02
124, 0.00, 51500.34, 0.00, 0.00, 0.00, 0.00, 0.00, 0.00, -0.00, -0.18, 1.01
125, 0.00, 51487.78, 0.00, 0.00, 0.00, 0.00, 0.00, 0.00, -0.00, -0.18, 1.01
126, 0.00, 51538.07, 0.00, 0.00, 0.00, 0.00, 0.00, 0.00, -0.00, -0.18, 1.01
127, 0.00, 51572.36, 0.00, 0.00, 0.00, 0.00, 0.00, 0.00, -0.00, -0.18, 1.01
128, 0.00, 51523.81, 0.00, 0.00, 0.00, 0.00, 0.00, 0.00, -0.00, -0.18, 1.01
129, 0.00, 51489.97, 0.00, 0.00, 0.00, 0.00, 0.00, 0.00, 0.00, -0.18, 1.01
130, 0.00, 51545.04, 0.00, 0.00, 0.00, 0.00, 0.00, 0.00, 0.00, -0.18, 1.01
131, 0.00, 51592.18, 0.00, 0.00, 0.00, 0.00, 0.00, 0.00, 0.00, -0.18, 1.01
132, 0.00, 51529.93, 0.00, 0.00, 0.00, 0.00, 0.00, 0.00, 0.00, -0.18, 1.01
133, 0.00, 51492.81, 0.00, 0.00, 0.00, 0.00, 0.00, 0.00, 0.00, -0.18, 1.01
134, 0.00, 51521.51, 0.00, 0.00, 0.00, 0.00, 0.00, 0.00, 0.00, -0.18, 1.01
135, 0.00, 51577.01, 0.00, 0.00, 0.00, 0.00, 0.00, 0.00, 0.00, -0.18, 1.01
136, 0.00, 51558.50, 0.00, 0.00, 0.00, 0.00, 0.00, 0.00, 0.00, -0.18, 1.01
137, 0.00, 51492.58, 0.00, 0.00, 0.00, 0.00, 0.00, 0.00, 0.00, -0.18, 1.01
138, 0.00, 51508.01, 0.00, 0.00, 0.00, 0.00, 0.00, 0.00, 0.00, -0.18, 1.01
139, 0.00, 51580.61, 0.00, 0.00, 0.00, 0.00, 0.00, 0.00, 0.00, -0.18, 1.01
140, 0.00, 51568.13, 0.00, 0.00, 0.00, 0.00, 0.00, 0.00, 0.00, -0.18, 1.01
141, 0.00, 51497.25, 0.00, 0.00, 0.00, 0.00, 0.00, 0.00, 0.00, -0.18, 1.01
142, 0.00, 51505.86, 0.00, 0.00, 0.00, 0.00, 0.00, 0.00, 0.00, -0.18, 1.01
143, 0.00, 51568.36, 0.00, 0.00, 0.00, 0.00, 0.00, 0.00, 0.00, -0.18, 1.01
144, 0.00, 51576.16, 0.00, 0.00, 0.00, 0.00, 0.00, 0.00, 0.01, -0.18, 1.01
145, 0.00, 51511.80, 0.00, 0.00, 0.00, 0.00, 0.00, 0.00, 0.01, -0.18, 1.01
146, 0.00, 51500.23, 0.00, 0.00, 0.00, 0.00, 0.00, 0.00, 0.01, -0.18, 1.01
147, 0.00, 51557.29, 0.00, 0.00, 0.00, 0.00, 0.00, 0.00, 0.01, -0.18, 1.01
148, 0.00, 51563.26, 0.00, 0.00, 0.00, 0.00, 0.00, 0.00, 0.01, -0.18, 1.01
149, 0.00, 51505.91, 0.00, 0.00, 0.00, 0.00, 0.00, 0.00, 0.02, -0.19, 1.01
150, 0.00, 51483.84, 0.00, 0.00, 0.00, 0.00, 0.00, 0.00, 0.02, -0.19, 1.01
151, 0.00, 51544.82, 0.00, 0.00, 0.00, 0.00, 0.00, 0.00, 0.02, -0.19, 1.01
152, 0.00, 51577.50, 0.00, 0.00, 0.00, 0.00, 0.00, 0.00, 0.02, -0.19, 1.01
153, 0.00, 51515.41, 0.00, 0.00, 0.00, 0.00, 0.00, 0.00, 0.02, -0.19, 1.01
154, 0.00, 51474.64, 0.00, 0.00, 0.00, 0.00, 0.00, 0.00, 0.00, -0.18, 1.01
155, 0.00, 51523.54, 0.00, 0.00, 0.00, 0.00, 0.00, 0.00, 0.00, -0.18, 1.01
156, 0.00, 51552.55, 0.00, 0.00, 0.00, 0.00, 0.00, 0.00, 0.00, -0.18, 1.01
157, 0.00, 51522.51, 0.00, 0.00, 0.00, 0.00, 0.00, 0.00, 0.00, -0.18, 1.01
158, 0.00, 51460.73, 0.00, 0.00, 0.00, 0.00, 0.00, 0.00, 0.00, -0.18, 1.01
159, 0.00, 51491.62, 0.00, 0.00, 0.00, 0.00, 0.00, 0.00, 0.00, -0.19, 1.02
160, 0.00, 51559.86, 0.00, 0.00, 0.00, 0.00, 0.00, 0.00, 0.00, -0.19, 1.02
161, 0.00, 51530.56, 0.00, 0.00, 0.00, 0.00, 0.00, 0.00, 0.00, -0.19, 1.02
162, 0.00, 51426.42, 0.00, 0.00, 0.00, 0.00, 0.00, 0.00, 0.00, -0.19, 1.02
163, 0.00, 51446.32, 0.00, 0.00, 0.00, 0.00, 0.00, 0.00, 0.00, -0.19, 1.02
164, 0.00, 51516.99, 0.00, 0.00, 0.00, 0.00, 0.00, 0.00, 0.01, -0.19, 1.02
165, 0.00, 51513.41, 0.00, 0.00, 0.00, 0.00, 0.00, 0.00, 0.01, -0.19, 1.02
166, 0.00, 51442.05, 0.00, 0.00, 0.00, 0.00, 0.00, 0.00, 0.01, -0.19, 1.02
167, 0.00, 51443.41, 0.00, 0.00, 0.00, 0.00, 0.00, 0.00, 0.01, -0.19, 1.02
168, 0.00, 51504.18, 0.00, 0.00, 0.00, 0.00, 0.00, 0.00, 0.01, -0.19, 1.02
169, 0.00, 51512.45, 0.00, 0.00, 0.00, 0.00, 0.00, 0.00, 0.00, -0.19, 1.02
170, 0.00, 51456.33, 0.00, 0.00, 0.00, 0.00, 0.00, 0.00, 0.00, -0.19, 1.02
171, 0.00, 51438.29, 0.00, 0.00, 0.00, 0.00, 0.00, 0.00, 0.00, -0.19, 1.02
172, 0.00, 51491.82, 0.00, 0.00, 0.00, 0.00, 0.00, 0.00, 0.00, -0.19, 1.02
173, 0.00, 51515.49, 0.00, 0.00, 0.00, 0.00, 0.00, 0.00, 0.00, -0.19, 1.02
174, 0.00, 51453.18, 0.00, 0.00, 0.00, 0.00, 0.00, 0.00, 0.01, -0.19, 1.02
175, 0.00, 51408.90, 0.00, 0.00, 0.00, 0.00, 0.00, 0.00, 0.01, -0.19, 1.02
176, 0.00, 51456.24, 0.00, 0.00, 0.00, 0.00, 0.00, 0.00, 0.01, -0.19, 1.02
177, 0.00, 51498.20, 0.00, 0.00, 0.00, 0.00, 0.00, 0.00, 0.01, -0.19, 1.02
178, 0.00, 51458.05, 0.00, 0.00, 0.00, 0.00, 0.00, 0.00, 0.01, -0.19, 1.02
179, 0.00, 51407.85, 0.00, 0.00, 0.00, 0.00, 0.00, 0.00, 0.00, -0.18, 1.02
180, 0.00, 51460.26, 0.00, 0.00, 0.00, 0.00, 0.00, 0.00, 0.00, -0.18, 1.02
181, 0.00, 51495.13, 0.00, 0.00, 0.00, 0.00, 0.00, 0.00, 0.00, -0.18, 1.02
182, 0.00, 51449.58, 0.00, 0.00, 0.00, 0.00, 0.00, 0.00, 0.00, -0.18, 1.02
183, 0.00, 51385.05, 0.00, 0.00, 0.00, 0.00, 0.00, 0.00, 0.00, -0.18, 1.02
184, 0.00, 51416.92, 0.00, 0.00, 0.00, 0.00, 0.00, 0.00, 0.00, -0.18, 1.02
185, 0.00, 51458.41, 0.00, 0.00, 0.00, 0.00, 0.00, 0.00, 0.00, -0.18, 1.02
186, 0.00, 51451.88, 0.00, 0.00, 0.00, 0.00, 0.00, 0.00, 0.00, -0.18, 1.02
187, 0.00, 51407.96, 0.00, 0.00, 0.00, 0.00, 0.00, 0.00, 0.00, -0.18, 1.02
188, 0.00, 51405.05, 0.00, 0.00, 0.00, 0.00, 0.00, 0.00, 0.00, -0.18, 1.02
189, 0.00, 51462.68, 0.00, 0.00, 0.00, 0.00, 0.00, 0.00, 0.00, -0.18, 1.01
190, 0.00, 51462.41, 0.00, 0.00, 0.00, 0.00, 0.00, 0.00, 0.00, -0.18, 1.01
191, 0.00, 51380.94, 0.00, 0.00, 0.00, 0.00, 0.00, 0.00, 0.00, -0.18, 1.01
192, 0.00, 51383.55, 0.00, 0.00, 0.00, 0.00, 0.00, 0.00, 0.00, -0.18, 1.01
193, 0.00, 51450.27, 0.00, 0.00, 0.00, 0.00, 0.00, 0.00, 0.00, -0.18, 1.01
194, 0.00, 51470.52, 0.00, 0.00, 0.00, 0.00, 0.00, 0.00, 0.01, -0.18, 1.02
195, 0.00, 51408.18, 0.00, 0.00, 0.00, 0.00, 0.00, 0.00, 0.01, -0.18, 1.02
196, 0.00, 51368.35, 0.00, 0.00, 0.00, 0.00, 0.00, 0.00, 0.01, -0.18, 1.02
197, 0.00, 51446.34, 0.00, 0.00, 0.00, 0.00, 0.00, 0.00, 0.01, -0.18, 1.02
198, 0.00, 51465.14, 0.00, 0.00, 0.00, 0.00, 0.00, 0.00, 0.01, -0.18, 1.02
199, 0.00, 51404.61, 0.00, 0.00, 0.00, 0.00, 0.00, 0.00, 0.01, -0.18, 1.02
200, 0.00, 51359.86, 0.00, 0.00, 0.00, 0.00, 0.00, 0.00, 0.01, -0.18, 1.02
201, 0.00, 51403.49, 0.00, 0.00, 0.00, 0.00, 0.00, 0.00, 0.01, -0.18, 1.02
202, 0.00, 51460.84, 0.00, 0.00, 0.00, 0.00, 0.00, 0.00, 0.01, -0.18, 1.02
203, 0.00, 51423.58, 0.00, 0.00, 0.00, 0.00, 0.00, 0.00, 0.01, -0.18, 1.02
204, 0.00, 51360.71, 0.00, 0.00, 0.00, 0.00, 0.00, 0.00, 0.00, -0.18, 1.01
205, 0.00, 51415.14, 0.00, 0.00, 0.00, 0.00, 0.00, 0.00, 0.00, -0.18, 1.01
206, 0.00, 51477.09, 0.00, 0.00, 0.00, 0.00, 0.00, 0.00, 0.00, -0.18, 1.01
207, 0.00, 51434.00, 0.00, 0.00, 0.00, 0.00, 0.00, 0.00, 0.00, -0.18, 1.01
208, 0.00, 51363.05, 0.00, 0.00, 0.00, 0.00, 0.00, 0.00, 0.00, -0.18, 1.01
209, 0.00, 51390.26, 0.00, 0.00, 0.00, 0.00, 0.00, 0.00, 0.01, -0.18, 1.02
210, 0.00, 51445.53, 0.00, 0.00, 0.00, 0.00, 0.00, 0.00, 0.01, -0.18, 1.02
211, 0.00, 51422.11, 0.00, 0.00, 0.00, 0.00, 0.00, 0.00, 0.01, -0.18, 1.02
212, 0.00, 51362.41, 0.00, 0.00, 0.00, 0.00, 0.00, 0.00, 0.01, -0.18, 1.02
213, 0.00, 51371.37, 0.00, 0.00, 0.00, 0.00, 0.00, 0.00, 0.01, -0.18, 1.02
214, 0.00, 51452.30, 0.00, 0.00, 0.00, 0.00, 0.00, 0.00, 0.01, -0.18, 1.02
215, 0.00, 51464.00, 0.00, 0.00, 0.00, 0.00, 0.00, 0.00, 0.01, -0.18, 1.02
216, 0.00, 51394.17, 0.00, 0.00, 0.00, 0.00, 0.00, 0.00, 0.01, -0.18, 1.02
217, 0.00, 51378.19, 0.00, 0.00, 0.00, 0.00, 0.00, 0.00, 0.01, -0.18, 1.02
218, 0.00, 51423.05, 0.00, 0.00, 0.00, 0.00, 0.00, 0.00, 0.01, -0.18, 1.02
219, 0.00, 51438.09, 0.00, 0.00, 0.00, 0.00, 0.00, 0.00, 0.01, -0.18, 1.01
220, 0.00, 51393.61, 0.00, 0.00, 0.00, 0.00, 0.00, 0.00, 0.01, -0.18, 1.01
221, 0.00, 51363.57, 0.00, 0.00, 0.00, 0.00, 0.00, 0.00, 0.01, -0.18, 1.01
222, 0.00, 51408.12, 0.00, 0.00, 0.00, 0.00, 0.00, 0.00, 0.01, -0.18, 1.01
223, 0.00, 51454.09, 0.00, 0.00, 0.00, 0.00, 0.00, 0.00, 0.01, -0.18, 1.01
224, 0.00, 51416.70, 0.00, 0.00, 0.00, 0.00, 0.00, 0.00, 0.01, -0.19, 1.02
225, 0.00, 51359.75, 0.00, 0.00, 0.00, 0.00, 0.00, 0.00, 0.01, -0.19, 1.02
226, 0.00, 51401.10, 0.00, 0.00, 0.00, 0.00, 0.00, 0.00, 0.01, -0.19, 1.02
227, 0.00, 51435.23, 0.00, 0.00, 0.00, 0.00, 0.00, 0.00, 0.01, -0.19, 1.02
228, 0.00, 51390.64, 0.00, 0.00, 0.00, 0.00, 0.00, 0.00, 0.01, -0.19, 1.02
229, 0.00, 51347.97, 0.00, 0.00, 0.00, 0.00, 0.00, 0.00, 0.01, -0.19, 1.02
230, 0.00, 51393.32, 0.00, 0.00, 0.00, 0.00, 0.00, 0.00, 0.01, -0.19, 1.02
231, 0.00, 51443.63, 0.00, 0.00, 0.00, 0.00, 0.00, 0.00, 0.01, -0.19, 1.02
232, 0.00, 51426.40, 0.00, 0.00, 0.00, 0.00, 0.00, 0.00, 0.01, -0.19, 1.02
233, 0.00, 51356.02, 0.00, 0.00, 0.00, 0.00, 0.00, 0.00, 0.01, -0.19, 1.02
234, 0.00, 51378.68, 0.00, 0.00, 0.00, 0.00, 0.00, 0.00, 0.01, -0.19, 1.02
235, 0.00, 51449.42, 0.00, 0.00, 0.00, 0.00, 0.00, 0.00, 0.01, -0.19, 1.02
236, 0.00, 51428.41, 0.00, 0.00, 0.00, 0.00, 0.00, 0.00, 0.01, -0.19, 1.02
237, 0.00, 51372.09, 0.00, 0.00, 0.00, 0.00, 0.00, 0.00, 0.01, -0.19, 1.02
238, 0.00, 51380.89, 0.00, 0.00, 0.00, 0.00, 0.00, 0.00, 0.01, -0.19, 1.02
239, 0.00, 51454.74, 0.00, 0.00, 0.00, 0.00, 0.00, 0.00, 0.00, -0.19, 1.02
240, 0.00, 51451.01, 0.00, 0.00, 0.00, 0.00, 0.00, 0.00, 0.00, -0.19, 1.02
241, 0.00, 51393.95, 0.00, 0.00, 0.00, 0.00, 0.00, 0.00, 0.00, -0.19, 1.02
242, 0.00, 51381.65, 0.00, 0.00, 0.00, 0.00, 0.00, 0.00, 0.00, -0.19, 1.02
243, 0.00, 51438.38, 0.00, 0.00, 0.00, 0.00, 0.00, 0.00, 0.00, -0.19, 1.02
244, 0.00, 51453.38, 0.00, 0.00, 0.00, 0.00, 0.00, 0.00, 0.01, -0.18, 1.02
245, 0.00, 51399.09, 0.00, 0.00, 0.00, 0.00, 0.00, 0.00, 0.01, -0.18, 1.02
246, 0.00, 51357.85, 0.00, 0.00, 0.00, 0.00, 0.00, 0.00, 0.01, -0.18, 1.02
247, 0.00, 51404.50, 0.00, 0.00, 0.00, 0.00, 0.00, 0.00, 0.01, -0.18, 1.02
248, 0.00, 51446.52, 0.00, 0.00, 0.00, 0.00, 0.00, 0.00, 0.01, -0.18, 1.02
249, 0.00, 51408.86, 0.00, 0.00, 0.00, 0.00, 0.00, 0.00, 0.01, -0.18, 1.02
250, 0.00, 51376.96, 0.00, 0.00, 0.00, 0.00, 0.00, 0.00, 0.01, -0.18, 1.02
251, 0.00, 51404.36, 0.00, 0.00, 0.00, 0.00, 0.00, 0.00, 0.01, -0.18, 1.02
252, 0.00, 51450.54, 0.00, 0.00, 0.00, 0.00, 0.00, 0.00, 0.01, -0.18, 1.02
253, 0.00, 51426.51, 0.00, 0.00, 0.00, 0.00, 0.00, 0.00, 0.01, -0.18, 1.02
254, 0.00, 51370.01, 0.00, 0.00, 0.00, 0.00, 0.00, 0.00, 0.01, -0.19, 1.01
255, 0.00, 51388.02, 0.00, 0.00, 0.00, 0.00, 0.00, 0.00, 0.01, -0.19, 1.01
0, 0.00, 51440.21, 0.00, 0.00, 0.00, 0.00, 0.00, 0.00, 0.01, -0.19, 1.01
1, 0.00, 51403.38, 0.00, 0.00, 0.00, 0.00, 0.00, 0.00, 0.01, -0.19, 1.01
2, 0.00, 51354.38, 0.00, 0.00, 0.00, 0.00, 0.00, 0.00, 0.01, -0.19, 1.01
3, 0.00, 51368.40, 0.00, 0.00, 0.00, 0.00, 0.00, 0.00, 0.01, -0.19, 1.01
4, 0.00, 51431.38, 0.00, 0.00, 0.00, 0.00, 0.00, 0.00, 0.01, -0.19, 1.01
5, 0.00, 51418.51, 0.00, 0.00, 0.00, 0.00, 0.00, 0.00, 0.01, -0.19, 1.01
6, 0.00, 51348.23, 0.00, 0.00, 0.00, 0.00, 0.00, 0.00, 0.01, -0.19, 1.01
7, 0.00, 51348.97, 0.00, 0.00, 0.00, 0.00, 0.00, 0.00, 0.01, -0.19, 1.01
8, 0.00, 51421.44, 0.00, 0.00, 0.00, 0.00, 0.00, 0.00, 0.00, -0.18, 1.01
9, 0.00, 51440.35, 0.00, 0.00, 0.00, 0.00, 0.00, 0.00, 0.00, -0.18, 1.01
10, 0.00, 51381.25, 0.00, 0.00, 0.00, 0.00, 0.00, 0.00, 0.00, -0.18, 1.01
11, 0.00, 51368.66, 0.00, 0.00, 0.00, 0.00, 0.00, 0.00, 0.00, -0.18, 1.01
12, 0.00, 51412.90, 0.00, 0.00, 0.00, 0.00, 0.00, 0.00, 0.00, -0.18, 1.01
13, 0.00, 51452.15, 0.00, 0.00, 0.00, 0.00, 0.00, 0.00, 0.00, -0.18, 1.00
14, 0.00, 51395.84, 0.00, 0.00, 0.00, 0.00, 0.00, 0.00, 0.00, -0.18, 1.00
15, 0.00, 51356.28, 0.00, 0.00, 0.00, 0.00, 0.00, 0.00, 0.00, -0.18, 1.00
16, 0.00, 51418.24, 0.00, 0.00, 0.00, 0.00, 0.00, 0.00, 0.00, -0.18, 1.00
17, 0.00, 51457.40, 0.00, 0.00, 0.00, 0.00, 0.00, 0.00, 0.00, -0.18, 1.00
18, 0.00, 51414.42, 0.00, 0.00, 0.00, 0.00, 0.00, 0.00, 0.01, -0.18, 1.01
19, 0.00, 51355.30, 0.00, 0.00, 0.00, 0.00, 0.00, 0.00, 0.01, -0.18, 1.01
20, 0.00, 51389.45, 0.00, 0.00, 0.00, 0.00, 0.00, 0.00, 0.01, -0.18, 1.01
21, 0.00, 51448.17, 0.00, 0.00, 0.00, 0.00, 0.00, 0.00, 0.01, -0.18, 1.01
22, 0.00, 51421.95, 0.00, 0.00, 0.00, 0.00, 0.00, 0.00, 0.01, -0.18, 1.01
23, 0.00, 51362.92, 0.00, 0.00, 0.00, 0.00, 0.00, 0.00, 0.00, -0.19, 1.01
24, 0.00, 51384.51, 0.00, 0.00, 0.00, 0.00, 0.00, 0.00, 0.00, -0.19, 1.01
25, 0.00, 51444.19, 0.00, 0.00, 0.00, 0.00, 0.00, 0.00, 0.00, -0.19, 1.01
26, 0.00, 51435.07, 0.00, 0.00, 0.00, 0.00, 0.00, 0.00, 0.00, -0.19, 1.01
27, 0.00, 51369.63, 0.00, 0.00, 0.00, 0.00, 0.00, 0.00, 0.00, -0.19, 1.01
28, 0.00, 51382.10, 0.00, 0.00, 0.00, 0.00, 0.00, 0.00, 0.01, -0.18, 1.02
29, 0.00, 51451.12, 0.00, 0.00, 0.00, 0.00, 0.00, 0.00, 0.01, -0.18, 1.02
30, 0.00, 51453.04, 0.00, 0.00, 0.00, 0.00, 0.00, 0.00, 0.01, -0.18, 1.02
31, 0.00, 51392.36, 0.00, 0.00, 0.00, 0.00, 0.00, 0.00, 0.01, -0.18, 1.02
32, 0.00, 51373.11, 0.00, 0.00, 0.00, 0.00, 0.00, 0.00, 0.01, -0.18, 1.02
33, 0.00, 51443.34, 0.00, 0.00, 0.00, 0.00, 0.00, 0.00, 0.00, -0.18, 1.02
34, 0.00, 51464.51, 0.00, 0.00, 0.00, 0.00, 0.00, 0.00, 0.00, -0.18, 1.02
35, 0.00, 51409.57, 0.00, 0.00, 0.00, 0.00, 0.00, 0.00, 0.00, -0.18, 1.02
36, 0.00, 51381.12, 0.00, 0.00, 0.00, 0.00, 0.00, 0.00, 0.00, -0.18, 1.02
37, 0.00, 51441.24, 0.00, 0.00, 0.00, 0.00, 0.00, 0.00, 0.00, -0.18, 1.02
38, 0.00, 51486.39, 0.00, 0.00, 0.00, 0.00, 0.00, 0.00, 0.00, -0.18, 1.02
39, 0.00, 51434.29, 0.00, 0.00, 0.00, 0.00, 0.00, 0.00, 0.00, -0.18, 1.01
40, 0.00, 51394.57, 0.00, 0.00, 0.00, 0.00, 0.00, 0.00, 0.00, -0.18, 1.01
41, 0.00, 51445.06, 0.00, 0.00, 0.00, 0.00, 0.00, 0.00, 0.00, -0.18, 1.01
42, 0.00, 51492.16, 0.00, 0.00, 0.00, 0.00, 0.00, 0.00, 0.00, -0.18, 1.01
43, 0.00, 51455.75, 0.00, 0.00, 0.00, 0.00, 0.00, 0.00, 0.00, -0.18, 1.01
44, 0.00, 51413.28, 0.00, 0.00, 0.00, 0.00, 0.00, 0.00, 0.00, -0.18, 1.01
45, 0.00, 51454.52, 0.00, 0.00, 0.00, 0.00, 0.00, 0.00, 0.00, -0.18, 1.01
46, 0.00, 51514.51, 0.00, 0.00, 0.00, 0.00, 0.00, 0.00, 0.00, -0.18, 1.01
47, 0.00, 51482.37, 0.00, 0.00, 0.00, 0.00, 0.00, 0.00, 0.00, -0.18, 1.01
48, 0.00, 51428.19, 0.00, 0.00, 0.00, 0.00, 0.00, 0.00, 0.00, -0.18, 1.01
49, 0.00, 51446.81, 0.00, 0.00, 0.00, 0.00, 0.00, 0.00, 0.01, -0.19, 1.00
50, 0.00, 51509.50, 0.00, 0.00, 0.00, 0.00, 0.00, 0.00, 0.01, -0.19, 1.00
51, 0.00, 51497.77, 0.00, 0.00, 0.00, 0.00, 0.00, 0.00, 0.01, -0.19, 1.00
52, 0.00, 51433.20, 0.00, 0.00, 0.00, 0.00, 0.00, 0.00, 0.01, -0.19, 1.00
53, 0.00, 51440.14, 0.00, 0.00, 0.00, 0.00, 0.00, 0.00, 0.01, -0.19, 1.00
54, 0.00, 51503.40, 0.00, 0.00, 0.00, 0.00, 0.00, 0.00, 0.00, -0.19, 1.01
55, 0.00, 51514.09, 0.00, 0.00, 0.00, 0.00, 0.00, 0.00, 0.00, -0.19, 1.01
56, 0.00, 51457.60, 0.00, 0.00, 0.00, 0.00, 0.00, 0.00, 0.00, -0.19, 1.01
57, 0.00, 51447.32, 0.00, 0.00, 0.00, 0.00, 0.00, 0.00, 0.00, -0.19, 1.01
58, 0.00, 51500.34, 0.00, 0.00, 0.00, 0.00, 0.00, 0.00, 0.00, -0.19, 1.01
59, 0.00, 51522.82, 0.00, 0.00, 0.00, 0.00, 0.00, 0.00, 0.01, -0.20, 1.01
60, 0.00, 51459.32, 0.00, 0.00, 0.00, 0.00, 0.00, 0.00, 0.01, -0.20, 1.01
61, 0.00, 51431.65, 0.00, 0.00, 0.00, 0.00, 0.00, 0.00, 0.01, -0.20, 1.01
62, 0.00, 51488.00, 0.00, 0.00, 0.00, 0.00, 0.00, 0.00, 0.01, -0.20, 1.01
63, 0.00, 51530.13, 0.00, 0.00, 0.00, 0.00, 0.00, 0.00, 0.01, -0.20, 1.01
64, 0.00, 51489.10, 0.00, 0.00, 0.00, 0.00, 0.00, 0.00, 0.02, -0.19, 1.02
65, 0.00, 51442.54, 0.00, 0.00, 0.00, 0.00, 0.00, 0.00, 0.02, -0.19, 1.02
66, 0.00, 51490.57, 0.00, 0.00, 0.00, 0.00, 0.00, 0.00, 0.02, -0.19, 1.02
67, 0.00, 51539.41, 0.00, 0.00, 0.00, 0.00, 0.00, 0.00, 0.02, -0.19, 1.02
68, 0.00, 51500.45, 0.00, 0.00, 0.00, 0.00, 0.00, 0.00, 0.02, -0.19, 1.02
69, 0.00, 51448.66, 0.00, 0.00, 0.00, 0.00, 0.00, 0.00, 0.01, -0.18, 1.02
70, 0.00, 51479.71, 0.00, 0.00, 0.00, 0.00, 0.00, 0.00, 0.01, -0.18, 1.02
71, 0.00, 51543.34, 0.00, 0.00, 0.00, 0.00, 0.00, 0.00, 0.01, -0.18, 1.02
72, 0.00, 51526.56, 0.00, 0.00, 0.00, 0.00, 0.00, 0.00, 0.01, -0.18, 1.02
73, 0.00, 51463.97, 0.00, 0.00, 0.00, 0.00, 0.00, 0.00, 0.01, -0.18, 1.02
74, 0.00, 51474.37, 0.00, 0.00, 0.00, 0.00, 0.00, 0.00, 0.01, -0.18, 1.01
75, 0.00, 51537.67, 0.00, 0.00, 0.00, 0.00, 0.00, 0.00, 0.01, -0.18, 1.01
76, 0.00, 51530.40, 0.00, 0.00, 0.00, 0.00, 0.00, 0.00, 0.01, -0.18, 1.01
77, 0.00, 51470.61, 0.00, 0.00, 0.00, 0.00, 0.00, 0.00, 0.01, -0.18, 1.01
78, 0.00, 51463.86, 0.00, 0.00, 0.00, 0.00, 0.00, 0.00, 0.01, -0.18, 1.01
79, 0.00, 51526.51, 0.00, 0.00, 0.00, 0.00, 0.00, 0.00, 0.01, -0.19, 1.02
80, 0.00, 51553.56, 0.00, 0.00, 0.00, 0.00, 0.00, 0.00, 0.01, -0.19, 1.02
81, 0.00, 51498.66, 0.00, 0.00, 0.00, 0.00, 0.00, 0.00, 0.01, -0.19, 1.02
82, 0.00, 51466.14, 0.00, 0.00, 0.00, 0.00, 0.00, 0.00, 0.01, -0.19, 1.02
83, 0.00, 51520.23, 0.00, 0.00, 0.00, 0.00, 0.00, 0.00, 0.01, -0.19, 1.02
84, 0.00, 51546.12, 0.00, 0.00, 0.00, 0.00, 0.00, 0.00, 0.01, -0.19, 1.02
85, 0.00, 51494.53, 0.00, 0.00, 0.00, 0.00, 0.00, 0.00, 0.01, -0.19, 1.02
86, 0.00, 51468.38, 0.00, 0.00, 0.00, 0.00, 0.00, 0.00, 0.01, -0.19, 1.02
87, 0.00, 51522.22, 0.00, 0.00, 0.00, 0.00, 0.00, 0.00, 0.01, -0.19, 1.02
88, 0.00, 51560.64, 0.00, 0.00, 0.00, 0.00, 0.00, 0.00, 0.01, -0.19, 1.02
89, 0.00, 51518.63, 0.00, 0.00, 0.00, 0.00, 0.00, 0.00, 0.01, -0.19, 1.02
90, 0.00, 51467.59, 0.00, 0.00, 0.00, 0.00, 0.00, 0.00, 0.01, -0.19, 1.02
91, 0.00, 51501.99, 0.00, 0.00, 0.00, 0.00, 0.00, 0.00, 0.01, -0.19, 1.02
92, 0.00, 51559.66, 0.00, 0.00, 0.00, 0.00, 0.00, 0.00, 0.01, -0.19, 1.02
93, 0.00, 51542.00, 0.00, 0.00, 0.00, 0.00, 0.00, 0.00, 0.01, -0.19, 1.02
94, 0.00, 51485.32, 0.00, 0.00, 0.00, 0.00, 0.00, 0.00, 0.01, -0.19, 1.02
95, 0.00, 51508.92, 0.00, 0.00, 0.00, 0.00, 0.00, 0.00, 0.01, -0.19, 1.02
96, 0.00, 51567.06, 0.00, 0.00, 0.00, 0.00, 0.00, 0.00, 0.01, -0.19, 1.02
97, 0.00, 51555.73, 0.00, 0.00, 0.00, 0.00, 0.00, 0.00, 0.01, -0.19, 1.02
98, 0.00, 51495.76, 0.00, 0.00, 0.00, 0.00, 0.00, 0.00, 0.01, -0.19, 1.02
99, 0.00, 51497.34, 0.00, 0.00, 0.00, 0.00, 0.00, 0.00, 0.01, -0.19, 1.01
100, 0.00, 51556.62, 0.00, 0.00, 0.00, 0.00, 0.00, 0.00, 0.01, -0.19, 1.01
101, 0.00, 51562.25, 0.00, 0.00, 0.00, 0.00, 0.00, 0.00, 0.01, -0.19, 1.01
102, 0.00, 51498.04, 0.00, 0.00, 0.00, 0.00, 0.00, 0.00, 0.01, -0.19, 1.01
103, 0.00, 51482.95, 0.00, 0.00, 0.00, 0.00, 0.00, 0.00, 0.01, -0.19, 1.01
104, 0.00, 51550.34, 0.00, 0.00, 0.00, 0.00, 0.00, 0.00, 0.01, -0.18, 1.02
105, 0.00, 51563.66, 0.00, 0.00, 0.00, 0.00, 0.00, 0.00, 0.01, -0.18, 1.02
106, 0.00, 51502.78, 0.00, 0.00, 0.00, 0.00, 0.00, 0.00, 0.01, -0.18, 1.02
107, 0.00, 51475.37, 0.00, 0.00, 0.00, 0.00, 0.00, 0.00, 0.01, -0.18, 1.02
108, 0.00, 51528.66, 0.00, 0.00, 0.00, 0.00, 0.00, 0.00, 0.01, -0.18, 1.02
109, 0.00, 51553.98, 0.00, 0.00, 0.00, 0.00, 0.00, 0.00, 0.01, -0.18, 1.01
110, 0.00, 51513.30, 0.00, 0.00, 0.00, 0.00, 0.00, 0.00, 0.01, -0.18, 1.01
111, 0.00, 51474.93, 0.00, 0.00, 0.00, 0.00, 0.00, 0.00, 0.01, -0.18, 1.01
112, 0.00, 51524.28, 0.00, 0.00, 0.00, 0.00, 0.00, 0.00, 0.01, -0.18, 1.01
113, 0.00, 51567.71, 0.00, 0.00, 0.00, 0.00, 0.00, 0.00, 0.01, -0.18, 1.01
114, 0.00, 51523.00, 0.00, 0.00, 0.00, 0.00, 0.00, 0.00, 0.01, -0.18, 1.01
115, 0.00, 51469.65, 0.00, 0.00, 0.00, 0.00, 0.00, 0.00, 0.01, -0.18, 1.01
116, 0.00, 51507.43, 0.00, 0.00, 0.00, 0.00, 0.00, 0.00, 0.01, -0.18, 1.01
117, 0.00, 51560.49, 0.00, 0.00, 0.00, 0.00, 0.00, 0.00, 0.01, -0.18, 1.01
118, 0.00, 51551.59, 0.00, 0.00, 0.00, 0.00, 0.00, 0.00, 0.01, -0.18, 1.01
119, 0.00, 51494.04, 0.00, 0.00, 0.00, 0.00, 0.00, 0.00, 0.01, -0.18, 1.01
120, 0.00, 51505.37, 0.00, 0.00, 0.00, 0.00, 0.00, 0.00, 0.01, -0.18, 1.01
121, 0.00, 51579.75, 0.00, 0.00, 0.00, 0.00, 0.00, 0.00, 0.01, -0.18, 1.01
122, 0.00, 51574.82, 0.00, 0.00, 0.00, 0.00, 0.00, 0.00, 0.01, -0.18, 1.01
123, 0.00, 51504.03, 0.00, 0.00, 0.00, 0.00, 0.00, 0.00, 0.01, -0.18, 1.01
124, 0.00, 51509.41, 0.00, 0.00, 0.00, 0.00, 0.00, 0.00, 0.01, -0.19, 1.01
125, 0.00, 51574.37, 0.00, 0.00, 0.00, 0.00, 0.00, 0.00, 0.01, -0.19, 1.01
126, 0.00, 51578.55, 0.00, 0.00, 0.00, 0.00, 0.00, 0.00, 0.01, -0.19, 1.01
127, 0.00, 51517.06, 0.00, 0.00, 0.00, 0.00, 0.00, 0.00, 0.01, -0.19, 1.01
128, 0.00, 51501.68, 0.00, 0.00, 0.00, 0.00, 0.00, 0.00, 0.01, -0.19, 1.01
129, 0.00, 51558.43, 0.00, 0.00, 0.00, 0.00, 0.00, 0.00, 0.00, -0.19, 1.01
130, 0.00, 51584.83, 0.00, 0.00, 0.00, 0.00, 0.00, 0.00, 0.00, -0.19, 1.01
131, 0.00, 51538.52, 0.00, 0.00, 0.00, 0.00, 0.00, 0.00, 0.00, -0.19, 1.01
132, 0.00, 51497.16, 0.00, 0.00, 0.00, 0.00, 0.00, 0.00, 0.00, -0.19, 1.01
133, 0.00, 51538.94, 0.00, 0.00, 0.00, 0.00, 0.00, 0.00, 0.00, -0.19, 1.01
134, 0.00, 51584.45, 0.00, 0.00, 0.00, 0.00, 0.00, 0.00, 0.01, -0.18, 1.02
135, 0.00, 51536.53, 0.00, 0.00, 0.00, 0.00, 0.00, 0.00, 0.01, -0.18, 1.02
136, 0.00, 51480.56, 0.00, 0.00, 0.00, 0.00, 0.00, 0.00, 0.01, -0.18, 1.02
137, 0.00, 51524.99, 0.00, 0.00, 0.00, 0.00, 0.00, 0.00, 0.01, -0.18, 1.02
138, 0.00, 51574.82, 0.00, 0.00, 0.00, 0.00, 0.00, 0.00, 0.01, -0.18, 1.02
139, 0.00, 51542.09, 0.00, 0.00, 0.00, 0.00, 0.00, 0.00, 0.01, -0.18, 1.01
140, 0.00, 51482.46, 0.00, 0.00, 0.00, 0.00, 0.00, 0.00, 0.01, -0.18, 1.01
141, 0.00, 51509.06, 0.00, 0.00, 0.00, 0.00, 0.00, 0.00, 0.01, -0.18, 1.01
142, 0.00, 51561.96, 0.00, 0.00, 0.00, 0.00, 0.00, 0.00, 0.01, -0.18, 1.01
143, 0.00, 51537.85, 0.00, 0.00, 0.00, 0.00, 0.00, 0.00, 0.01, -0.18, 1.01
144, 0.00, 51482.12, 0.00, 0.00, 0.00, 0.00, 0.00, 0.00, 0.00, -0.18, 1.01
145, 0.00, 51518.13, 0.00, 0.00, 0.00, 0.00, 0.00, 0.00, 0.00, -0.18, 1.01
146, 0.00, 51571.13, 0.00, 0.00, 0.00, 0.00, 0.00, 0.00, 0.00, -0.18, 1.01
147, 0.00, 51554.54, 0.00, 0.00, 0.00, 0.00, 0.00, 0.00, 0.00, -0.18, 1.01
148, 0.00, 51491.62, 0.00, 0.00, 0.00, 0.00, 0.00, 0.00, 0.00, -0.18, 1.01
149, 0.00, 51483.62, 0.00, 0.00, 0.00, 0.00, 0.00, 0.00, 0.01, -0.18, 1.01
150, 0.00, 51536.97, 0.00, 0.00, 0.00, 0.00, 0.00, 0.00, 0.01, -0.18, 1.01
151, 0.00, 51549.00, 0.00, 0.00, 0.00, 0.00, 0.00, 0.00, 0.01, -0.18, 1.01
152, 0.00, 51487.78, 0.00, 0.00, 0.00, 0.00, 0.00, 0.00, 0.01, -0.18, 1.01
153, 0.00, 51464.91, 0.00, 0.00, 0.00, 0.00, 0.00, 0.00, 0.01, -0.18, 1.01
154, 0.00, 51518.02, 0.00, 0.00, 0.00, 0.00, 0.00, 0.00, 0.01, -0.18, 1.01
155, 0.00, 51544.77, 0.00, 0.00, 0.00, 0.00, 0.00, 0.00, 0.01, -0.18, 1.01
156, 0.00, 51493.12, 0.00, 0.00, 0.00, 0.00, 0.00, 0.00, 0.01, -0.18, 1.01
157, 0.00, 51449.13, 0.00, 0.00, 0.00, 0.00, 0.00, 0.00, 0.01, -0.18, 1.01
158, 0.00, 51495.38, 0.00, 0.00, 0.00, 0.00, 0.00, 0.00, 0.01, -0.18, 1.01
159, 0.00, 51536.82, 0.00, 0.00, 0.00, 0.00, 0.00, 0.00, 0.00, -0.18, 1.01
160, 0.00, 51498.26, 0.00, 0.00, 0.00, 0.00, 0.00, 0.00, 0.00, -0.18, 1.01
161, 0.00, 51445.55, 0.00, 0.00, 0.00, 0.00, 0.00, 0.00, 0.00, -0.18, 1.01
162, 0.00, 51475.75, 0.00, 0.00, 0.00, 0.00, 0.00, 0.00, 0.00, -0.18, 1.01
163, 0.00, 51525.51, 0.00, 0.00, 0.00, 0.00, 0.00, 0.00, 0.00, -0.18, 1.01
164, 0.00, 51509.55, 0.00, 0.00, 0.00, 0.00, 0.00, 0.00, 0.01, -0.18, 1.01
165, 0.00, 51458.61, 0.00, 0.00, 0.00, 0.00, 0.00, 0.00, 0.01, -0.18, 1.01
166, 0.00, 51481.79, 0.00, 0.00, 0.00, 0.00, 0.00, 0.00, 0.01, -0.18, 1.01
167, 0.00, 51537.82, 0.00, 0.00, 0.00, 0.00, 0.00, 0.00, 0.01, -0.18, 1.01
168, 0.00, 51523.92, 0.00, 0.00, 0.00, 0.00, 0.00, 0.00, 0.01, -0.18, 1.01
169, 0.00, 51465.27, 0.00, 0.00, 0.00, 0.00, 0.00, 0.00, 0.01, -0.18, 1.01
170, 0.00, 51470.48, 0.00, 0.00, 0.00, 0.00, 0.00, 0.00, 0.01, -0.18, 1.01
171, 0.00, 51545.42, 0.00, 0.00, 0.00, 0.00, 0.00, 0.00, 0.01, -0.18, 1.01
172, 0.00, 51549.74, 0.00, 0.00, 0.00, 0.00, 0.00, 0.00, 0.01, -0.18, 1.01
173, 0.00, 51484.70, 0.00, 0.00, 0.00, 0.00, 0.00, 0.00, 0.01, -0.18, 1.01
174, 0.00, 51473.72, 0.00, 0.00, 0.00, 0.00, 0.00, 0.00, 0.01, -0.19, 1.01
175, 0.00, 51528.59, 0.00, 0.00, 0.00, 0.00, 0.00, 0.00, 0.01, -0.19, 1.01
176, 0.00, 51547.32, 0.00, 0.00, 0.00, 0.00, 0.00, 0.00, 0.01, -0.19, 1.01
177, 0.00, 51486.37, 0.00, 0.00, 0.00, 0.00, 0.00, 0.00, 0.01, -0.19, 1.01
178, 0.00, 51463.71, 0.00, 0.00, 0.00, 0.00, 0.00, 0.00, 0.01, -0.19, 1.01
179, 0.00, 51518.60, 0.00, 0.00, 0.00, 0.00, 0.00, 0.00, 0.01, -0.18, 1.02
180, 0.00, 51550.72, 0.00, 0.00, 0.00, 0.00, 0.00, 0.00, 0.01, -0.18, 1.02
181, 0.00, 51503.69, 0.00, 0.00, 0.00, 0.00, 0.00, 0.00, 0.01, -0.18, 1.02
182, 0.00, 51451.25, 0.00, 0.00, 0.00, 0.00, 0.00, 0.00, 0.01, -0.18, 1.02
183, 0.00, 51485.25, 0.00, 0.00, 0.00, 0.00, 0.00, 0.00, 0.01, -0.18, 1.02
184, 0.00, 51537.45, 0.00, 0.00, 0.00, 0.00, 0.00, 0.00, 0.01, -0.18, 1.02
185, 0.00, 51491.69, 0.00, 0.00, 0.00, 0.00, 0.00, 0.00, 0.01, -0.18, 1.02
186, 0.00, 51419.05, 0.00, 0.00, 0.00, 0.00, 0.00, 0.00, 0.01, -0.18, 1.02
187, 0.00, 51450.16, 0.00, 0.00, 0.00, 0.00, 0.00, 0.00, 0.01, -0.18, 1.02
188, 0.00, 51512.57, 0.00, 0.00, 0.00, 0.00, 0.00, 0.00, 0.01, -0.18, 1.02
189, 0.00, 51484.20, 0.00, 0.00, 0.00, 0.00, 0.00, 0.00, 0.01, -0.18, 1.02
190, 0.00, 51424.14, 0.00, 0.00, 0.00, 0.00, 0.00, 0.00, 0.01, -0.18, 1.02
191, 0.00, 51430.49, 0.00, 0.00, 0.00, 0.00, 0.00, 0.00, 0.01, -0.18, 1.02
192, 0.00, 51487.75, 0.00, 0.00, 0.00, 0.00, 0.00, 0.00, 0.01, -0.18, 1.02
193, 0.00, 51473.29, 0.00, 0.00, 0.00, 0.00, 0.00, 0.00, 0.01, -0.18, 1.02
194, 0.00, 51426.36, 0.00, 0.00, 0.00, 0.00, 0.00, 0.00, 0.00, -0.18, 1.02
195, 0.00, 51413.88, 0.00, 0.00, 0.00, 0.00, 0.00, 0.00, 0.00, -0.18, 1.02
196, 0.00, 51471.33, 0.00, 0.00, 0.00, 0.00, 0.00, 0.00, 0.00, -0.18, 1.02
197, 0.00, 51502.66, 0.00, 0.00, 0.00, 0.00, 0.00, 0.00, 0.00, -0.18, 1.02
198, 0.00, 51437.69, 0.00, 0.00, 0.00, 0.00, 0.00, 0.00, 0.00, -0.18, 1.02
199, 0.00, 51400.36, 0.00, 0.00, 0.00, 0.00, 0.00, 0.00, 0.00, -0.18, 1.02
200, 0.00, 51473.68, 0.00, 0.00, 0.00, 0.00, 0.00, 0.00, 0.00, -0.18, 1.02
201, 0.00, 51506.78, 0.00, 0.00, 0.00, 0.00, 0.00, 0.00, 0.00, -0.18, 1.02
202, 0.00, 51448.66, 0.00, 0.00, 0.00, 0.00, 0.00, 0.00, 0.00, -0.18, 1.02
203, 0.00, 51424.23, 0.00, 0.00, 0.00, 0.00, 0.00, 0.00, 0.00, -0.18, 1.02
204, 0.00, 51492.14, 0.00, 0.00, 0.00, 0.00, 0.00, 0.00, 0.01, -0.18, 1.02
205, 0.00, 51535.75, 0.00, 0.00, 0.00, 0.00, 0.00, 0.00, 0.01, -0.18, 1.02
206, 0.00, 51501.14, 0.00, 0.00, 0.00, 0.00, 0.00, 0.00, 0.01, -0.18, 1.02
207, 0.00, 51446.76, 0.00, 0.00, 0.00, 0.00, 0.00, 0.00, 0.01, -0.18, 1.02
208, 0.00, 51463.64, 0.00, 0.00, 0.00, 0.00, 0.00, 0.00, 0.01, -0.18, 1.02
209, 0.00, 51518.02, 0.00, 0.00, 0.00, 0.00, 0.00, 0.00, 0.01, -0.19, 1.02
210, 0.00, 51484.45, 0.00, 0.00, 0.00, 0.00, 0.00, 0.00, 0.01, -0.19, 1.02
211, 0.00, 51417.30, 0.00, 0.00, 0.00, 0.00, 0.00, 0.00, 0.01, -0.19, 1.02
212, 0.00, 51466.03, 0.00, 0.00, 0.00, 0.00, 0.00, 0.00, 0.01, -0.19, 1.02
213, 0.00, 51531.14, 0.00, 0.00, 0.00, 0.00, 0.00, 0.00, 0.01, -0.19, 1.02
214, 0.00, 51501.23, 0.00, 0.00, 0.00, 0.00, 0.00, 0.00, 0.01, -0.18, 1.02
215, 0.00, 51444.82, 0.00, 0.00, 0.00, 0.00, 0.00, 0.00, 0.01, -0.18, 1.02
216, 0.00, 51439.90, 0.00, 0.00, 0.00, 0.00, 0.00, 0.00, 0.01, -0.18, 1.02
217, 0.00, 51504.74, 0.00, 0.00, 0.00, 0.00, 0.00, 0.00, 0.01, -0.18, 1.02
218, 0.00, 51506.35, 0.00, 0.00, 0.00, 0.00, 0.00, 0.00, 0.01, -0.18, 1.02
219, 0.00, 51454.72, 0.00, 0.00, 0.00, 0.00, 0.00, 0.00, 0.01, -0.18, 1.02
220, 0.00, 51443.21, 0.00, 0.00, 0.00, 0.00, 0.00, 0.00, 0.01, -0.18, 1.02
221, 0.00, 51506.46, 0.00, 0.00, 0.00, 0.00, 0.00, 0.00, 0.01, -0.18, 1.02
222, 0.00, 51518.49, 0.00, 0.00, 0.00, 0.00, 0.00, 0.00, 0.01, -0.18, 1.02
223, 0.00, 51468.55, 0.00, 0.00, 0.00, 0.00, 0.00, 0.00, 0.01, -0.18, 1.02
224, 0.00, 51445.13, 0.00, 0.00, 0.00, 0.00, 0.00, 0.00, 0.01, -0.18, 1.02
225, 0.00, 51506.35, 0.00, 0.00, 0.00, 0.00, 0.00, 0.00, 0.01, -0.19, 1.02
226, 0.00, 51542.00, 0.00, 0.00, 0.00, 0.00, 0.00, 0.00, 0.01, -0.19, 1.02
227, 0.00, 51493.41, 0.00, 0.00, 0.00, 0.00, 0.00, 0.00, 0.01, -0.19, 1.02
228, 0.00, 51461.29, 0.00, 0.00, 0.00, 0.00, 0.00, 0.00, 0.01, -0.19, 1.02
229, 0.00, 51495.42, 0.00, 0.00, 0.00, 0.00, 0.00, 0.00, 0.01, -0.19, 1.02
230, 0.00, 51547.88, 0.00, 0.00, 0.00, 0.00, 0.00, 0.00, 0.01, -0.19, 1.02
231, 0.00, 51506.38, 0.00, 0.00, 0.00, 0.00, 0.00, 0.00, 0.01, -0.19, 1.02
232, 0.00, 51460.71, 0.00, 0.00, 0.00, 0.00, 0.00, 0.00, 0.01, -0.19, 1.02
233, 0.00, 51507.43, 0.00, 0.00, 0.00, 0.00, 0.00, 0.00, 0.01, -0.19, 1.02
234, 0.00, 51549.13, 0.00, 0.00, 0.00, 0.00, 0.00, 0.00, 0.01, -0.19, 1.02
235, 0.00, 51532.23, 0.00, 0.00, 0.00, 0.00, 0.00, 0.00, 0.00, -0.18, 1.02
236, 0.00, 51470.03, 0.00, 0.00, 0.00, 0.00, 0.00, 0.00, 0.00, -0.18, 1.02
237, 0.00, 51484.36, 0.00, 0.00, 0.00, 0.00, 0.00, 0.00, 0.00, -0.18, 1.02
238, 0.00, 51560.45, 0.00, 0.00, 0.00, 0.00, 0.00, 0.00, 0.00, -0.18, 1.02
239, 0.00, 51542.41, 0.00, 0.00, 0.00, 0.00, 0.00, 0.00, 0.00, -0.18, 1.02
240, 0.00, 51487.62, 0.00, 0.00, 0.00, 0.00, 0.00, 0.00, 0.00, -0.18, 1.02
241, 0.00, 51483.42, 0.00, 0.00, 0.00, 0.00, 0.00, 0.00, 0.00, -0.18, 1.02
242, 0.00, 51564.82, 0.00, 0.00, 0.00, 0.00, 0.00, 0.00, 0.00, -0.18, 1.02
243, 0.00, 51593.37, 0.00, 0.00, 0.00, 0.00, 0.00, 0.00, 0.00, -0.18, 1.02
244, 0.00, 51511.58, 0.00, 0.00, 0.00, 0.00, 0.00, 0.00, 0.00, -0.18, 1.02
245, 0.00, 51473.03, 0.00, 0.00, 0.00, 0.00, 0.00, 0.00, 0.01, -0.19, 1.02
246, 0.00, 51544.51, 0.00, 0.00, 0.00, 0.00, 0.00, 0.00, 0.01, -0.19, 1.02
247, 0.00, 51571.13, 0.00, 0.00, 0.00, 0.00, 0.00, 0.00, 0.01, -0.19, 1.02
248, 0.00, 51520.61, 0.00, 0.00, 0.00, 0.00, 0.00, 0.00, 0.01, -0.19, 1.02
249, 0.00, 51489.36, 0.00, 0.00, 0.00, 0.00, 0.00, 0.00, 0.01, -0.19, 1.02
250, 0.00, 51548.84, 0.00, 0.00, 0.00, 0.00, 0.00, 0.00, 0.01, -0.19, 1.02
251, 0.00, 51585.66, 0.00, 0.00, 0.00, 0.00, 0.00, 0.00, 0.01, -0.19, 1.02
252, 0.00, 51537.18, 0.00, 0.00, 0.00, 0.00, 0.00, 0.00, 0.01, -0.19, 1.02
253, 0.00, 51496.70, 0.00, 0.00, 0.00, 0.00, 0.00, 0.00, 0.01, -0.19, 1.02
254, 0.00, 51540.21, 0.00, 0.00, 0.00, 0.00, 0.00, 0.00, 0.01, -0.19, 1.02
255, 0.00, 51585.57, 0.00, 0.00, 0.00, 0.00, 0.00, 0.00, 0.01, -0.19, 1.01
0, 0.00, 51566.30, 0.00, 0.00, 0.00, 0.00, 0.00, 0.00, 0.01, -0.19, 1.01
1, 0.00, 51513.80, 0.00, 0.00, 0.00, 0.00, 0.00, 0.00, 0.01, -0.19, 1.01
2, 0.00, 51551.21, 0.00, 0.00, 0.00, 0.00, 0.00, 0.00, 0.01, -0.19, 1.01
3, 0.00, 51605.06, 0.00, 0.00, 0.00, 0.00, 0.00, 0.00, 0.01, -0.19, 1.01
4, 0.00, 51583.87, 0.00, 0.00, 0.00, 0.00, 0.00, 0.00, 0.01, -0.18, 1.01
5, 0.00, 51521.20, 0.00, 0.00, 0.00, 0.00, 0.00, 0.00, 0.01, -0.18, 1.01
6, 0.00, 51534.31, 0.00, 0.00, 0.00, 0.00, 0.00, 0.00, 0.01, -0.18, 1.01
7, 0.00, 51602.82, 0.00, 0.00, 0.00, 0.00, 0.00, 0.00, 0.01, -0.18, 1.01
8, 0.00, 51602.53, 0.00, 0.00, 0.00, 0.00, 0.00, 0.00, 0.01, -0.18, 1.01
9, 0.00, 51539.99, 0.00, 0.00, 0.00, 0.00, 0.00, 0.00, 0.00, -0.19, 1.01
10, 0.00, 51544.04, 0.00, 0.00, 0.00, 0.00, 0.00, 0.00, 0.00, -0.19, 1.01
11, 0.00, 51605.73, 0.00, 0.00, 0.00, 0.00, 0.00, 0.00, 0.00, -0.19, 1.01
12, 0.00, 51608.54, 0.00, 0.00, 0.00, 0.00, 0.00, 0.00, 0.00, -0.19, 1.01
13, 0.00, 51548.80, 0.00, 0.00, 0.00, 0.00, 0.00, 0.00, 0.00, -0.19, 1.01
14, 0.00, 51530.89, 0.00, 0.00, 0.00, 0.00, 0.00, 0.00, 0.01, -0.19, 1.02
15, 0.00, 51602.44, 0.00, 0.00, 0.00, 0.00, 0.00, 0.00, 0.01, -0.19, 1.02
16, 0.00, 51628.64, 0.00, 0.00, 0.00, 0.00, 0.00, 0.00, 0.01, -0.19, 1.02
17, 0.00, 51563.77, 0.00, 0.00, 0.00, 0.00, 0.00, 0.00, 0.01, -0.19, 1.02
18, 0.00, 51537.93, 0.00, 0.00, 0.00, 0.00, 0.00, 0.00, 0.01, -0.19, 1.02
19, 0.00, 51592.61, 0.00, 0.00, 0.00, 0.00, 0.00, 0.00, 0.01, -0.19, 1.02
20, 0.00, 51644.08, 0.00, 0.00, 0.00, 0.00, 0.00, 0.00, 0.01, -0.19, 1.02
21, 0.00, 51591.98, 0.00, 0.00, 0.00, 0.00, 0.00, 0.00, 0.01, -0.19, 1.02
22, 0.00, 51543.61, 0.00, 0.00, 0.00, 0.00, 0.00, 0.00, 0.01, -0.19, 1.02
23, 0.00, 51572.96, 0.00, 0.00, 0.00, 0.00, 0.00, 0.00, 0.01, -0.19, 1.02
24, 0.00, 51640.69, 0.00, 0.00, 0.00, 0.00, 0.00, 0.00, 0.00, -0.19, 1.01
25, 0.00, 51621.00, 0.00, 0.00, 0.00, 0.00, 0.00, 0.00, 0.00, -0.19, 1.01
26, 0.00, 51555.23, 0.00, 0.00, 0.00, 0.00, 0.00, 0.00, 0.00, -0.19, 1.01
27, 0.00, 51565.00, 0.00, 0.00, 0.00, 0.00, 0.00, 0.00, 0.00, -0.19, 1.01
28, 0.00, 51632.89, 0.00, 0.00, 0.00, 0.00, 0.00, 0.00, 0.00, -0.19, 1.01
29, 0.00, 51628.59, 0.00, 0.00, 0.00, 0.00, 0.00, 0.00, 0.01, -0.18, 1.01
30, 0.00, 51568.60, 0.00, 0.00, 0.00, 0.00, 0.00, 0.00, 0.01, -0.18, 1.01
31, 0.00, 51563.62, 0.00, 0.00, 0.00, 0.00, 0.00, 0.00, 0.01, -0.18, 1.01
32, 0.00, 51629.36, 0.00, 0.00, 0.00, 0.00, 0.00, 0.00, 0.01, -0.18, 1.01
33, 0.00, 51627.30, 0.00, 0.00, 0.00, 0.00, 0.00, 0.00, 0.01, -0.18, 1.01
34, 0.00, 51572.20, 0.00, 0.00, 0.00, 0.00, 0.00, 0.00, 0.01, -0.18, 1.01
35, 0.00, 51568.38, 0.00, 0.00, 0.00, 0.00, 0.00, 0.00, 0.01, -0.18, 1.01
36, 0.00, 51632.50, 0.00, 0.00, 0.00, 0.00, 0.00, 0.00, 0.01, -0.18, 1.01
37, 0.00, 51650.90, 0.00, 0.00, 0.00, 0.00, 0.00, 0.00, 0.01, -0.18, 1.01
38, 0.00, 51591.56, 0.00, 0.00, 0.00, 0.00, 0.00, 0.00, 0.01, -0.18, 1.01
39, 0.00, 51568.11, 0.00, 0.00, 0.00, 0.00, 0.00, 0.00, 0.01, -0.18, 1.01
40, 0.00, 51628.97, 0.00, 0.00, 0.00, 0.00, 0.00, 0.00, 0.01, -0.18, 1.01
41, 0.00, 51658.99, 0.00, 0.00, 0.00, 0.00, 0.00, 0.00, 0.01, -0.18, 1.01
42, 0.00, 51607.81, 0.00, 0.00, 0.00, 0.00, 0.00, 0.00, 0.01, -0.18, 1.01
43, 0.00, 51562.19, 0.00, 0.00, 0.00, 0.00, 0.00, 0.00, 0.01, -0.18, 1.01
44, 0.00, 51614.51, 0.00, 0.00, 0.00, 0.00, 0.00, 0.00, 0.01, -0.18, 1.01
45, 0.00, 51661.38, 0.00, 0.00, 0.00, 0.00, 0.00, 0.00, 0.01, -0.18, 1.01
46, 0.00, 51620.86, 0.00, 0.00, 0.00, 0.00, 0.00, 0.00, 0.01, -0.18, 1.01
47, 0.00, 51577.23, 0.00, 0.00, 0.00, 0.00, 0.00, 0.00, 0.01, -0.18, 1.01
48, 0.00, 51612.84, 0.00, 0.00, 0.00, 0.00, 0.00, 0.00, 0.01, -0.18, 1.01
49, 0.00, 51668.31, 0.00, 0.00, 0.00, 0.00, 0.00, 0.00, 0.00, -0.19, 1.01
50, 0.00, 51636.64, 0.00, 0.00, 0.00, 0.00, 0.00, 0.00, 0.00, -0.19, 1.01
51, 0.00, 51569.77, 0.00, 0.00, 0.00, 0.00, 0.00, 0.00, 0.00, -0.19, 1.01
52, 0.00, 51581.70, 0.00, 0.00, 0.00, 0.00, 0.00, 0.00, 0.00, -0.19, 1.01
53, 0.00, 51635.05, 0.00, 0.00, 0.00, 0.00, 0.00, 0.00, 0.00, -0.19, 1.01
54, 0.00, 51628.04, 0.00, 0.00, 0.00, 0.00, 0.00, 0.00, 0.00, -0.18, 1.01
55, 0.00, 51562.23, 0.00, 0.00, 0.00, 0.00, 0.00, 0.00, 0.00, -0.18, 1.01
56, 0.00, 51565.61, 0.00, 0.00, 0.00, 0.00, 0.00, 0.00, 0.00, -0.18, 1.01
57, 0.00, 51633.06, 0.00, 0.00, 0.00, 0.00, 0.00, 0.00, 0.00, -0.18, 1.01
58, 0.00, 51634.59, 0.00, 0.00, 0.00, 0.00, 0.00, 0.00, 0.00, -0.18, 1.01
59, 0.00, 51579.91, 0.00, 0.00, 0.00, 0.00, 0.00, 0.00, 0.01, -0.18, 1.02
60, 0.00, 51550.03, 0.00, 0.00, 0.00, 0.00, 0.00, 0.00, 0.01, -0.18, 1.02
61, 0.00, 51612.81, 0.00, 0.00, 0.00, 0.00, 0.00, 0.00, 0.01, -0.18, 1.02
62, 0.00, 51625.31, 0.00, 0.00, 0.00, 0.00, 0.00, 0.00, 0.01, -0.18, 1.02
63, 0.00, 51577.41, 0.00, 0.00, 0.00, 0.00, 0.00, 0.00, 0.01, -0.18, 1.02
64, 0.00, 51550.54, 0.00, 0.00, 0.00, 0.00, 0.00, 0.00, 0.01, -0.18, 1.01
65, 0.00, 51592.92, 0.00, 0.00, 0.00, 0.00, 0.00, 0.00, 0.01, -0.18, 1.01
66, 0.00, 51640.78, 0.00, 0.00, 0.00, 0.00, 0.00, 0.00, 0.01, -0.18, 1.01
67, 0.00, 51598.57, 0.00, 0.00, 0.00, 0.00, 0.00, 0.00, 0.01, -0.18, 1.01
68, 0.00, 51541.91, 0.00, 0.00, 0.00, 0.00, 0.00, 0.00, 0.01, -0.18, 1.01
69, 0.00, 51589.52, 0.00, 0.00, 0.00, 0.00, 0.00, 0.00, 0.01, -0.18, 1.01
70, 0.00, 51643.35, 0.00, 0.00, 0.00, 0.00, 0.00, 0.00, 0.01, -0.18, 1.01
71, 0.00, 51620.28, 0.00, 0.00, 0.00, 0.00, 0.00, 0.00, 0.01, -0.18, 1.01
72, 0.00, 51553.49, 0.00, 0.00, 0.00, 0.00, 0.00, 0.00, 0.01, -0.18, 1.01
73, 0.00, 51584.34, 0.00, 0.00, 0.00, 0.00, 0.00, 0.00, 0.01, -0.18, 1.01
74, 0.00, 51656.64, 0.00, 0.00, 0.00, 0.00, 0.00, 0.00, 0.01, -0.18, 1.01
75, 0.00, 51633.27, 0.00, 0.00, 0.00, 0.00, 0.00, 0.00, 0.01, -0.18, 1.01
76, 0.00, 51559.50, 0.00, 0.00, 0.00, 0.00, 0.00, 0.00, 0.01, -0.18, 1.01
77, 0.00, 51590.13, 0.00, 0.00, 0.00, 0.00, 0.00, 0.00, 0.01, -0.18, 1.01
78, 0.00, 51656.33, 0.00, 0.00, 0.00, 0.00, 0.00, 0.00, 0.01, -0.18, 1.01
79, 0.00, 51651.44, 0.00, 0.00, 0.00, 0.00, 0.00, 0.00, 0.01, -0.18, 1.00
80, 0.00, 51599.47, 0.00, 0.00, 0.00, 0.00, 0.00, 0.00, 0.01, -0.18, 1.00
81, 0.00, 51584.34, 0.00, 0.00, 0.00, 0.00, 0.00, 0.00, 0.01, -0.18, 1.00
82, 0.00, 51649.29, 0.00, 0.00, 0.00, 0.00, 0.00, 0.00, 0.01, -0.18, 1.00
83, 0.00, 51640.82, 0.00, 0.00, 0.00, 0.00, 0.00, 0.00, 0.01, -0.18, 1.00
84, 0.00, 51595.80, 0.00, 0.00, 0.00, 0.00, 0.00, 0.00, 0.01, -0.18, 1.01
85, 0.00, 51592.05, 0.00, 0.00, 0.00, 0.00, 0.00, 0.00, 0.01, -0.18, 1.01
86, 0.00, 51632.89, 0.00, 0.00, 0.00, 0.00, 0.00, 0.00, 0.01, -0.18, 1.01
87, 0.00, 51669.36, 0.00, 0.00, 0.00, 0.00, 0.00, 0.00, 0.01, -0.18, 1.01
88, 0.00, 51604.45, 0.00, 0.00, 0.00, 0.00, 0.00, 0.00, 0.01, -0.18, 1.01
89, 0.00, 51564.60, 0.00, 0.00, 0.00, 0.00, 0.00, 0.00, 0.00, -0.18, 1.02
90, 0.00, 51632.15, 0.00, 0.00, 0.00, 0.00, 0.00, 0.00, 0.00, -0.18, 1.02
91, 0.00, 51668.31, 0.00, 0.00, 0.00, 0.00, 0.00, 0.00, 0.00, -0.18, 1.02
92, 0.00, 51612.59, 0.00, 0.00, 0.00, 0.00, 0.00, 0.00, 0.00, -0.18, 1.02
93, 0.00, 51580.31, 0.00, 0.00, 0.00, 0.00, 0.00, 0.00, 0.00, -0.18, 1.02
94, 0.00, 51610.42, 0.00, 0.00, 0.00, 0.00, 0.00, 0.00, 0.00, -0.18, 1.02
95, 0.00, 51666.91, 0.00, 0.00, 0.00, 0.00, 0.00, 0.00, 0.00, -0.18, 1.02
96, 0.00, 51633.11, 0.00, 0.00, 0.00, 0.00, 0.00, 0.00, 0.00, -0.18, 1.02
97, 0.00, 51576.07, 0.00, 0.00, 0.00, 0.00, 0.00, 0.00, 0.00, -0.18, 1.02
98, 0.00, 51607.79, 0.00, 0.00, 0.00, 0.00, 0.00, 0.00, 0.00, -0.18, 1.02
99, 0.00, 51662.55, 0.00, 0.00, 0.00, 0.00, 0.00, 0.00, 0.00, -0.18, 1.01
100, 0.00, 51643.30, 0.00, 0.00, 0.00, 0.00, 0.00, 0.00, 0.00, -0.18, 1.01
101, 0.00, 51577.03, 0.00, 0.00, 0.00, 0.00, 0.00, 0.00, 0.00, -0.18, 1.01
102, 0.00, 51595.89, 0.00, 0.00, 0.00, 0.00, 0.00, 0.00, 0.00, -0.18, 1.01
103, 0.00, 51666.66, 0.00, 0.00, 0.00, 0.00, 0.00, 0.00, 0.00, -0.18, 1.01
104, 0.00, 51665.07, 0.00, 0.00, 0.00, 0.00, 0.00, 0.00, 0.01, -0.18, 1.01
105, 0.00, 51602.51, 0.00, 0.00, 0.00, 0.00, 0.00, 0.00, 0.01, -0.18, 1.01
106, 0.00, 51591.07, 0.00, 0.00, 0.00, 0.00, 0.00, 0.00, 0.01, -0.18, 1.01
107, 0.00, 51665.96, 0.00, 0.00, 0.00, 0.00, 0.00, 0.00, 0.01, -0.18, 1.01
108, 0.00, 51680.05, 0.00, 0.00, 0.00, 0.00, 0.00, 0.00, 0.01, -0.18, 1.01
109, 0.00, 51616.79, 0.00, 0.00, 0.00, 0.00, 0.00, 0.00, 0.01, -0.18, 1.02
110, 0.00, 51587.40, 0.00, 0.00, 0.00, 0.00, 0.00, 0.00, 0.01, -0.18, 1.02
111, 0.00, 51643.39, 0.00, 0.00, 0.00, 0.00, 0.00, 0.00, 0.01, -0.18, 1.02
112, 0.00, 51686.82, 0.00, 0.00, 0.00, 0.00, 0.00, 0.00, 0.01, -0.18, 1.02
113, 0.00, 51626.11, 0.00, 0.00, 0.00, 0.00, 0.00, 0.00, 0.01, -0.18, 1.02
114, 0.00, 51589.41, 0.00, 0.00, 0.00, 0.00, 0.00, 0.00, 0.01, -0.18, 1.02
115, 0.00, 51631.01, 0.00, 0.00, 0.00, 0.00, 0.00, 0.00, 0.01, -0.18, 1.02
116, 0.00, 51679.45, 0.00, 0.00, 0.00, 0.00, 0.00, 0.00, 0.01, -0.18, 1.02
117, 0.00, 51645.45, 0.00, 0.00, 0.00, 0.00, 0.00, 0.00, 0.01, -0.18, 1.02
118, 0.00, 51585.16, 0.00, 0.00, 0.00, 0.00, 0.00, 0.00, 0.01, -0.18, 1.02
119, 0.00, 51612.77, 0.00, 0.00, 0.00, 0.00, 0.00, 0.00, 0.01, -0.18, 1.01
120, 0.00, 51681.95, 0.00, 0.00, 0.00, 0.00, 0.00, 0.00, 0.01, -0.18, 1.01
121, 0.00, 51655.80, 0.00, 0.00, 0.00, 0.00, 0.00, 0.00, 0.01, -0.18, 1.01
122, 0.00, 51598.38, 0.00, 0.00, 0.00, 0.00, 0.00, 0.00, 0.01, -0.18, 1.01
123, 0.00, 51612.03, 0.00, 0.00, 0.00, 0.00, 0.00, 0.00, 0.01, -0.18, 1.01
124, 0.00, 51671.31, 0.00, 0.00, 0.00, 0.00, 0.00, 0.00, 0.00, -0.18, 1.01
125, 0.00, 51666.73, 0.00, 0.00, 0.00, 0.00, 0.00, 0.00, 0.00, -0.18, 1.01
126, 0.00, 51605.24, 0.00, 0.00, 0.00, 0.00, 0.00, 0.00, 0.00, -0.18, 1.01
127, 0.00, 51612.14, 0.00, 0.00, 0.00, 0.00, 0.00, 0.00, 0.00, -0.18, 1.01
128, 0.00, 51679.24, 0.00, 0.00, 0.00, 0.00, 0.00, 0.00, 0.00, -0.18, 1.01
129, 0.00, 51684.88, 0.00, 0.00, 0.00, 0.00, 0.00, 0.00, -0.00, -0.17, 1.02
130, 0.00, 51617.38, 0.00, 0.00, 0.00, 0.00, 0.00, 0.00, -0.00, -0.17, 1.02
131, 0.00, 51610.80, 0.00, 0.00, 0.00, 0.00, 0.00, 0.00, -0.00, -0.17, 1.02
132, 0.00, 51666.57, 0.00, 0.00, 0.00, 0.00, 0.00, 0.00, -0.00, -0.17, 1.02
133, 0.00, 51698.60, 0.00, 0.00, 0.00, 0.00, 0.00, 0.00, -0.00, -0.17, 1.02
134, 0.00, 51652.58, 0.00, 0.00, 0.00, 0.00, 0.00, 0.00, 0.00, -0.18, 1.01
135, 0.00, 51619.41, 0.00, 0.00, 0.00, 0.00, 0.00, 0.00, 0.00, -0.18, 1.01
136, 0.00, 51663.95, 0.00, 0.00, 0.00, 0.00, 0.00, 0.00, 0.00, -0.18, 1.01
137, 0.00, 51694.55, 0.00, 0.00, 0.00, 0.00, 0.00, 0.00, 0.00, -0.18, 1.01
138, 0.00, 51645.58, 0.00, 0.00, 0.00, 0.00, 0.00, 0.00, 0.00, -0.18, 1.01
139, 0.00, 51599.31, 0.00, 0.00, 0.00, 0.00, 0.00, 0.00, 0.00, -0.18, 1.01
140, 0.00, 51650.12, 0.00, 0.00, 0.00, 0.00, 0.00, 0.00, 0.00, -0.17, 1.02
141, 0.00, 51690.80, 0.00, 0.00, 0.00, 0.00, 0.00, 0.00, 0.00, -0.17, 1.02
142, 0.00, 51657.63, 0.00, 0.00, 0.00, 0.00, 0.00, 0.00, 0.00, -0.17, 1.02
143, 0.00, 51612.10, 0.00, 0.00, 0.00, 0.00, 0.00, 0.00, 0.00, -0.17, 1.02
144, 0.00, 51629.91, 0.00, 0.00, 0.00, 0.00, 0.00, 0.00, 0.00, -0.17, 1.02
145, 0.00, 51708.46, 0.00, 0.00, 0.00, 0.00, 0.00, 0.00, 0.00, -0.18, 1.02
146, 0.00, 51694.49, 0.00, 0.00, 0.00, 0.00, 0.00, 0.00, 0.00, -0.18, 1.02
147, 0.00, 51624.75, 0.00, 0.00, 0.00, 0.00, 0.00, 0.00, 0.00, -0.18, 1.02
148, 0.00, 51631.95, 0.00, 0.00, 0.00, 0.00, 0.00, 0.00, 0.00, -0.18, 1.02
149, 0.00, 51692.34, 0.00, 0.00, 0.00, 0.00, 0.00, 0.00, 0.00, -0.18, 1.02
150, 0.00, 51692.00, 0.00, 0.00, 0.00, 0.00, 0.00, 0.00, 0.01, -0.19, 1.01
151, 0.00, 51631.52, 0.00, 0.00, 0.00, 0.00, 0.00, 0.00, 0.01, -0.19, 1.01
152, 0.00, 51628.62, 0.00, 0.00, 0.00, 0.00, 0.00, 0.00, 0.01, -0.19, 1.01
153, 0.00, 51692.00, 0.00, 0.00, 0.00, 0.00, 0.00, 0.00, 0.01, -0.19, 1.01
154, 0.00, 51708.66, 0.00, 0.00, 0.00, 0.00, 0.00, 0.00, 0.01, -0.19, 1.01
155, 0.00, 51643.26, 0.00, 0.00, 0.00, 0.00, 0.00, 0.00, 0.01, -0.18, 1.02
156, 0.00, 51626.80, 0.00, 0.00, 0.00, 0.00, 0.00, 0.00, 0.01, -0.18, 1.02
157, 0.00, 51684.07, 0.00, 0.00, 0.00, 0.00, 0.00, 0.00, 0.01, -0.18, 1.02
158, 0.00, 51718.56, 0.00, 0.00, 0.00, 0.00, 0.00, 0.00, 0.01, -0.18, 1.02
159, 0.00, 51659.98, 0.00, 0.00, 0.00, 0.00, 0.00, 0.00, 0.01, -0.18, 1.02
160, 0.00, 51623.74, 0.00, 0.00, 0.00, 0.00, 0.00, 0.00, 0.01, -0.18, 1.02
161, 0.00, 51672.87, 0.00, 0.00, 0.00, 0.00, 0.00, 0.00, 0.01, -0.18, 1.02
162, 0.00, 51710.25, 0.00, 0.00, 0.00, 0.00, 0.00, 0.00, 0.01, -0.18, 1.02
163, 0.00, 51661.00, 0.00, 0.00, 0.00, 0.00, 0.00, 0.00, 0.01, -0.18, 1.02
164, 0.00, 51619.86, 0.00, 0.00, 0.00, 0.00, 0.00, 0.00, 0.01, -0.18, 1.02
165, 0.00, 51658.75, 0.00, 0.00, 0.00, 0.00, 0.00, 0.00, 0.01, -0.18, 1.01
166, 0.00, 51718.49, 0.00, 0.00, 0.00, 0.00, 0.00, 0.00, 0.01, -0.18, 1.01
167, 0.00, 51693.48, 0.00, 0.00, 0.00, 0.00, 0.00, 0.00, 0.01, -0.18, 1.01
168, 0.00, 51626.92, 0.00, 0.00, 0.00, 0.00, 0.00, 0.00, 0.01, -0.18, 1.01
169, 0.00, 51649.43, 0.00, 0.00, 0.00, 0.00, 0.00, 0.00, 0.01, -0.18, 1.01
170, 0.00, 51709.21, 0.00, 0.00, 0.00, 0.00, 0.00, 0.00, 0.00, -0.18, 1.01
171, 0.00, 51693.59, 0.00, 0.00, 0.00, 0.00, 0.00, 0.00, 0.00, -0.18, 1.01
172, 0.00, 51631.61, 0.00, 0.00, 0.00, 0.00, 0.00, 0.00, 0.00, -0.18, 1.01
173, 0.00, 51641.69, 0.00, 0.00, 0.00, 0.00, 0.00, 0.00, 0.00, -0.18, 1.01
174, 0.00, 51717.64, 0.00, 0.00, 0.00, 0.00, 0.00, 0.00, 0.00, -0.18, 1.01
175, 0.00, 51707.23, 0.00, 0.00, 0.00, 0.00, 0.00, 0.00, 0.00, -0.18, 1.02
176, 0.00, 51642.88, 0.00, 0.00, 0.00, 0.00, 0.00, 0.00, 0.00, -0.18, 1.02
177, 0.00, 51630.36, 0.00, 0.00, 0.00, 0.00, 0.00, 0.00, 0.00, -0.18, 1.02
178, 0.00, 51690.84, 0.00, 0.00, 0.00, 0.00, 0.00, 0.00, 0.00, -0.18, 1.02
179, 0.00, 51716.95, 0.00, 0.00, 0.00, 0.00, 0.00, 0.00, 0.00, -0.18, 1.02
180, 0.00, 51655.55, 0.00, 0.00, 0.00, 0.00, 0.00, 0.00, 0.01, -0.18, 1.02
181, 0.00, 51626.34, 0.00, 0.00, 0.00, 0.00, 0.00, 0.00, 0.01, -0.18, 1.02
182, 0.00, 51681.77, 0.00, 0.00, 0.00, 0.00, 0.00, 0.00, 0.01, -0.18, 1.02
183, 0.00, 51715.70, 0.00, 0.00, 0.00, 0.00, 0.00, 0.00, 0.01, -0.18, 1.02
184, 0.00, 51666.03, 0.00, 0.00, 0.00, 0.00, 0.00, 0.00, 0.01, -0.18, 1.02
185, 0.00, 51618.16, 0.00, 0.00, 0.00, 0.00, 0.00, 0.00, 0.01, -0.18, 1.01
186, 0.00, 51675.04, 0.00, 0.00, 0.00, 0.00, 0.00, 0.00, 0.01, -0.18, 1.01
187, 0.00, 51726.43, 0.00, 0.00, 0.00, 0.00, 0.00, 0.00, 0.01, -0.18, 1.01
188, 0.00, 51679.45, 0.00, 0.00, 0.00, 0.00, 0.00, 0.00, 0.01, -0.18, 1.01
189, 0.00, 51626.43, 0.00, 0.00, 0.00, 0.00, 0.00, 0.00, 0.01, -0.18, 1.01
190, 0.00, 51659.02, 0.00, 0.00, 0.00, 0.00, 0.00, 0.00, 0.00, -0.18, 1.01
191, 0.00, 51716.04, 0.00, 0.00, 0.00, 0.00, 0.00, 0.00, 0.00, -0.18, 1.01
192, 0.00, 51694.40, 0.00, 0.00, 0.00, 0.00, 0.00, 0.00, 0.00, -0.18, 1.01
193, 0.00, 51632.95, 0.00, 0.00, 0.00, 0.00, 0.00, 0.00, 0.00, -0.18, 1.01
194, 0.00, 51649.71, 0.00, 0.00, 0.00, 0.00, 0.00, 0.00, 0.00, -0.18, 1.01
195, 0.00, 51717.09, 0.00, 0.00, 0.00, 0.00, 0.00, 0.00, 0.00, -0.19, 1.02
196, 0.00, 51713.78, 0.00, 0.00, 0.00, 0.00, 0.00, 0.00, 0.00, -0.19, 1.02
197, 0.00, 51653.09, 0.00, 0.00, 0.00, 0.00, 0.00, 0.00, 0.00, -0.19, 1.02
198, 0.00, 51652.91, 0.00, 0.00, 0.00, 0.00, 0.00, 0.00, 0.00, -0.19, 1.02
199, 0.00, 51719.45, 0.00, 0.00, 0.00, 0.00, 0.00, 0.00, 0.00, -0.19, 1.02
200, 0.00, 51735.21, 0.00, 0.00, 0.00, 0.00, 0.00, 0.00, 0.00, -0.18, 1.02
201, 0.00, 51666.01, 0.00, 0.00, 0.00, 0.00, 0.00, 0.00, 0.00, -0.18, 1.02
202, 0.00, 51638.85, 0.00, 0.00, 0.00, 0.00, 0.00, 0.00, 0.00, -0.18, 1.02
203, 0.00, 51692.09, 0.00, 0.00, 0.00, 0.00, 0.00, 0.00, 0.00, -0.18, 1.02
204, 0.00, 51729.63, 0.00, 0.00, 0.00, 0.00, 0.00, 0.00, 0.00, -0.18, 1.02
205, 0.00, 51668.09, 0.00, 0.00, 0.00, 0.00, 0.00, 0.00, 0.01, -0.19, 1.01
206, 0.00, 51633.49, 0.00, 0.00, 0.00, 0.00, 0.00, 0.00, 0.01, -0.19, 1.01
207, 0.00, 51696.70, 0.00, 0.00, 0.00, 0.00, 0.00, 0.00, 0.01, -0.19, 1.01
208, 0.00, 51726.18, 0.00, 0.00, 0.00, 0.00, 0.00, 0.00, 0.01, -0.19, 1.01
209, 0.00, 51678.19, 0.00, 0.00, 0.00, 0.00, 0.00, 0.00, 0.01, -0.19, 1.01
210, 0.00, 51636.13, 0.00, 0.00, 0.00, 0.00, 0.00, 0.00, 0.01, -0.19, 1.01
211, 0.00, 51682.13, 0.00, 0.00, 0.00, 0.00, 0.00, 0.00, 0.01, -0.19, 1.01
212, 0.00, 51735.88, 0.00, 0.00, 0.00, 0.00, 0.00, 0.00, 0.01, -0.19, 1.01
213, 0.00, 51693.13, 0.00, 0.00, 0.00, 0.00, 0.00, 0.00, 0.01, -0.19, 1.01
214, 0.00, 51636.02, 0.00, 0.00, 0.00, 0.00, 0.00, 0.00, 0.01, -0.19, 1.01
215, 0.00, 51661.18, 0.00, 0.00, 0.00, 0.00, 0.00, 0.00, 0.01, -0.19, 1.02
216, 0.00, 51724.35, 0.00, 0.00, 0.00, 0.00, 0.00, 0.00, 0.01, -0.19, 1.02
217, 0.00, 51714.34, 0.00, 0.00, 0.00, 0.00, 0.00, 0.00, 0.01, -0.19, 1.02
218, 0.00, 51641.58, 0.00, 0.00, 0.00, 0.00, 0.00, 0.00, 0.01, -0.19, 1.02
219, 0.00, 51649.38, 0.00, 0.00, 0.00, 0.00, 0.00, 0.00, 0.01, -0.19, 1.02
220, 0.00, 51707.72, 0.00, 0.00, 0.00, 0.00, 0.00, 0.00, 0.00, -0.19, 1.02
221, 0.00, 51706.94, 0.00, 0.00, 0.00, 0.00, 0.00, 0.00, 0.00, -0.19, 1.02
222, 0.00, 51645.13, 0.00, 0.00, 0.00, 0.00, 0.00, 0.00, 0.00, -0.19, 1.02
223, 0.00, 51653.32, 0.00, 0.00, 0.00, 0.00, 0.00, 0.00, 0.00, -0.19, 1.02
224, 0.00, 51716.23, 0.00, 0.00, 0.00, 0.00, 0.00, 0.00, 0.00, -0.19, 1.02
225, 0.00, 51733.98, 0.00, 0.00, 0.00, 0.00, 0.00, 0.00, 0.00, -0.19, 1.01
226, 0.00, 51672.02, 0.00, 0.00, 0.00, 0.00, 0.00, 0.00, 0.00, -0.19, 1.01
227, 0.00, 51639.12, 0.00, 0.00, 0.00, 0.00, 0.00, 0.00, 0.00, -0.19, 1.01
228, 0.00, 51703.94, 0.00, 0.00, 0.00, 0.00, 0.00, 0.00, 0.00, -0.19, 1.01
229, 0.00, 51740.87, 0.00, 0.00, 0.00, 0.00, 0.00, 0.00, 0.00, -0.19, 1.01
230, 0.00, 51688.63, 0.00, 0.00, 0.00, 0.00, 0.00, 0.00, -0.00, -0.19, 1.01
231, 0.00, 51649.16, 0.00, 0.00, 0.00, 0.00, 0.00, 0.00, -0.00, -0.19, 1.01
232, 0.00, 51693.21, 0.00, 0.00, 0.00, 0.00, 0.00, 0.00, -0.00, -0.19, 1.01
233, 0.00, 51729.76, 0.00, 0.00, 0.00, 0.00, 0.00, 0.00, -0.00, -0.19, 1.01
234, 0.00, 51682.13, 0.00, 0.00, 0.00, 0.00, 0.00, 0.00, -0.00, -0.19, 1.01
235, 0.00, 51634.29, 0.00, 0.00, 0.00, 0.00, 0.00, 0.00, 0.00, -0.18, 1.01
236, 0.00, 51674.13, 0.00, 0.00, 0.00, 0.00, 0.00, 0.00, 0.00, -0.18, 1.01
237, 0.00, 51736.78, 0.00, 0.00, 0.00, 0.00, 0.00, 0.00, 0.00, -0.18, 1.01
238, 0.00, 51696.03, 0.00, 0.00, 0.00, 0.00, 0.00, 0.00, 0.00, -0.18, 1.01
239, 0.00, 51641.40, 0.00, 0.00, 0.00, 0.00, 0.00, 0.00, 0.00, -0.18, 1.01
240, 0.00, 51672.49, 0.00, 0.00, 0.00, 0.00, 0.00, 0.00, 0.00, -0.18, 1.01
241, 0.00, 51732.06, 0.00, 0.00, 0.00, 0.00, 0.00, 0.00, 0.00, -0.18, 1.01
242, 0.00, 51723.79, 0.00, 0.00, 0.00, 0.00, 0.00, 0.00, 0.00, -0.18, 1.01
243, 0.00, 51659.30, 0.00, 0.00, 0.00, 0.00, 0.00, 0.00, 0.00, -0.18, 1.01
244, 0.00, 51673.63, 0.00, 0.00, 0.00, 0.00, 0.00, 0.00, 0.00, -0.18, 1.01
245, 0.00, 51735.19, 0.00, 0.00, 0.00, 0.00, 0.00, 0.00, 0.00, -0.18, 1.01
246, 0.00, 51738.09, 0.00, 0.00, 0.00, 0.00, 0.00, 0.00, 0.00, -0.18, 1.01
247, 0.00, 51675.06, 0.00, 0.00, 0.00, 0.00, 0.00, 0.00, 0.00, -0.18, 1.01
248, 0.00, 51659.46, 0.00, 0.00, 0.00, 0.00, 0.00, 0.00, 0.00, -0.18, 1.01
249, 0.00, 51742.10, 0.00, 0.00, 0.00, 0.00, 0.00, 0.00, 0.00, -0.18, 1.01
250, 0.00, 51770.37, 0.00, 0.00, 0.00, 0.00, 0.00, 0.00, 0.00, -0.19, 1.01
251, 0.00, 51681.97, 0.00, 0.00, 0.00, 0.00, 0.00, 0.00, 0.00, -0.19, 1.01
252, 0.00, 51633.36, 0.00, 0.00, 0.00, 0.00, 0.00, 0.00, 0.00, -0.19, 1.01
253, 0.00, 51675.29, 0.00, 0.00, 0.00, 0.00, 0.00, 0.00, 0.00, -0.19, 1.01
254, 0.00, 51716.88, 0.00, 0.00, 0.00, 0.00, 0.00, 0.00, 0.00, -0.19, 1.01
255, 0.00, 51661.68, 0.00, 0.00, 0.00, 0.00, 0.00, 0.00, 0.00, -0.18, 1.02
0, 0.00, 51597.97, 0.00, 0.00, 0.00, 0.00, 0.00, 0.00, 0.00, -0.18, 1.02
1, 0.00, 51644.24, 0.00, 0.00, 0.00, 0.00, 0.00, 0.00, 0.00, -0.18, 1.02
2, 0.00, 51675.24, 0.00, 0.00, 0.00, 0.00, 0.00, 0.00, 0.00, -0.18, 1.02
3, 0.00, 51635.25, 0.00, 0.00, 0.00, 0.00, 0.00, 0.00, 0.00, -0.18, 1.02
4, 0.00, 51573.39, 0.00, 0.00, 0.00, 0.00, 0.00, 0.00, 0.00, -0.19, 1.01
5, 0.00, 51618.18, 0.00, 0.00, 0.00, 0.00, 0.00, 0.00, 0.00, -0.19, 1.01
6, 0.00, 51669.14, 0.00, 0.00, 0.00, 0.00, 0.00, 0.00, 0.00, -0.19, 1.01
7, 0.00, 51647.79, 0.00, 0.00, 0.00, 0.00, 0.00, 0.00, 0.00, -0.19, 1.01
8, 0.00, 51588.99, 0.00, 0.00, 0.00, 0.00, 0.00, 0.00, 0.00, -0.19, 1.01
9, 0.00, 51610.02, 0.00, 0.00, 0.00, 0.00, 0.00, 0.00, -0.00, -0.19, 1.01
10, 0.00, 51681.34, 0.00, 0.00, 0.00, 0.00, 0.00, 0.00, -0.00, -0.19, 1.01
11, 0.00, 51679.22, 0.00, 0.00, 0.00, 0.00, 0.00, 0.00, -0.00, -0.19, 1.01
12, 0.00, 51624.62, 0.00, 0.00, 0.00, 0.00, 0.00, 0.00, -0.00, -0.19, 1.01
13, 0.00, 51617.35, 0.00, 0.00, 0.00, 0.00, 0.00, 0.00, -0.00, -0.19, 1.01
14, 0.00, 51681.81, 0.00, 0.00, 0.00, 0.00, 0.00, 0.00, 0.00, -0.19, 1.01
15, 0.00, 51689.37, 0.00, 0.00, 0.00, 0.00, 0.00, 0.00, 0.00, -0.19, 1.01
16, 0.00, 51640.89, 0.00, 0.00, 0.00, 0.00, 0.00, 0.00, 0.00, -0.19, 1.01
17, 0.00, 51612.66, 0.00, 0.00, 0.00, 0.00, 0.00, 0.00, 0.00, -0.19, 1.01
18, 0.00, 51673.63, 0.00, 0.00, 0.00, 0.00, 0.00, 0.00, 0.00, -0.19, 1.01
19, 0.00, 51707.12, 0.00, 0.00, 0.00, 0.00, 0.00, 0.00, 0.00, -0.19, 1.00
20, 0.00, 51648.15, 0.00, 0.00, 0.00, 0.00, 0.00, 0.00, 0.00, -0.19, 1.00
21, 0.00, 51616.82, 0.00, 0.00, 0.00, 0.00, 0.00, 0.00, 0.00, -0.19, 1.00
22, 0.00, 51682.35, 0.00, 0.00, 0.00, 0.00, 0.00, 0.00, 0.00, -0.19, 1.00
23, 0.00, 51718.87, 0.00, 0.00, 0.00, 0.00, 0.00, 0.00, 0.00, -0.19, 1.00
24, 0.00, 51671.35, 0.00, 0.00, 0.00, 0.00, 0.00, 0.00, 0.00, -0.18, 1.01
25, 0.00, 51625.87, 0.00, 0.00, 0.00, 0.00, 0.00, 0.00, 0.00, -0.18, 1.01
26, 0.00, 51662.88, 0.00, 0.00, 0.00, 0.00, 0.00, 0.00, 0.00, -0.18, 1.01
27, 0.00, 51715.41, 0.00, 0.00, 0.00, 0.00, 0.00, 0.00, 0.00, -0.18, 1.01
28, 0.00, 51682.66, 0.00, 0.00, 0.00, 0.00, 0.00, 0.00, 0.00, -0.18, 1.01
29, 0.00, 51634.23, 0.00, 0.00, 0.00, 0.00, 0.00, 0.00, 0.01, -0.18, 1.01
30, 0.00, 51653.45, 0.00, 0.00, 0.00, 0.00, 0.00, 0.00, 0.01, -0.18, 1.01
31, 0.00, 51720.46, 0.00, 0.00, 0.00, 0.00, 0.00, 0.00, 0.01, -0.18, 1.01
32, 0.00, 51701.33, 0.00, 0.00, 0.00, 0.00, 0.00, 0.00, 0.01, -0.18, 1.01
33, 0.00, 51633.18, 0.00, 0.00, 0.00, 0.00, 0.00, 0.00, 0.01, -0.18, 1.01
34, 0.00, 51645.76, 0.00, 0.00, 0.00, 0.00, 0.00, 0.00, 0.01, -0.19, 1.01
35, 0.00, 51712.39, 0.00, 0.00, 0.00, 0.00, 0.00, 0.00, 0.01, -0.19, 1.01
36, 0.00, 51711.54, 0.00, 0.00, 0.00, 0.00, 0.00, 0.00, 0.01, -0.19, 1.01
37, 0.00, 51647.84, 0.00, 0.00, 0.00, 0.00, 0.00, 0.00, 0.01, -0.19, 1.01
38, 0.00, 51640.78, 0.00, 0.00, 0.00, 0.00, 0.00, 0.00, 0.01, -0.19, 1.01
39, 0.00, 51703.45, 0.00, 0.00, 0.00, 0.00, 0.00, 0.00, 0.01, -0.19, 1.02
40, 0.00, 51725.76, 0.00, 0.00, 0.00, 0.00, 0.00, 0.00, 0.01, -0.19, 1.02
41, 0.00, 51665.88, 0.00, 0.00, 0.00, 0.00, 0.00, 0.00, 0.01, -0.19, 1.02
42, 0.00, 51638.50, 0.00, 0.00, 0.00, 0.00, 0.00, 0.00, 0.01, -0.19, 1.02
43, 0.00, 51697.15, 0.00, 0.00, 0.00, 0.00, 0.00, 0.00, 0.01, -0.19, 1.02
44, 0.00, 51724.98, 0.00, 0.00, 0.00, 0.00, 0.00, 0.00, 0.01, -0.18, 1.02
45, 0.00, 51670.50, 0.00, 0.00, 0.00, 0.00, 0.00, 0.00, 0.01, -0.18, 1.02
46, 0.00, 51630.23, 0.00, 0.00, 0.00, 0.00, 0.00, 0.00, 0.01, -0.18, 1.02
47, 0.00, 51677.72, 0.00, 0.00, 0.00, 0.00, 0.00, 0.00, 0.01, -0.18, 1.02
48, 0.00, 51728.48, 0.00, 0.00, 0.00, 0.00, 0.00, 0.00, 0.01, -0.18, 1.02
49, 0.00, 51687.60, 0.00, 0.00, 0.00, 0.00, 0.00, 0.00, 0.01, -0.19, 1.02
50, 0.00, 51633.42, 0.00, 0.00, 0.00, 0.00, 0.00, 0.00, 0.01, -0.19, 1.02
51, 0.00, 51667.89, 0.00, 0.00, 0.00, 0.00, 0.00, 0.00, 0.01, -0.19, 1.02
52, 0.00, 51720.79, 0.00, 0.00, 0.00, 0.00, 0.00, 0.00, 0.01, -0.19, 1.02
53, 0.00, 51693.17, 0.00, 0.00, 0.00, 0.00, 0.00, 0.00, 0.01, -0.19, 1.02
54, 0.00, 51628.26, 0.00, 0.00, 0.00, 0.00, 0.00, 0.00, 0.00, -0.18, 1.01
55, 0.00, 51642.12, 0.00, 0.00, 0.00, 0.00, 0.00, 0.00, 0.00, -0.18, 1.01
56, 0.00, 51716.08, 0.00, 0.00, 0.00, 0.00, 0.00, 0.00, 0.00, -0.18, 1.01
57, 0.00, 51701.62, 0.00, 0.00, 0.00, 0.00, 0.00, 0.00, 0.00, -0.18, 1.01
58, 0.00, 51638.18, 0.00, 0.00, 0.00, 0.00, 0.00, 0.00, 0.00, -0.18, 1.01
59, 0.00, 51648.53, 0.00, 0.00, 0.00, 0.00, 0.00, 0.00, 0.01, -0.19, 1.02
60, 0.00, 51710.87, 0.00, 0.00, 0.00, 0.00, 0.00, 0.00, 0.01, -0.19, 1.02
61, 0.00, 51712.79, 0.00, 0.00, 0.00, 0.00, 0.00, 0.00, 0.01, -0.19, 1.02
62, 0.00, 51646.34, 0.00, 0.00, 0.00, 0.00, 0.00, 0.00, 0.01, -0.19, 1.02
63, 0.00, 51645.11, 0.00, 0.00, 0.00, 0.00, 0.00, 0.00, 0.01, -0.19, 1.02
64, 0.00, 51697.41, 0.00, 0.00, 0.00, 0.00, 0.00, 0.00, 0.01, -0.18, 1.02
65, 0.00, 51690.66, 0.00, 0.00, 0.00, 0.00, 0.00, 0.00, 0.01, -0.18, 1.02
66, 0.00, 51642.54, 0.00, 0.00, 0.00, 0.00, 0.00, 0.00, 0.01, -0.18, 1.02
67, 0.00, 51630.43, 0.00, 0.00, 0.00, 0.00, 0.00, 0.00, 0.01, -0.18, 1.02
68, 0.00, 51680.74, 0.00, 0.00, 0.00, 0.00, 0.00, 0.00, 0.01, -0.18, 1.02
69, 0.00, 51715.03, 0.00, 0.00, 0.00, 0.00, 0.00, 0.00, 0.01, -0.18, 1.02
70, 0.00, 51672.49, 0.00, 0.00, 0.00, 0.00, 0.00, 0.00, 0.01, -0.18, 1.01
