%OpenBCI Raw EEG Data
%
%Sample Rate = 250.0 Hz
%First Column = SampleIndex
%Other Columns = EEG data in microvolts followed by Accel Data (in G) interleaved with Aux Data
0, 187500.00, 187500.00, 187500.00, -183484.69, 187500.00, 187500.00, -183742.27, 187500.00, 0.43, 0.07, -0.80
1, 187500.00, 187500.00, 187500.00, -181513.84, 187500.00, 187500.00, -181150.20, 187500.00, 0.43, 0.07, -0.80
2, 187500.00, 187500.00, 187500.00, -177428.61, 187500.00, 187500.00, -175524.88, 187500.00, 0.15, 0.01, -0.93
3, 187500.00, 187500.00, 187500.00, -178929.48, 187500.00, 187500.00, -177394.08, 187500.00, 0.15, 0.01, -0.93
4, 187500.00, 187500.00, 187500.00, -183250.72, 187500.00, 187500.00, -183319.50, 187500.00, 0.15, 0.01, -0.93
5, 187500.00, 187500.00, 187500.00, -182410.30, 187500.00, 187500.00, -182300.69, 187500.00, 0.15, 0.01, -0.93
6, 187500.00, 187500.00, 187500.00, -177983.45, 187500.00, 187500.00, -176232.34, 187500.00, 0.15, 0.01, -0.93
7, 187500.00, 187500.00, 187500.00, -178347.30, 187500.00, 187500.00, -176568.30, 187500.00, 0.16, 0.01, -0.93
8, 187500.00, 187500.00, 187500.00, -182816.23, 187500.00, 187500.00, -182658.47, 187500.00, 0.16, 0.01, -0.93
9, 187500.00, 187500.00, 187500.00, -183173.14, 187500.00, 187500.00, -183310.97, 187500.00, 0.16, 0.01, -0.93
10, 187500.00, 187500.00, 187500.00, -178624.55, 187500.00, 187500.00, -177122.34, 187500.00, 0.16, 0.01, -0.93
11, 187500.00, 187500.00, 187500.00, -177791.63, 187500.00, 187500.00, -175848.95, 187500.00, 0.16, 0.01, -0.93
12, 187500.00, 187500.00, 187500.00, -182073.03, 187500.00, 187500.00, -181633.91, 187500.00, 0.16, 0.01, -0.93
13, 187500.00, 187500.00, 187500.00, -183585.06, 187500.00, 187500.00, -183864.30, 187500.00, 0.16, 0.01, -0.93
14, 187500.00, 187500.00, 187500.00, -179332.31, 187500.00, 187500.00, -178116.16, 187500.00, 0.16, 0.01, -0.93
15, 187500.00, 187500.00, 187500.00, -177380.84, 187500.00, 187500.00, -175343.55, 187500.00, 0.16, 0.01, -0.93
16, 187500.00, 187500.00, 187500.00, -181189.36, 187500.00, 187500.00, -180439.19, 187500.00, 0.16, 0.01, -0.93
17, 187500.00, 187500.00, 187500.00, -183728.25, 187500.00, 187500.00, -184058.77, 187500.00, 0.16, 0.01, -0.93
18, 187500.00, 187500.00, 187500.00, -180101.50, 187500.00, 187500.00, -179189.14, 187500.00, 0.16, 0.01, -0.93
19, 187500.00, 187500.00, 187500.00, -177209.50, 187500.00, 187500.00, -175160.83, 187500.00, 0.16, 0.01, -0.93
20, 187500.00, 187500.00, 187500.00, -180342.83, 187500.00, 187500.00, -179298.47, 187500.00, 0.16, 0.01, -0.93
21, 187500.00, 187500.00, 187500.00, -183762.80, 187500.00, 187500.00, -184100.27, 187500.00, 0.16, 0.01, -0.93
22, 187500.00, 187500.00, 187500.00, -181024.58, 187500.00, 187500.00, -180476.38, 187500.00, 0.16, 0.01, -0.94
23, 187500.00, 187500.00, 187500.00, -177361.13, 187500.00, 187500.00, -175435.30, 187500.00, 0.16, 0.01, -0.94
24, 187500.00, 187500.00, 187500.00, -179632.47, 187500.00, 187500.00, -178393.48, 187500.00, 0.16, 0.01, -0.94
25, 187500.00, 187500.00, 187500.00, -183713.03, 187500.00, 187500.00, -184059.20, 187500.00, 0.16, 0.01, -0.94
26, 187500.00, 187500.00, 187500.00, -182060.00, 187500.00, 187500.00, -181943.63, 187500.00, 0.16, 0.01, -0.94
27, 187500.00, 187500.00, 187500.00, -177857.81, 187500.00, 187500.00, -176189.92, 187500.00, 0.16, 0.01, -0.93
28, 187500.00, 187500.00, 187500.00, -179107.14, 187500.00, 187500.00, -177762.88, 187500.00, 0.16, 0.01, -0.93
29, 187500.00, 187500.00, 187500.00, -183587.98, 187500.00, 187500.00, -183946.53, 187500.00, 0.16, 0.01, -0.93
30, 187500.00, 187500.00, 187500.00, -183164.41, 187500.00, 187500.00, -183543.25, 187500.00, 0.16, 0.01, -0.93
31, 187500.00, 187500.00, 187500.00, -178743.41, 187500.00, 187500.00, -177530.98, 187500.00, 0.16, 0.01, -0.93
32, 187500.00, 187500.00, 187500.00, -178895.53, 187500.00, 187500.00, -177621.38, 187500.00, 0.16, 0.00, -0.94
33, 187500.00, 187500.00, 187500.00, -183393.80, 187500.00, 187500.00, -183803.73, 187500.00, 0.16, 0.00, -0.94
34, 187500.00, 187500.00, 187500.00, -184169.52, 187500.00, 187500.00, -185061.06, 187500.00, 0.16, 0.00, -0.94
35, 187500.00, 187500.00, 187500.00, -179856.08, 187500.00, 187500.00, -179201.75, 187500.00, 0.16, 0.00, -0.94
36, 187500.00, 187500.00, 187500.00, -178890.19, 187500.00, 187500.00, -177777.03, 187500.00, 0.16, 0.00, -0.94
37, 187500.00, 187500.00, 187500.00, -183153.27, 187500.00, 187500.00, -183604.23, 187500.00, 0.16, 0.00, -0.93
38, 187500.00, 187500.00, 187500.00, -185082.41, 187500.00, 187500.00, -186470.88, 187500.00, 0.16, 0.00, -0.93
39, 187500.00, 187500.00, 187500.00, -181150.47, 187500.00, 187500.00, -181146.88, 187500.00, 0.16, 0.00, -0.93
40, 187500.00, 187500.00, 187500.00, -179082.23, 187500.00, 187500.00, -178216.98, 187500.00, 0.16, 0.00, -0.93
41, 187500.00, 187500.00, 187500.00, -182830.88, 187500.00, 187500.00, -183258.59, 187500.00, 0.16, 0.00, -0.93
42, 187500.00, 187500.00, 187500.00, -185751.63, 187500.00, 187500.00, -187313.58, 187500.00, 0.15, 0.01, -0.93
43, 187500.00, 187500.00, 187500.00, -182493.03, 187500.00, 187500.00, -183131.61, 187500.00, 0.15, 0.01, -0.93
44, 187500.00, 187500.00, 187500.00, -179459.38, 187500.00, 187500.00, -178887.53, 187500.00, 0.15, 0.01, -0.93
45, 187500.00, 187500.00, 187500.00, -182446.98, 187500.00, 187500.00, -182833.55, 187500.00, 0.15, 0.01, -0.93
46, 187500.00, 187500.00, 187500.00, -186152.42, 187500.00, 187500.00, -187500.02, 187500.00, 0.15, 0.01, -0.93
47, 187500.00, 187500.00, 187500.00, -183788.80, 187500.00, 187500.00, -184897.88, 187500.00, 0.15, 0.01, -0.93
48, 187500.00, 187500.00, 187500.00, -179952.88, 187500.00, 187500.00, -179736.58, 187500.00, 0.15, 0.01, -0.93
49, 187500.00, 187500.00, 187500.00, -181955.69, 187500.00, 187500.00, -182327.00, 187500.00, 0.15, 0.01, -0.93
50, 187500.00, 187500.00, 187500.00, -186144.25, 187500.00, 187500.00, -187387.94, 187500.00, 0.15, 0.01, -0.93
51, 187500.00, 187500.00, 187500.00, -184829.63, 187500.00, 187500.00, -186156.44, 187500.00, 0.15, 0.01, -0.93
52, 187500.00, 187500.00, 187500.00, -180389.77, 187500.00, 187500.00, -180519.34, 187500.00, 0.16, 0.00, -0.93
53, 187500.00, 187500.00, 187500.00, -181237.50, 187500.00, 187500.00, -181525.97, 187500.00, 0.16, 0.00, -0.93
54, 187500.00, 187500.00, 187500.00, -185668.80, 187500.00, 187500.00, -186899.45, 187500.00, 0.16, 0.00, -0.93
55, 187500.00, 187500.00, 187500.00, -185548.91, 187500.00, 187500.00, -186968.06, 187500.00, 0.16, 0.00, -0.93
56, 187500.00, 187500.00, 187500.00, -180924.53, 187500.00, 187500.00, -181368.55, 187500.00, 0.16, 0.00, -0.93
57, 187500.00, 187500.00, 187500.00, -180603.91, 187500.00, 187500.00, -180780.98, 187500.00, 0.16, 0.01, -0.93
58, 187500.00, 187500.00, 187500.00, -184958.05, 187500.00, 187500.00, -186186.27, 187500.00, 0.16, 0.01, -0.93
59, 187500.00, 187500.00, 187500.00, -185999.05, 187500.00, 187500.00, -187477.86, 187500.00, 0.16, 0.01, -0.93
60, 187500.00, 187500.00, 187500.00, -181522.63, 187500.00, 187500.00, -182239.27, 187500.00, 0.16, 0.01, -0.93
61, 187500.00, 187500.00, 187500.00, -180025.22, 187500.00, 187500.00, -180075.84, 187500.00, 0.16, 0.01, -0.93
62, 187500.00, 187500.00, 187500.00, -184014.53, 187500.00, 187500.00, -185181.45, 187500.00, 0.16, 0.00, -0.93
63, 187500.00, 187500.00, 187500.00, -186116.59, 187500.00, 187500.00, -187500.02, 187500.00, 0.16, 0.00, -0.93
64, 187500.00, 187500.00, 187500.00, -182123.73, 187500.00, 187500.00, -183079.59, 187500.00, 0.16, 0.00, -0.93
65, 187500.00, 187500.00, 187500.00, -179564.50, 187500.00, 187500.00, -179487.81, 187500.00, 0.16, 0.00, -0.93
66, 187500.00, 187500.00, 187500.00, -182955.59, 187500.00, 187500.00, -183915.69, 187500.00, 0.16, 0.00, -0.93
67, 187500.00, 187500.00, 187500.00, -185939.63, 187500.00, 187500.00, -187500.02, 187500.00, 0.16, 0.01, -0.94
68, 187500.00, 187500.00, 187500.00, -182707.48, 187500.00, 187500.00, -183874.47, 187500.00, 0.16, 0.01, -0.94
69, 187500.00, 187500.00, 187500.00, -179238.91, 187500.00, 187500.00, -179075.80, 187500.00, 0.16, 0.01, -0.94
70, 187500.00, 187500.00, 187500.00, -181871.06, 187500.00, 187500.00, -182502.64, 187500.00, 0.16, 0.01, -0.94
71, 187500.00, 187500.00, 187500.00, -185659.94, 187500.00, 187500.00, -187374.75, 187500.00, 0.16, 0.01, -0.94
72, 187500.00, 187500.00, 187500.00, -183041.64, 187500.00, 187500.00, -184284.78, 187500.00, 0.17, 0.00, -0.94
73, 187500.00, 187500.00, 187500.00, -178290.61, 187500.00, 187500.00, -177790.63, 187500.00, 0.17, 0.00, -0.94
74, 187500.00, 187500.00, 187500.00, -180032.98, 187500.00, 187500.00, -179991.33, 187500.00, 0.17, 0.00, -0.94
75, 187500.00, 187500.00, 187500.00, -184830.61, 187500.00, 187500.00, -186423.78, 187500.00, 0.17, 0.00, -0.94
76, 187500.00, 187500.00, 187500.00, -183627.00, 187500.00, 187500.00, -185052.41, 187500.00, 0.17, 0.00, -0.94
77, 187500.00, 187500.00, 187500.00, -178435.25, 187500.00, 187500.00, -177939.75, 187500.00, 0.16, 0.00, -0.94
78, 187500.00, 187500.00, 187500.00, -178920.95, 187500.00, 187500.00, -178409.70, 187500.00, 0.16, 0.00, -0.94
79, 187500.00, 187500.00, 187500.00, -183899.34, 187500.00, 187500.00, -185198.69, 187500.00, 0.16, 0.00, -0.94
80, 187500.00, 187500.00, 187500.00, -184043.19, 187500.00, 187500.00, -185618.88, 187500.00, 0.16, 0.00, -0.94
81, 187500.00, 187500.00, 187500.00, -178755.67, 187500.00, 187500.00, -178355.22, 187500.00, 0.16, 0.00, -0.94
82, 187500.00, 187500.00, 187500.00, -177891.88, 187500.00, 187500.00, -176994.77, 187500.00, 0.16, 0.01, -0.94
83, 187500.00, 187500.00, 187500.00, -182712.31, 187500.00, 187500.00, -183530.77, 187500.00, 0.16, 0.01, -0.94
84, 187500.00, 187500.00, 187500.00, -184182.19, 187500.00, 187500.00, -185726.94, 187500.00, 0.16, 0.01, -0.94
85, 187500.00, 187500.00, 187500.00, -179178.58, 187500.00, 187500.00, -178852.70, 187500.00, 0.16, 0.01, -0.94
86, 187500.00, 187500.00, 187500.00, -177001.58, 187500.00, 187500.00, -175693.52, 187500.00, 0.16, 0.01, -0.94
87, 187500.00, 187500.00, 187500.00, -181356.86, 187500.00, 187500.00, -181513.28, 187500.00, 0.16, 0.01, -0.94
88, 187500.00, 187500.00, 187500.00, -184061.63, 187500.00, 187500.00, -185351.97, 187500.00, 0.16, 0.01, -0.94
89, 187500.00, 187500.00, 187500.00, -179651.02, 187500.00, 187500.00, -179361.64, 187500.00, 0.16, 0.01, -0.94
90, 187500.00, 187500.00, 187500.00, -176266.55, 187500.00, 187500.00, -174591.58, 187500.00, 0.16, 0.01, -0.94
91, 187500.00, 187500.00, 187500.00, -179818.69, 187500.00, 187500.00, -179266.13, 187500.00, 0.16, 0.01, -0.94
92, 187500.00, 187500.00, 187500.00, -183540.14, 187500.00, 187500.00, -184450.52, 187500.00, 0.16, 0.01, -0.94
93, 187500.00, 187500.00, 187500.00, -180075.59, 187500.00, 187500.00, -179808.80, 187500.00, 0.16, 0.01, -0.94
94, 187500.00, 187500.00, 187500.00, -175708.78, 187500.00, 187500.00, -173746.50, 187500.00, 0.16, 0.01, -0.94
95, 187500.00, 187500.00, 187500.00, -178225.97, 187500.00, 187500.00, -176993.09, 187500.00, 0.16, 0.01, -0.94
96, 187500.00, 187500.00, 187500.00, -182725.27, 187500.00, 187500.00, -183184.14, 187500.00, 0.16, 0.01, -0.94
97, 187500.00, 187500.00, 187500.00, -180461.55, 187500.00, 187500.00, -180223.27, 187500.00, 0.17, 0.01, -0.93
98, 187500.00, 187500.00, 187500.00, -175432.94, 187500.00, 187500.00, -173322.28, 187500.00, 0.17, 0.01, -0.93
99, 187500.00, 187500.00, 187500.00, -176768.77, 187500.00, 187500.00, -174959.06, 187500.00, 0.17, 0.01, -0.93
100, 187500.00, 187500.00, 187500.00, -181748.59, 187500.00, 187500.00, -181735.75, 187500.00, 0.17, 0.01, -0.93
101, 187500.00, 187500.00, 187500.00, -180908.39, 187500.00, 187500.00, -180719.03, 187500.00, 0.17, 0.01, -0.93
102, 187500.00, 187500.00, 187500.00, -175642.70, 187500.00, 187500.00, -173504.94, 187500.00, 0.16, 0.01, -0.92
103, 187500.00, 187500.00, 187500.00, -175744.16, 187500.00, 187500.00, -173451.34, 187500.00, 0.16, 0.01, -0.92
104, 187500.00, 187500.00, 187500.00, -180841.72, 187500.00, 187500.00, -180318.33, 187500.00, 0.16, 0.01, -0.92
105, 187500.00, 187500.00, 187500.00, -181453.41, 187500.00, 187500.00, -181291.59, 187500.00, 0.16, 0.01, -0.92
106, 187500.00, 187500.00, 187500.00, -176251.81, 187500.00, 187500.00, -174212.22, 187500.00, 0.16, 0.01, -0.92
107, 187500.00, 187500.00, 187500.00, -175048.59, 187500.00, 187500.00, -172422.33, 187500.00, 0.16, 0.01, -0.93
108, 187500.00, 187500.00, 187500.00, -179941.58, 187500.00, 187500.00, -178983.27, 187500.00, 0.16, 0.01, -0.93
109, 187500.00, 187500.00, 187500.00, -181957.31, 187500.00, 187500.00, -181885.89, 187500.00, 0.16, 0.01, -0.93
110, 187500.00, 187500.00, 187500.00, -177237.38, 187500.00, 187500.00, -175521.69, 187500.00, 0.16, 0.01, -0.93
111, 187500.00, 187500.00, 187500.00, -174868.17, 187500.00, 187500.00, -172189.09, 187500.00, 0.16, 0.01, -0.93
112, 187500.00, 187500.00, 187500.00, -179209.27, 187500.00, 187500.00, -177971.41, 187500.00, 0.15, 0.01, -0.92
113, 187500.00, 187500.00, 187500.00, -182464.19, 187500.00, 187500.00, -182538.52, 187500.00, 0.15, 0.01, -0.92
114, 187500.00, 187500.00, 187500.00, -178504.88, 187500.00, 187500.00, -177220.81, 187500.00, 0.15, 0.01, -0.92
115, 187500.00, 187500.00, 187500.00, -175016.09, 187500.00, 187500.00, -172380.77, 187500.00, 0.15, 0.01, -0.92
116, 187500.00, 187500.00, 187500.00, -178500.44, 187500.00, 187500.00, -176970.75, 187500.00, 0.15, 0.01, -0.92
117, 187500.00, 187500.00, 187500.00, -182702.19, 187500.00, 187500.00, -182790.34, 187500.00, 0.15, 0.01, -0.93
118, 187500.00, 187500.00, 187500.00, -179825.56, 187500.00, 187500.00, -178984.77, 187500.00, 0.15, 0.01, -0.93
119, 187500.00, 187500.00, 187500.00, -175525.30, 187500.00, 187500.00, -173067.81, 187500.00, 0.15, 0.01, -0.93
120, 187500.00, 187500.00, 187500.00, -177959.59, 187500.00, 187500.00, -176214.69, 187500.00, 0.15, 0.01, -0.93
121, 187500.00, 187500.00, 187500.00, -182823.77, 187500.00, 187500.00, -182901.22, 187500.00, 0.15, 0.01, -0.93
122, 187500.00, 187500.00, 187500.00, -181191.64, 187500.00, 187500.00, -180820.47, 187500.00, 0.15, 0.01, -0.93
123, 187500.00, 187500.00, 187500.00, -176315.27, 187500.00, 187500.00, -174154.64, 187500.00, 0.15, 0.01, -0.93
124, 187500.00, 187500.00, 187500.00, -177536.44, 187500.00, 187500.00, -175657.22, 187500.00, 0.15, 0.01, -0.93
125, 187500.00, 187500.00, 187500.00, -182739.61, 187500.00, 187500.00, -182771.69, 187500.00, 0.15, 0.01, -0.93
126, 187500.00, 187500.00, 187500.00, -182460.84, 187500.00, 187500.00, -182567.36, 187500.00, 0.15, 0.01, -0.93
127, 187500.00, 187500.00, 187500.00, -177295.47, 187500.00, 187500.00, -175530.83, 187500.00, 0.16, 0.00, -0.93
128, 187500.00, 187500.00, 187500.00, -177199.61, 187500.00, 187500.00, -175248.63, 187500.00, 0.16, 0.00, -0.93
129, 187500.00, 187500.00, 187500.00, -182404.02, 187500.00, 187500.00, -182327.13, 187500.00, 0.16, 0.00, -0.93
130, 187500.00, 187500.00, 187500.00, -183489.63, 187500.00, 187500.00, -184012.16, 187500.00, 0.16, 0.00, -0.93
131, 187500.00, 187500.00, 187500.00, -178408.47, 187500.00, 187500.00, -177135.36, 187500.00, 0.16, 0.00, -0.93
132, 187500.00, 187500.00, 187500.00, -176936.38, 187500.00, 187500.00, -175015.63, 187500.00, 0.16, 0.00, -0.93
133, 187500.00, 187500.00, 187500.00, -181738.98, 187500.00, 187500.00, -181519.52, 187500.00, 0.16, 0.00, -0.93
134, 187500.00, 187500.00, 187500.00, -184099.63, 187500.00, 187500.00, -184942.44, 187500.00, 0.16, 0.00, -0.93
135, 187500.00, 187500.00, 187500.00, -179486.95, 187500.00, 187500.00, -178732.61, 187500.00, 0.16, 0.00, -0.93
136, 187500.00, 187500.00, 187500.00, -176746.91, 187500.00, 187500.00, -174891.80, 187500.00, 0.16, 0.00, -0.93
137, 187500.00, 187500.00, 187500.00, -180878.17, 187500.00, 187500.00, -180426.41, 187500.00, 0.16, 0.00, -0.93
138, 187500.00, 187500.00, 187500.00, -184350.36, 187500.00, 187500.00, -185344.44, 187500.00, 0.16, 0.00, -0.93
139, 187500.00, 187500.00, 187500.00, -180574.97, 187500.00, 187500.00, -180290.86, 187500.00, 0.16, 0.00, -0.93
140, 187500.00, 187500.00, 187500.00, -176742.44, 187500.00, 187500.00, -174973.41, 187500.00, 0.16, 0.00, -0.93
141, 187500.00, 187500.00, 187500.00, -179931.80, 187500.00, 187500.00, -179187.69, 187500.00, 0.16, 0.00, -0.93
142, 187500.00, 187500.00, 187500.00, -184278.13, 187500.00, 187500.00, -185264.34, 187500.00, 0.16, 0.00, -0.94
143, 187500.00, 187500.00, 187500.00, -181610.36, 187500.00, 187500.00, -181757.30, 187500.00, 0.16, 0.00, -0.94
144, 187500.00, 187500.00, 187500.00, -176956.94, 187500.00, 187500.00, -175340.36, 187500.00, 0.16, 0.00, -0.94
145, 187500.00, 187500.00, 187500.00, -179015.25, 187500.00, 187500.00, -177987.89, 187500.00, 0.16, 0.00, -0.94
146, 187500.00, 187500.00, 187500.00, -183946.36, 187500.00, 187500.00, -184815.14, 187500.00, 0.16, 0.00, -0.94
147, 187500.00, 187500.00, 187500.00, -182553.98, 187500.00, 187500.00, -183098.27, 187500.00, 0.15, 0.01, -0.93
148, 187500.00, 187500.00, 187500.00, -177398.70, 187500.00, 187500.00, -176043.70, 187500.00, 0.15, 0.01, -0.93
149, 187500.00, 187500.00, 187500.00, -178161.17, 187500.00, 187500.00, -176934.56, 187500.00, 0.15, 0.01, -0.93
150, 187500.00, 187500.00, 187500.00, -183309.09, 187500.00, 187500.00, -184000.36, 187500.00, 0.15, 0.01, -0.93
151, 187500.00, 187500.00, 187500.00, -183313.17, 187500.00, 187500.00, -184197.86, 187500.00, 0.15, 0.01, -0.93
152, 187500.00, 187500.00, 187500.00, -178042.13, 187500.00, 187500.00, -176991.86, 187500.00, 0.16, 0.01, -0.92
153, 187500.00, 187500.00, 187500.00, -177462.27, 187500.00, 187500.00, -176049.34, 187500.00, 0.16, 0.01, -0.92
154, 187500.00, 187500.00, 187500.00, -182486.97, 187500.00, 187500.00, -182873.14, 187500.00, 0.16, 0.01, -0.92
155, 187500.00, 187500.00, 187500.00, -183855.59, 187500.00, 187500.00, -184931.52, 187500.00, 0.16, 0.01, -0.92
156, 187500.00, 187500.00, 187500.00, -178831.36, 187500.00, 187500.00, -178091.27, 187500.00, 0.16, 0.01, -0.92
157, 187500.00, 187500.00, 187500.00, -176935.73, 187500.00, 187500.00, -175363.67, 187500.00, 0.16, 0.01, -0.92
158, 187500.00, 187500.00, 187500.00, -181516.44, 187500.00, 187500.00, -181519.67, 187500.00, 0.16, 0.01, -0.92
159, 187500.00, 187500.00, 187500.00, -184142.81, 187500.00, 187500.00, -185283.23, 187500.00, 0.16, 0.01, -0.92
160, 187500.00, 187500.00, 187500.00, -179713.25, 187500.00, 187500.00, -179302.11, 187500.00, 0.16, 0.01, -0.92
161, 187500.00, 187500.00, 187500.00, -176614.14, 187500.00, 187500.00, -174960.91, 187500.00, 0.16, 0.01, -0.92
162, 187500.00, 187500.00, 187500.00, -180458.19, 187500.00, 187500.00, -180086.13, 187500.00, 0.16, 0.01, -0.92
163, 187500.00, 187500.00, 187500.00, -184160.64, 187500.00, 187500.00, -185307.41, 187500.00, 0.16, 0.01, -0.92
164, 187500.00, 187500.00, 187500.00, -180642.33, 187500.00, 187500.00, -180626.39, 187500.00, 0.16, 0.01, -0.92
165, 187500.00, 187500.00, 187500.00, -176546.16, 187500.00, 187500.00, -174967.23, 187500.00, 0.16, 0.01, -0.92
166, 187500.00, 187500.00, 187500.00, -179384.08, 187500.00, 187500.00, -178715.53, 187500.00, 0.16, 0.01, -0.92
167, 187500.00, 187500.00, 187500.00, -183896.67, 187500.00, 187500.00, -185011.08, 187500.00, 0.16, 0.01, -0.92
168, 187500.00, 187500.00, 187500.00, -181580.92, 187500.00, 187500.00, -182009.89, 187500.00, 0.17, 0.02, -0.92
169, 187500.00, 187500.00, 187500.00, -176789.70, 187500.00, 187500.00, -175428.84, 187500.00, 0.17, 0.02, -0.92
170, 187500.00, 187500.00, 187500.00, -178500.52, 187500.00, 187500.00, -177603.25, 187500.00, 0.17, 0.02, -0.92
171, 187500.00, 187500.00, 187500.00, -183505.33, 187500.00, 187500.00, -184504.61, 187500.00, 0.17, 0.02, -0.92
172, 187500.00, 187500.00, 187500.00, -182558.33, 187500.00, 187500.00, -183386.98, 187500.00, 0.17, 0.02, -0.92
173, 187500.00, 187500.00, 187500.00, -177421.69, 187500.00, 187500.00, -176331.09, 187500.00, 0.16, 0.01, -0.93
174, 187500.00, 187500.00, 187500.00, -177845.69, 187500.00, 187500.00, -176743.48, 187500.00, 0.16, 0.01, -0.93
175, 187500.00, 187500.00, 187500.00, -183038.39, 187500.00, 187500.00, -183834.05, 187500.00, 0.16, 0.01, -0.93
176, 187500.00, 187500.00, 187500.00, -183505.84, 187500.00, 187500.00, -184659.88, 187500.00, 0.16, 0.01, -0.93
177, 187500.00, 187500.00, 187500.00, -178275.58, 187500.00, 187500.00, -177499.00, 187500.00, 0.16, 0.01, -0.93
178, 187500.00, 187500.00, 187500.00, -177332.97, 187500.00, 187500.00, -176054.45, 187500.00, 0.16, 0.01, -0.93
179, 187500.00, 187500.00, 187500.00, -182342.73, 187500.00, 187500.00, -182851.45, 187500.00, 0.16, 0.01, -0.93
180, 187500.00, 187500.00, 187500.00, -184172.31, 187500.00, 187500.00, -185562.95, 187500.00, 0.16, 0.01, -0.93
181, 187500.00, 187500.00, 187500.00, -179301.39, 187500.00, 187500.00, -178936.19, 187500.00, 0.16, 0.01, -0.93
182, 187500.00, 187500.00, 187500.00, -177084.84, 187500.00, 187500.00, -175777.55, 187500.00, 0.16, 0.01, -0.93
183, 187500.00, 187500.00, 187500.00, -181553.69, 187500.00, 187500.00, -181792.08, 187500.00, 0.16, 0.01, -0.92
184, 187500.00, 187500.00, 187500.00, -184593.73, 187500.00, 187500.00, -186150.81, 187500.00, 0.16, 0.01, -0.92
185, 187500.00, 187500.00, 187500.00, -180484.34, 187500.00, 187500.00, -180598.11, 187500.00, 0.16, 0.01, -0.92
186, 187500.00, 187500.00, 187500.00, -177160.55, 187500.00, 187500.00, -175941.95, 187500.00, 0.16, 0.01, -0.92
187, 187500.00, 187500.00, 187500.00, -180779.61, 187500.00, 187500.00, -180758.75, 187500.00, 0.16, 0.01, -0.92
188, 187500.00, 187500.00, 187500.00, -184796.80, 187500.00, 187500.00, -186416.81, 187500.00, 0.15, 0.01, -0.93
189, 187500.00, 187500.00, 187500.00, -181707.94, 187500.00, 187500.00, -182309.84, 187500.00, 0.15, 0.01, -0.93
190, 187500.00, 187500.00, 187500.00, -177475.59, 187500.00, 187500.00, -176396.97, 187500.00, 0.15, 0.01, -0.93
191, 187500.00, 187500.00, 187500.00, -180051.59, 187500.00, 187500.00, -179762.61, 187500.00, 0.15, 0.01, -0.93
192, 187500.00, 187500.00, 187500.00, -184781.17, 187500.00, 187500.00, -186294.77, 187500.00, 0.15, 0.01, -0.93
193, 187500.00, 187500.00, 187500.00, -182918.22, 187500.00, 187500.00, -183954.88, 187500.00, 0.15, 0.01, -0.93
194, 187500.00, 187500.00, 187500.00, -178032.39, 187500.00, 187500.00, -177174.36, 187500.00, 0.15, 0.01, -0.93
195, 187500.00, 187500.00, 187500.00, -179380.70, 187500.00, 187500.00, -178852.81, 187500.00, 0.15, 0.01, -0.93
196, 187500.00, 187500.00, 187500.00, -184453.70, 187500.00, 187500.00, -185766.17, 187500.00, 0.15, 0.01, -0.93
197, 187500.00, 187500.00, 187500.00, -183914.42, 187500.00, 187500.00, -185273.89, 187500.00, 0.15, 0.01, -0.93
198, 187500.00, 187500.00, 187500.00, -178707.64, 187500.00, 187500.00, -178138.75, 187500.00, 0.16, 0.01, -0.93
199, 187500.00, 187500.00, 187500.00, -178743.70, 187500.00, 187500.00, -178015.23, 187500.00, 0.16, 0.01, -0.93
200, 187500.00, 187500.00, 187500.00, -183859.61, 187500.00, 187500.00, -184913.50, 187500.00, 0.16, 0.01, -0.93
201, 187500.00, 187500.00, 187500.00, -184706.67, 187500.00, 187500.00, -186269.19, 187500.00, 0.16, 0.01, -0.93
202, 187500.00, 187500.00, 187500.00, -179582.16, 187500.00, 187500.00, -179345.19, 187500.00, 0.16, 0.01, -0.93
203, 187500.00, 187500.00, 187500.00, -178284.48, 187500.00, 187500.00, -177397.39, 187500.00, 0.15, 0.01, -0.93
204, 187500.00, 187500.00, 187500.00, -183109.66, 187500.00, 187500.00, -183854.89, 187500.00, 0.15, 0.01, -0.93
205, 187500.00, 187500.00, 187500.00, -185250.30, 187500.00, 187500.00, -186885.48, 187500.00, 0.15, 0.01, -0.93
206, 187500.00, 187500.00, 187500.00, -180566.66, 187500.00, 187500.00, -180653.88, 187500.00, 0.15, 0.01, -0.93
207, 187500.00, 187500.00, 187500.00, -177984.50, 187500.00, 187500.00, -176949.61, 187500.00, 0.15, 0.01, -0.93
208, 187500.00, 187500.00, 187500.00, -182189.59, 187500.00, 187500.00, -182528.19, 187500.00, 0.16, 0.01, -0.93
209, 187500.00, 187500.00, 187500.00, -185485.59, 187500.00, 187500.00, -187068.41, 187500.00, 0.16, 0.01, -0.93
210, 187500.00, 187500.00, 187500.00, -181553.42, 187500.00, 187500.00, -181906.89, 187500.00, 0.16, 0.01, -0.93
211, 187500.00, 187500.00, 187500.00, -177837.98, 187500.00, 187500.00, -176675.45, 187500.00, 0.16, 0.01, -0.93
212, 187500.00, 187500.00, 187500.00, -181149.06, 187500.00, 187500.00, -181031.48, 187500.00, 0.16, 0.01, -0.93
213, 187500.00, 187500.00, 187500.00, -185360.59, 187500.00, 187500.00, -186816.45, 187500.00, 0.16, 0.01, -0.93
214, 187500.00, 187500.00, 187500.00, -182504.88, 187500.00, 187500.00, -183111.91, 187500.00, 0.16, 0.01, -0.93
215, 187500.00, 187500.00, 187500.00, -177891.53, 187500.00, 187500.00, -176694.09, 187500.00, 0.16, 0.01, -0.93
216, 187500.00, 187500.00, 187500.00, -180046.11, 187500.00, 187500.00, -179468.20, 187500.00, 0.16, 0.01, -0.93
217, 187500.00, 187500.00, 187500.00, -184853.70, 187500.00, 187500.00, -186096.45, 187500.00, 0.16, 0.01, -0.93
218, 187500.00, 187500.00, 187500.00, -183261.77, 187500.00, 187500.00, -184108.00, 187500.00, 0.16, 0.01, -0.94
219, 187500.00, 187500.00, 187500.00, -178089.63, 187500.00, 187500.00, -176940.47, 187500.00, 0.16, 0.01, -0.94
220, 187500.00, 187500.00, 187500.00, -178970.61, 187500.00, 187500.00, -177958.25, 187500.00, 0.16, 0.01, -0.94
221, 187500.00, 187500.00, 187500.00, -184041.06, 187500.00, 187500.00, -184907.28, 187500.00, 0.16, 0.01, -0.94
222, 187500.00, 187500.00, 187500.00, -183831.67, 187500.00, 187500.00, -184800.39, 187500.00, 0.16, 0.01, -0.94
223, 187500.00, 187500.00, 187500.00, -178493.63, 187500.00, 187500.00, -177466.59, 187500.00, 0.16, 0.01, -0.95
224, 187500.00, 187500.00, 187500.00, -178028.31, 187500.00, 187500.00, -176676.92, 187500.00, 0.16, 0.01, -0.95
225, 187500.00, 187500.00, 187500.00, -183036.69, 187500.00, 187500.00, -183488.95, 187500.00, 0.16, 0.01, -0.95
226, 187500.00, 187500.00, 187500.00, -184173.94, 187500.00, 187500.00, -185236.52, 187500.00, 0.16, 0.01, -0.95
227, 187500.00, 187500.00, 187500.00, -179047.64, 187500.00, 187500.00, -178246.19, 187500.00, 0.16, 0.01, -0.95
228, 187500.00, 187500.00, 187500.00, -177284.06, 187500.00, 187500.00, -175700.64, 187500.00, 0.16, 0.01, -0.94
229, 187500.00, 187500.00, 187500.00, -181901.78, 187500.00, 187500.00, -181920.03, 187500.00, 0.16, 0.01, -0.94
230, 187500.00, 187500.00, 187500.00, -184364.20, 187500.00, 187500.00, -185451.45, 187500.00, 0.16, 0.01, -0.94
231, 187500.00, 187500.00, 187500.00, -179842.48, 187500.00, 187500.00, -179324.17, 187500.00, 0.16, 0.01, -0.94
232, 187500.00, 187500.00, 187500.00, -176929.77, 187500.00, 187500.00, -175231.92, 187500.00, 0.16, 0.01, -0.94
233, 187500.00, 187500.00, 187500.00, -180875.47, 187500.00, 187500.00, -180503.98, 187500.00, 0.17, 0.01, -0.95
234, 187500.00, 187500.00, 187500.00, -184435.08, 187500.00, 187500.00, -185523.89, 187500.00, 0.17, 0.01, -0.95
235, 187500.00, 187500.00, 187500.00, -180837.59, 187500.00, 187500.00, -180687.41, 187500.00, 0.17, 0.01, -0.95
236, 187500.00, 187500.00, 187500.00, -176903.08, 187500.00, 187500.00, -175198.47, 187500.00, 0.17, 0.01, -0.95
237, 187500.00, 187500.00, 187500.00, -179916.31, 187500.00, 187500.00, -179136.58, 187500.00, 0.17, 0.01, -0.95
238, 187500.00, 187500.00, 187500.00, -184352.73, 187500.00, 187500.00, -185312.20, 187500.00, 0.16, 0.00, -0.93
239, 187500.00, 187500.00, 187500.00, -181879.36, 187500.00, 187500.00, -182076.39, 187500.00, 0.16, 0.00, -0.93
240, 187500.00, 187500.00, 187500.00, -177167.05, 187500.00, 187500.00, -175605.78, 187500.00, 0.16, 0.00, -0.93
241, 187500.00, 187500.00, 187500.00, -179006.59, 187500.00, 187500.00, -177987.89, 187500.00, 0.16, 0.00, -0.93
242, 187500.00, 187500.00, 187500.00, -183944.88, 187500.00, 187500.00, -184841.75, 187500.00, 0.16, 0.00, -0.93
243, 187500.00, 187500.00, 187500.00, -182773.72, 187500.00, 187500.00, -183434.75, 187500.00, 0.16, 0.00, -0.93
244, 187500.00, 187500.00, 187500.00, -177621.11, 187500.00, 187500.00, -176388.27, 187500.00, 0.16, 0.00, -0.93
245, 187500.00, 187500.00, 187500.00, -178180.41, 187500.00, 187500.00, -177001.89, 187500.00, 0.16, 0.00, -0.93
246, 187500.00, 187500.00, 187500.00, -183298.95, 187500.00, 187500.00, -184004.78, 187500.00, 0.16, 0.00, -0.93
247, 187500.00, 187500.00, 187500.00, -183498.22, 187500.00, 187500.00, -184470.91, 187500.00, 0.16, 0.00, -0.93
248, 187500.00, 187500.00, 187500.00, -178277.19, 187500.00, 187500.00, -177356.34, 187500.00, 0.16, 0.01, -0.93
249, 187500.00, 187500.00, 187500.00, -177498.23, 187500.00, 187500.00, -176173.34, 187500.00, 0.16, 0.01, -0.93
250, 187500.00, 187500.00, 187500.00, -182438.55, 187500.00, 187500.00, -182908.23, 187500.00, 0.16, 0.01, -0.93
251, 187500.00, 187500.00, 187500.00, -183981.88, 187500.00, 187500.00, -185242.73, 187500.00, 0.16, 0.01, -0.93
252, 187500.00, 187500.00, 187500.00, -179024.45, 187500.00, 187500.00, -178520.00, 187500.00, 0.16, 0.01, -0.93
253, 187500.00, 187500.00, 187500.00, -176935.67, 187500.00, 187500.00, -175539.02, 187500.00, 0.16, 0.01, -0.94
254, 187500.00, 187500.00, 187500.00, -181407.16, 187500.00, 187500.00, -181533.95, 187500.00, 0.16, 0.01, -0.94
255, 187500.00, 187500.00, 187500.00, -184180.73, 187500.00, 187500.00, -185479.78, 187500.00, 0.16, 0.01, -0.94
0, 187500.00, 187500.00, 187500.00, -179905.39, 187500.00, 187500.00, -179683.08, 187500.00, 0.16, 0.01, -0.94
1, 187500.00, 187500.00, 187500.00, -176724.08, 187500.00, 187500.00, -175200.77, 187500.00, 0.16, 0.01, -0.94
2, 187500.00, 187500.00, 187500.00, -180437.31, 187500.00, 187500.00, -180129.47, 187500.00, 0.16, 0.01, -0.94
3, 187500.00, 187500.00, 187500.00, -184267.03, 187500.00, 187500.00, -185516.25, 187500.00, 0.16, 0.01, -0.94
4, 187500.00, 187500.00, 187500.00, -180936.78, 187500.00, 187500.00, -181075.61, 187500.00, 0.16, 0.01, -0.94
5, 187500.00, 187500.00, 187500.00, -176786.06, 187500.00, 187500.00, -175295.66, 187500.00, 0.16, 0.01, -0.94
6, 187500.00, 187500.00, 187500.00, -179503.36, 187500.00, 187500.00, -178825.70, 187500.00, 0.16, 0.01, -0.94
7, 187500.00, 187500.00, 187500.00, -184081.73, 187500.00, 187500.00, -185158.58, 187500.00, 0.16, 0.01, -0.93
8, 187500.00, 187500.00, 187500.00, -181982.22, 187500.00, 187500.00, -182395.03, 187500.00, 0.16, 0.01, -0.93
9, 187500.00, 187500.00, 187500.00, -177157.42, 187500.00, 187500.00, -175714.48, 187500.00, 0.16, 0.01, -0.93
10, 187500.00, 187500.00, 187500.00, -178663.36, 187500.00, 187500.00, -177577.98, 187500.00, 0.16, 0.01, -0.93
11, 187500.00, 187500.00, 187500.00, -183669.53, 187500.00, 187500.00, -184452.41, 187500.00, 0.16, 0.01, -0.93
12, 187500.00, 187500.00, 187500.00, -182895.67, 187500.00, 187500.00, -183541.97, 187500.00, 0.16, 0.01, -0.94
13, 187500.00, 187500.00, 187500.00, -177700.09, 187500.00, 187500.00, -176398.33, 187500.00, 0.16, 0.01, -0.94
14, 187500.00, 187500.00, 187500.00, -177917.33, 187500.00, 187500.00, -176519.63, 187500.00, 0.16, 0.01, -0.94
15, 187500.00, 187500.00, 187500.00, -183017.89, 187500.00, 187500.00, -183484.03, 187500.00, 0.16, 0.01, -0.94
16, 187500.00, 187500.00, 187500.00, -183602.19, 187500.00, 187500.00, -184469.75, 187500.00, 0.16, 0.01, -0.94
17, 187500.00, 187500.00, 187500.00, -178448.77, 187500.00, 187500.00, -177422.05, 187500.00, 0.16, -0.00, -0.93
18, 187500.00, 187500.00, 187500.00, -177341.22, 187500.00, 187500.00, -175745.55, 187500.00, 0.16, -0.00, -0.93
19, 187500.00, 187500.00, 187500.00, -182202.89, 187500.00, 187500.00, -182317.42, 187500.00, 0.16, -0.00, -0.93
20, 187500.00, 187500.00, 187500.00, -184150.23, 187500.00, 187500.00, -185150.25, 187500.00, 0.16, -0.00, -0.93
21, 187500.00, 187500.00, 187500.00, -179394.33, 187500.00, 187500.00, -178672.59, 187500.00, 0.16, -0.00, -0.93
22, 187500.00, 187500.00, 187500.00, -177029.52, 187500.00, 187500.00, -175290.08, 187500.00, 0.15, 0.00, -0.93
23, 187500.00, 187500.00, 187500.00, -181312.89, 187500.00, 187500.00, -181017.20, 187500.00, 0.15, 0.00, -0.93
24, 187500.00, 187500.00, 187500.00, -184389.02, 187500.00, 187500.00, -185375.59, 187500.00, 0.15, 0.00, -0.93
25, 187500.00, 187500.00, 187500.00, -180345.42, 187500.00, 187500.00, -179907.95, 187500.00, 0.15, 0.00, -0.93
26, 187500.00, 187500.00, 187500.00, -176848.83, 187500.00, 187500.00, -175007.05, 187500.00, 0.15, 0.00, -0.93
27, 187500.00, 187500.00, 187500.00, -180296.77, 187500.00, 187500.00, -179547.28, 187500.00, 0.16, 0.01, -0.93
28, 187500.00, 187500.00, 187500.00, -184326.14, 187500.00, 187500.00, -185162.25, 187500.00, 0.16, 0.01, -0.93
29, 187500.00, 187500.00, 187500.00, -181313.59, 187500.00, 187500.00, -181129.28, 187500.00, 0.16, 0.01, -0.93
30, 187500.00, 187500.00, 187500.00, -176987.28, 187500.00, 187500.00, -175113.02, 187500.00, 0.16, 0.01, -0.93
31, 187500.00, 187500.00, 187500.00, -179391.39, 187500.00, 187500.00, -178193.55, 187500.00, 0.16, 0.01, -0.93
32, 187500.00, 187500.00, 187500.00, -184078.59, 187500.00, 187500.00, -184651.33, 187500.00, 0.16, 0.01, -0.93
33, 187500.00, 187500.00, 187500.00, -182259.45, 187500.00, 187500.00, -182280.89, 187500.00, 0.16, 0.01, -0.93
34, 187500.00, 187500.00, 187500.00, -177306.86, 187500.00, 187500.00, -175456.58, 187500.00, 0.16, 0.01, -0.93
35, 187500.00, 187500.00, 187500.00, -178462.05, 187500.00, 187500.00, -176839.22, 187500.00, 0.16, 0.01, -0.93
36, 187500.00, 187500.00, 187500.00, -183476.09, 187500.00, 187500.00, -183700.42, 187500.00, 0.16, 0.01, -0.93
37, 187500.00, 187500.00, 187500.00, -182985.88, 187500.00, 187500.00, -183196.17, 187500.00, 0.16, 0.00, -0.93
38, 187500.00, 187500.00, 187500.00, -177758.59, 187500.00, 187500.00, -176042.38, 187500.00, 0.16, 0.00, -0.93
39, 187500.00, 187500.00, 187500.00, -177619.03, 187500.00, 187500.00, -175674.11, 187500.00, 0.16, 0.00, -0.93
40, 187500.00, 187500.00, 187500.00, -182681.67, 187500.00, 187500.00, -182546.75, 187500.00, 0.16, 0.00, -0.93
41, 187500.00, 187500.00, 187500.00, -183614.19, 187500.00, 187500.00, -183987.58, 187500.00, 0.16, 0.00, -0.93
42, 187500.00, 187500.00, 187500.00, -178498.77, 187500.00, 187500.00, -177012.59, 187500.00, 0.16, 0.00, -0.93
43, 187500.00, 187500.00, 187500.00, -177004.89, 187500.00, 187500.00, -174806.59, 187500.00, 0.16, 0.00, -0.93
44, 187500.00, 187500.00, 187500.00, -181721.67, 187500.00, 187500.00, -181136.77, 187500.00, 0.16, 0.00, -0.93
45, 187500.00, 187500.00, 187500.00, -183912.41, 187500.00, 187500.00, -184284.06, 187500.00, 0.16, 0.00, -0.93
46, 187500.00, 187500.00, 187500.00, -179298.73, 187500.00, 187500.00, -178029.14, 187500.00, 0.16, 0.00, -0.93
47, 187500.00, 187500.00, 187500.00, -176621.80, 187500.00, 187500.00, -174234.72, 187500.00, 0.16, 0.00, -0.94
48, 187500.00, 187500.00, 187500.00, -180691.83, 187500.00, 187500.00, -179647.88, 187500.00, 0.16, 0.00, -0.94
49, 187500.00, 187500.00, 187500.00, -184040.09, 187500.00, 187500.00, -184370.89, 187500.00, 0.16, 0.00, -0.94
50, 187500.00, 187500.00, 187500.00, -180215.38, 187500.00, 187500.00, -179249.58, 187500.00, 0.16, 0.00, -0.94
51, 187500.00, 187500.00, 187500.00, -176450.78, 187500.00, 187500.00, -174020.44, 187500.00, 0.16, 0.00, -0.94
52, 187500.00, 187500.00, 187500.00, -179613.61, 187500.00, 187500.00, -178172.88, 187500.00, 0.16, 0.01, -0.94
53, 187500.00, 187500.00, 187500.00, -183843.27, 187500.00, 187500.00, -184052.75, 187500.00, 0.16, 0.01, -0.94
54, 187500.00, 187500.00, 187500.00, -181143.20, 187500.00, 187500.00, -180493.84, 187500.00, 0.16, 0.01, -0.94
55, 187500.00, 187500.00, 187500.00, -176589.44, 187500.00, 187500.00, -174231.58, 187500.00, 0.16, 0.01, -0.94
56, 187500.00, 187500.00, 187500.00, -178679.50, 187500.00, 187500.00, -176900.95, 187500.00, 0.16, 0.01, -0.94
57, 187500.00, 187500.00, 187500.00, -183580.22, 187500.00, 187500.00, -183640.52, 187500.00, 0.16, 0.00, -0.94
58, 187500.00, 187500.00, 187500.00, -182192.30, 187500.00, 187500.00, -181896.02, 187500.00, 0.16, 0.00, -0.94
59, 187500.00, 187500.00, 187500.00, -177117.09, 187500.00, 187500.00, -174951.55, 187500.00, 0.16, 0.00, -0.94
60, 187500.00, 187500.00, 187500.00, -177940.38, 187500.00, 187500.00, -175899.22, 187500.00, 0.16, 0.00, -0.94
61, 187500.00, 187500.00, 187500.00, -183039.25, 187500.00, 187500.00, -182865.52, 187500.00, 0.16, 0.00, -0.94
62, 187500.00, 187500.00, 187500.00, -183014.42, 187500.00, 187500.00, -183006.17, 187500.00, 0.16, 0.01, -0.93
63, 187500.00, 187500.00, 187500.00, -177799.20, 187500.00, 187500.00, -175912.84, 187500.00, 0.16, 0.01, -0.93
64, 187500.00, 187500.00, 187500.00, -177293.31, 187500.00, 187500.00, -175071.69, 187500.00, 0.16, 0.01, -0.93
65, 187500.00, 187500.00, 187500.00, -182329.98, 187500.00, 187500.00, -181915.28, 187500.00, 0.16, 0.01, -0.93
66, 187500.00, 187500.00, 187500.00, -183680.91, 187500.00, 187500.00, -183968.08, 187500.00, 0.16, 0.01, -0.93
67, 187500.00, 187500.00, 187500.00, -178668.70, 187500.00, 187500.00, -177196.00, 187500.00, 0.15, 0.01, -0.93
68, 187500.00, 187500.00, 187500.00, -176854.97, 187500.00, 187500.00, -174604.16, 187500.00, 0.15, 0.01, -0.93
69, 187500.00, 187500.00, 187500.00, -181448.53, 187500.00, 187500.00, -180798.09, 187500.00, 0.15, 0.01, -0.93
70, 187500.00, 187500.00, 187500.00, -184018.19, 187500.00, 187500.00, -184503.61, 187500.00, 0.15, 0.01, -0.93
71, 187500.00, 187500.00, 187500.00, -179608.70, 187500.00, 187500.00, -178572.97, 187500.00, 0.15, 0.01, -0.93
72, 187500.00, 187500.00, 187500.00, -176581.69, 187500.00, 187500.00, -174339.05, 187500.00, 0.16, 0.01, -0.93
73, 187500.00, 187500.00, 187500.00, -180441.72, 187500.00, 187500.00, -179471.27, 187500.00, 0.16, 0.01, -0.93
74, 187500.00, 187500.00, 187500.00, -184105.66, 187500.00, 187500.00, -184615.88, 187500.00, 0.16, 0.01, -0.93
75, 187500.00, 187500.00, 187500.00, -180606.42, 187500.00, 187500.00, -179940.45, 187500.00, 0.16, 0.01, -0.93
76, 187500.00, 187500.00, 187500.00, -176623.55, 187500.00, 187500.00, -174409.22, 187500.00, 0.16, 0.01, -0.93
77, 187500.00, 187500.00, 187500.00, -179502.58, 187500.00, 187500.00, -178167.22, 187500.00, 0.15, 0.00, -0.94
78, 187500.00, 187500.00, 187500.00, -183945.58, 187500.00, 187500.00, -184330.81, 187500.00, 0.15, 0.00, -0.94
79, 187500.00, 187500.00, 187500.00, -181577.34, 187500.00, 187500.00, -181231.53, 187500.00, 0.15, 0.00, -0.94
80, 187500.00, 187500.00, 187500.00, -176824.22, 187500.00, 187500.00, -174694.80, 187500.00, 0.15, 0.00, -0.94
81, 187500.00, 187500.00, 187500.00, -178561.33, 187500.00, 187500.00, -176887.28, 187500.00, 0.15, 0.00, -0.94
82, 187500.00, 187500.00, 187500.00, -183475.20, 187500.00, 187500.00, -183648.88, 187500.00, 0.16, 0.00, -0.94
83, 187500.00, 187500.00, 187500.00, -182393.72, 187500.00, 187500.00, -182344.63, 187500.00, 0.16, 0.00, -0.94
84, 187500.00, 187500.00, 187500.00, -177230.78, 187500.00, 187500.00, -175298.44, 187500.00, 0.16, 0.00, -0.94
85, 187500.00, 187500.00, 187500.00, -177654.03, 187500.00, 187500.00, -175730.39, 187500.00, 0.16, 0.00, -0.94
86, 187500.00, 187500.00, 187500.00, -182714.31, 187500.00, 187500.00, -182655.14, 187500.00, 0.16, 0.00, -0.94
87, 187500.00, 187500.00, 187500.00, -183009.64, 187500.00, 187500.00, -183257.75, 187500.00, 0.16, 0.01, -0.94
88, 187500.00, 187500.00, 187500.00, -177804.92, 187500.00, 187500.00, -176169.45, 187500.00, 0.16, 0.01, -0.94
89, 187500.00, 187500.00, 187500.00, -176945.20, 187500.00, 187500.00, -174832.34, 187500.00, 0.16, 0.01, -0.94
90, 187500.00, 187500.00, 187500.00, -181900.41, 187500.00, 187500.00, -181519.16, 187500.00, 0.16, 0.01, -0.94
91, 187500.00, 187500.00, 187500.00, -183567.70, 187500.00, 187500.00, -183967.38, 187500.00, 0.16, 0.01, -0.94
92, 187500.00, 187500.00, 187500.00, -178657.52, 187500.00, 187500.00, -177322.22, 187500.00, 0.17, 0.01, -0.94
93, 187500.00, 187500.00, 187500.00, -176454.14, 187500.00, 187500.00, -174196.95, 187500.00, 0.17, 0.01, -0.94
94, 187500.00, 187500.00, 187500.00, -180871.45, 187500.00, 187500.00, -180116.91, 187500.00, 0.17, 0.01, -0.94
95, 187500.00, 187500.00, 187500.00, -183784.84, 187500.00, 187500.00, -184267.89, 187500.00, 0.17, 0.01, -0.94
96, 187500.00, 187500.00, 187500.00, -179578.14, 187500.00, 187500.00, -178622.38, 187500.00, 0.17, 0.01, -0.94
97, 187500.00, 187500.00, 187500.00, -176257.20, 187500.00, 187500.00, -173995.41, 187500.00, 0.16, 0.01, -0.93
98, 187500.00, 187500.00, 187500.00, -179880.55, 187500.00, 187500.00, -178810.59, 187500.00, 0.16, 0.01, -0.93
99, 187500.00, 187500.00, 187500.00, -183776.06, 187500.00, 187500.00, -184282.64, 187500.00, 0.16, 0.01, -0.93
100, 187500.00, 187500.00, 187500.00, -180550.56, 187500.00, 187500.00, -180027.47, 187500.00, 0.16, 0.01, -0.93
101, 187500.00, 187500.00, 187500.00, -176341.00, 187500.00, 187500.00, -174227.50, 187500.00, 0.16, 0.01, -0.93
102, 187500.00, 187500.00, 187500.00, -178937.80, 187500.00, 187500.00, -177608.44, 187500.00, 0.16, 0.01, -0.94
103, 187500.00, 187500.00, 187500.00, -183565.61, 187500.00, 187500.00, -184019.53, 187500.00, 0.16, 0.01, -0.94
104, 187500.00, 187500.00, 187500.00, -181548.11, 187500.00, 187500.00, -181427.25, 187500.00, 0.16, 0.01, -0.94
105, 187500.00, 187500.00, 187500.00, -176648.83, 187500.00, 187500.00, -174715.36, 187500.00, 0.16, 0.01, -0.94
106, 187500.00, 187500.00, 187500.00, -178044.31, 187500.00, 187500.00, -176449.38, 187500.00, 0.16, 0.01, -0.94
107, 187500.00, 187500.00, 187500.00, -183082.11, 187500.00, 187500.00, -183357.72, 187500.00, 0.16, 0.01, -0.93
108, 187500.00, 187500.00, 187500.00, -182409.94, 187500.00, 187500.00, -182613.83, 187500.00, 0.16, 0.01, -0.93
109, 187500.00, 187500.00, 187500.00, -177232.52, 187500.00, 187500.00, -175528.47, 187500.00, 0.16, 0.01, -0.93
110, 187500.00, 187500.00, 187500.00, -177325.39, 187500.00, 187500.00, -175486.38, 187500.00, 0.16, 0.01, -0.93
111, 187500.00, 187500.00, 187500.00, -182422.91, 187500.00, 187500.00, -182416.20, 187500.00, 0.16, 0.01, -0.93
112, 187500.00, 187500.00, 187500.00, -183141.45, 187500.00, 187500.00, -183573.91, 187500.00, 0.16, 0.01, -0.93
113, 187500.00, 187500.00, 187500.00, -178029.98, 187500.00, 187500.00, -176608.91, 187500.00, 0.16, 0.01, -0.93
114, 187500.00, 187500.00, 187500.00, -176831.70, 187500.00, 187500.00, -174808.94, 187500.00, 0.16, 0.01, -0.93
115, 187500.00, 187500.00, 187500.00, -181657.97, 187500.00, 187500.00, -181296.25, 187500.00, 0.16, 0.01, -0.93
116, 187500.00, 187500.00, 187500.00, -183711.16, 187500.00, 187500.00, -184255.48, 187500.00, 0.16, 0.01, -0.93
117, 187500.00, 187500.00, 187500.00, -179023.16, 187500.00, 187500.00, -177898.83, 187500.00, 0.16, 0.01, -0.93
118, 187500.00, 187500.00, 187500.00, -176545.06, 187500.00, 187500.00, -174380.84, 187500.00, 0.16, 0.01, -0.93
119, 187500.00, 187500.00, 187500.00, -180802.78, 187500.00, 187500.00, -180062.45, 187500.00, 0.16, 0.01, -0.93
120, 187500.00, 187500.00, 187500.00, -184086.06, 187500.00, 187500.00, -184694.22, 187500.00, 0.16, 0.01, -0.93
121, 187500.00, 187500.00, 187500.00, -180177.98, 187500.00, 187500.00, -179435.38, 187500.00, 0.16, 0.01, -0.93
122, 187500.00, 187500.00, 187500.00, -176606.06, 187500.00, 187500.00, -174447.84, 187500.00, 0.16, 0.01, -0.93
123, 187500.00, 187500.00, 187500.00, -179983.70, 187500.00, 187500.00, -178908.52, 187500.00, 0.16, 0.01, -0.93
124, 187500.00, 187500.00, 187500.00, -184185.67, 187500.00, 187500.00, -184782.84, 187500.00, 0.16, 0.01, -0.93
125, 187500.00, 187500.00, 187500.00, -181322.34, 187500.00, 187500.00, -181002.88, 187500.00, 0.16, 0.01, -0.93
126, 187500.00, 187500.00, 187500.00, -176885.83, 187500.00, 187500.00, -174885.36, 187500.00, 0.16, 0.01, -0.93
127, 187500.00, 187500.00, 187500.00, -179182.69, 187500.00, 187500.00, -177860.20, 187500.00, 0.16, 0.01, -0.93
128, 187500.00, 187500.00, 187500.00, -183971.33, 187500.00, 187500.00, -184498.47, 187500.00, 0.15, 0.01, -0.93
129, 187500.00, 187500.00, 187500.00, -182336.92, 187500.00, 187500.00, -182426.91, 187500.00, 0.15, 0.01, -0.93
130, 187500.00, 187500.00, 187500.00, -177365.56, 187500.00, 187500.00, -175599.20, 187500.00, 0.15, 0.01, -0.93
131, 187500.00, 187500.00, 187500.00, -178404.63, 187500.00, 187500.00, -176846.19, 187500.00, 0.15, 0.01, -0.93
132, 187500.00, 187500.00, 187500.00, -183434.75, 187500.00, 187500.00, -183752.44, 187500.00, 0.15, 0.01, -0.93
133, 187500.00, 187500.00, 187500.00, -183149.88, 187500.00, 187500.00, -183534.80, 187500.00, 0.16, 0.01, -0.92
134, 187500.00, 187500.00, 187500.00, -177961.05, 187500.00, 187500.00, -176429.52, 187500.00, 0.16, 0.01, -0.92
135, 187500.00, 187500.00, 187500.00, -177692.20, 187500.00, 187500.00, -175881.36, 187500.00, 0.16, 0.01, -0.92
136, 187500.00, 187500.00, 187500.00, -182729.91, 187500.00, 187500.00, -182724.88, 187500.00, 0.16, 0.01, -0.92
137, 187500.00, 187500.00, 187500.00, -183835.42, 187500.00, 187500.00, -184407.08, 187500.00, 0.16, 0.01, -0.92
138, 187500.00, 187500.00, 187500.00, -178789.05, 187500.00, 187500.00, -177527.11, 187500.00, 0.15, 0.01, -0.92
139, 187500.00, 187500.00, 187500.00, -177228.77, 187500.00, 187500.00, -175231.17, 187500.00, 0.15, 0.01, -0.92
140, 187500.00, 187500.00, 187500.00, -181931.81, 187500.00, 187500.00, -181554.39, 187500.00, 0.15, 0.01, -0.92
141, 187500.00, 187500.00, 187500.00, -184317.44, 187500.00, 187500.00, -184981.56, 187500.00, 0.15, 0.01, -0.92
142, 187500.00, 187500.00, 187500.00, -179771.30, 187500.00, 187500.00, -178824.97, 187500.00, 0.15, 0.01, -0.92
143, 187500.00, 187500.00, 187500.00, -176922.52, 187500.00, 187500.00, -174814.59, 187500.00, 0.16, 0.01, -0.93
144, 187500.00, 187500.00, 187500.00, -180912.80, 187500.00, 187500.00, -180139.30, 187500.00, 0.16, 0.01, -0.93
145, 187500.00, 187500.00, 187500.00, -184369.66, 187500.00, 187500.00, -185023.53, 187500.00, 0.16, 0.01, -0.93
146, 187500.00, 187500.00, 187500.00, -180667.16, 187500.00, 187500.00, -180085.97, 187500.00, 0.16, 0.01, -0.93
147, 187500.00, 187500.00, 187500.00, -176797.05, 187500.00, 187500.00, -174740.17, 187500.00, 0.16, 0.01, -0.93
148, 187500.00, 187500.00, 187500.00, -179791.84, 187500.00, 187500.00, -178696.06, 187500.00, 0.16, 0.01, -0.93
149, 187500.00, 187500.00, 187500.00, -184026.95, 187500.00, 187500.00, -184631.64, 187500.00, 0.16, 0.01, -0.93
150, 187500.00, 187500.00, 187500.00, -181389.88, 187500.00, 187500.00, -181196.41, 187500.00, 0.16, 0.01, -0.93
151, 187500.00, 187500.00, 187500.00, -176695.42, 187500.00, 187500.00, -174762.11, 187500.00, 0.16, 0.01, -0.93
152, 187500.00, 187500.00, 187500.00, -178532.61, 187500.00, 187500.00, -177121.63, 187500.00, 0.16, 0.01, -0.93
153, 187500.00, 187500.00, 187500.00, -183310.47, 187500.00, 187500.00, -183725.41, 187500.00, 0.16, 0.01, -0.93
154, 187500.00, 187500.00, 187500.00, -181956.63, 187500.00, 187500.00, -182051.22, 187500.00, 0.16, 0.01, -0.93
155, 187500.00, 187500.00, 187500.00, -176819.50, 187500.00, 187500.00, -175011.78, 187500.00, 0.16, 0.01, -0.93
156, 187500.00, 187500.00, 187500.00, -177421.59, 187500.00, 187500.00, -175666.75, 187500.00, 0.16, 0.01, -0.93
157, 187500.00, 187500.00, 187500.00, -182465.31, 187500.00, 187500.00, -182542.13, 187500.00, 0.16, 0.01, -0.93
158, 187500.00, 187500.00, 187500.00, -182523.95, 187500.00, 187500.00, -182778.28, 187500.00, 0.16, 0.01, -0.93
159, 187500.00, 187500.00, 187500.00, -177306.34, 187500.00, 187500.00, -175654.11, 187500.00, 0.16, 0.01, -0.93
160, 187500.00, 187500.00, 187500.00, -176624.80, 187500.00, 187500.00, -174545.45, 187500.00, 0.16, 0.01, -0.93
161, 187500.00, 187500.00, 187500.00, -181551.75, 187500.00, 187500.00, -181173.44, 187500.00, 0.16, 0.01, -0.93
162, 187500.00, 187500.00, 187500.00, -183010.84, 187500.00, 187500.00, -183298.63, 187500.00, 0.16, 0.01, -0.93
163, 187500.00, 187500.00, 187500.00, -178141.47, 187500.00, 187500.00, -176651.91, 187500.00, 0.16, 0.01, -0.93
164, 187500.00, 187500.00, 187500.00, -176227.63, 187500.00, 187500.00, -173862.61, 187500.00, 0.16, 0.01, -0.93
165, 187500.00, 187500.00, 187500.00, -180765.38, 187500.00, 187500.00, -179887.80, 187500.00, 0.16, 0.01, -0.93
166, 187500.00, 187500.00, 187500.00, -183507.56, 187500.00, 187500.00, -183741.22, 187500.00, 0.16, 0.01, -0.93
167, 187500.00, 187500.00, 187500.00, -179227.95, 187500.00, 187500.00, -177934.63, 187500.00, 0.16, 0.01, -0.93
168, 187500.00, 187500.00, 187500.00, -176119.83, 187500.00, 187500.00, -173557.67, 187500.00, 0.16, 0.00, -0.93
169, 187500.00, 187500.00, 187500.00, -179940.66, 187500.00, 187500.00, -178589.41, 187500.00, 0.16, 0.00, -0.93
170, 187500.00, 187500.00, 187500.00, -183806.91, 187500.00, 187500.00, -183975.33, 187500.00, 0.16, 0.00, -0.93
171, 187500.00, 187500.00, 187500.00, -180478.34, 187500.00, 187500.00, -179527.94, 187500.00, 0.16, 0.00, -0.93
172, 187500.00, 187500.00, 187500.00, -176378.44, 187500.00, 187500.00, -173855.84, 187500.00, 0.16, 0.00, -0.93
173, 187500.00, 187500.00, 187500.00, -179182.55, 187500.00, 187500.00, -177502.17, 187500.00, 0.16, 0.00, -0.93
174, 187500.00, 187500.00, 187500.00, -183795.58, 187500.00, 187500.00, -183882.86, 187500.00, 0.16, 0.00, -0.93
175, 187500.00, 187500.00, 187500.00, -181628.34, 187500.00, 187500.00, -181053.55, 187500.00, 0.16, 0.00, -0.93
176, 187500.00, 187500.00, 187500.00, -176868.30, 187500.00, 187500.00, -174492.59, 187500.00, 0.16, 0.00, -0.93
177, 187500.00, 187500.00, 187500.00, -178502.14, 187500.00, 187500.00, -176527.77, 187500.00, 0.16, 0.00, -0.93
178, 187500.00, 187500.00, 187500.00, -183517.34, 187500.00, 187500.00, -183403.45, 187500.00, 0.16, 0.00, -0.92
179, 187500.00, 187500.00, 187500.00, -182661.06, 187500.00, 187500.00, -182385.72, 187500.00, 0.16, 0.00, -0.92
180, 187500.00, 187500.00, 187500.00, -177552.69, 187500.00, 187500.00, -175385.77, 187500.00, 0.16, 0.00, -0.92
181, 187500.00, 187500.00, 187500.00, -177883.47, 187500.00, 187500.00, -175652.63, 187500.00, 0.16, 0.00, -0.92
182, 187500.00, 187500.00, 187500.00, -182956.33, 187500.00, 187500.00, -182566.67, 187500.00, 0.16, 0.00, -0.92
183, 187500.00, 187500.00, 187500.00, -183484.17, 187500.00, 187500.00, -183452.58, 187500.00, 0.16, 0.00, -0.93
184, 187500.00, 187500.00, 187500.00, -178348.05, 187500.00, 187500.00, -176458.91, 187500.00, 0.16, 0.00, -0.93
185, 187500.00, 187500.00, 187500.00, -177348.55, 187500.00, 187500.00, -174937.17, 187500.00, 0.16, 0.00, -0.93
186, 187500.00, 187500.00, 187500.00, -182234.02, 187500.00, 187500.00, -181536.03, 187500.00, 0.16, 0.00, -0.93
187, 187500.00, 187500.00, 187500.00, -184076.56, 187500.00, 187500.00, -184231.20, 187500.00, 0.16, 0.00, -0.93
188, 187500.00, 187500.00, 187500.00, -179308.06, 187500.00, 187500.00, -177788.09, 187500.00, 0.16, 0.00, -0.93
189, 187500.00, 187500.00, 187500.00, -177046.50, 187500.00, 187500.00, -174587.53, 187500.00, 0.16, 0.00, -0.93
190, 187500.00, 187500.00, 187500.00, -181361.31, 187500.00, 187500.00, -180384.98, 187500.00, 0.16, 0.00, -0.93
191, 187500.00, 187500.00, 187500.00, -184364.64, 187500.00, 187500.00, -184688.48, 187500.00, 0.16, 0.00, -0.93
192, 187500.00, 187500.00, 187500.00, -180296.25, 187500.00, 187500.00, -179250.05, 187500.00, 0.16, 0.00, -0.93
193, 187500.00, 187500.00, 187500.00, -176894.88, 187500.00, 187500.00, -174540.55, 187500.00, 0.16, 0.00, -0.93
194, 187500.00, 187500.00, 187500.00, -180374.02, 187500.00, 187500.00, -179177.64, 187500.00, 0.16, 0.00, -0.93
195, 187500.00, 187500.00, 187500.00, -184365.09, 187500.00, 187500.00, -184783.75, 187500.00, 0.16, 0.00, -0.93
196, 187500.00, 187500.00, 187500.00, -181295.13, 187500.00, 187500.00, -180722.25, 187500.00, 0.16, 0.00, -0.93
197, 187500.00, 187500.00, 187500.00, -176995.97, 187500.00, 187500.00, -174792.14, 187500.00, 0.16, 0.00, -0.93
198, 187500.00, 187500.00, 187500.00, -179461.72, 187500.00, 187500.00, -177987.83, 187500.00, 0.16, 0.01, -0.93
199, 187500.00, 187500.00, 187500.00, -184102.33, 187500.00, 187500.00, -184430.97, 187500.00, 0.16, 0.01, -0.93
200, 187500.00, 187500.00, 187500.00, -182267.77, 187500.00, 187500.00, -182059.73, 187500.00, 0.16, 0.01, -0.93
201, 187500.00, 187500.00, 187500.00, -177364.13, 187500.00, 187500.00, -175318.50, 187500.00, 0.16, 0.01, -0.93
202, 187500.00, 187500.00, 187500.00, -178613.25, 187500.00, 187500.00, -176840.53, 187500.00, 0.16, 0.01, -0.93
203, 187500.00, 187500.00, 187500.00, -183645.75, 187500.00, 187500.00, -183747.52, 187500.00, 0.16, 0.01, -0.94
204, 187500.00, 187500.00, 187500.00, -183150.33, 187500.00, 187500.00, -183237.84, 187500.00, 0.16, 0.01, -0.94
205, 187500.00, 187500.00, 187500.00, -177967.75, 187500.00, 187500.00, -176151.83, 187500.00, 0.16, 0.01, -0.94
206, 187500.00, 187500.00, 187500.00, -177910.77, 187500.00, 187500.00, -175905.14, 187500.00, 0.16, 0.01, -0.94
207, 187500.00, 187500.00, 187500.00, -182965.36, 187500.00, 187500.00, -182787.63, 187500.00, 0.16, 0.01, -0.94
208, 187500.00, 187500.00, 187500.00, -183846.88, 187500.00, 187500.00, -184165.19, 187500.00, 0.16, 0.01, -0.93
209, 187500.00, 187500.00, 187500.00, -178786.66, 187500.00, 187500.00, -177276.81, 187500.00, 0.16, 0.01, -0.93
210, 187500.00, 187500.00, 187500.00, -177426.16, 187500.00, 187500.00, -175266.91, 187500.00, 0.16, 0.01, -0.93
211, 187500.00, 187500.00, 187500.00, -182187.61, 187500.00, 187500.00, -181686.33, 187500.00, 0.16, 0.01, -0.93
212, 187500.00, 187500.00, 187500.00, -184358.91, 187500.00, 187500.00, -184832.41, 187500.00, 0.16, 0.01, -0.93
213, 187500.00, 187500.00, 187500.00, -179731.33, 187500.00, 187500.00, -178565.78, 187500.00, 0.16, 0.01, -0.93
214, 187500.00, 187500.00, 187500.00, -177139.38, 187500.00, 187500.00, -174891.75, 187500.00, 0.16, 0.01, -0.93
215, 187500.00, 187500.00, 187500.00, -181299.38, 187500.00, 187500.00, -180434.05, 187500.00, 0.16, 0.01, -0.93
216, 187500.00, 187500.00, 187500.00, -184641.73, 187500.00, 187500.00, -185146.06, 187500.00, 0.16, 0.01, -0.93
217, 187500.00, 187500.00, 187500.00, -180787.08, 187500.00, 187500.00, -179958.22, 187500.00, 0.16, 0.01, -0.93
218, 187500.00, 187500.00, 187500.00, -177033.00, 187500.00, 187500.00, -174726.98, 187500.00, 0.16, 0.01, -0.93
219, 187500.00, 187500.00, 187500.00, -180268.94, 187500.00, 187500.00, -178970.23, 187500.00, 0.16, 0.01, -0.93
220, 187500.00, 187500.00, 187500.00, -184513.63, 187500.00, 187500.00, -184879.05, 187500.00, 0.16, 0.01, -0.93
221, 187500.00, 187500.00, 187500.00, -181736.11, 187500.00, 187500.00, -181198.91, 187500.00, 0.16, 0.01, -0.93
222, 187500.00, 187500.00, 187500.00, -177152.33, 187500.00, 187500.00, -174871.19, 187500.00, 0.16, 0.01, -0.93
223, 187500.00, 187500.00, 187500.00, -179279.36, 187500.00, 187500.00, -177577.67, 187500.00, 0.16, 0.01, -0.93
224, 187500.00, 187500.00, 187500.00, -184111.14, 187500.00, 187500.00, -184234.05, 187500.00, 0.16, 0.01, -0.93
225, 187500.00, 187500.00, 187500.00, -182623.00, 187500.00, 187500.00, -182326.44, 187500.00, 0.16, 0.01, -0.93
226, 187500.00, 187500.00, 187500.00, -177549.52, 187500.00, 187500.00, -175353.81, 187500.00, 0.16, 0.01, -0.93
227, 187500.00, 187500.00, 187500.00, -178449.91, 187500.00, 187500.00, -176373.72, 187500.00, 0.16, 0.01, -0.93
228, 187500.00, 187500.00, 187500.00, -183531.78, 187500.00, 187500.00, -183308.73, 187500.00, 0.17, 0.01, -0.93
229, 187500.00, 187500.00, 187500.00, -183393.02, 187500.00, 187500.00, -183273.25, 187500.00, 0.17, 0.01, -0.93
230, 187500.00, 187500.00, 187500.00, -178163.77, 187500.00, 187500.00, -176125.42, 187500.00, 0.17, 0.01, -0.93
231, 187500.00, 187500.00, 187500.00, -177736.86, 187500.00, 187500.00, -175365.13, 187500.00, 0.17, 0.01, -0.93
232, 187500.00, 187500.00, 187500.00, -182746.05, 187500.00, 187500.00, -182161.39, 187500.00, 0.17, 0.01, -0.93
233, 187500.00, 187500.00, 187500.00, -183995.84, 187500.00, 187500.00, -184045.95, 187500.00, 0.16, 0.01, -0.93
234, 187500.00, 187500.00, 187500.00, -178943.59, 187500.00, 187500.00, -177202.77, 187500.00, 0.16, 0.01, -0.93
235, 187500.00, 187500.00, 187500.00, -177200.91, 187500.00, 187500.00, -174695.33, 187500.00, 0.16, 0.01, -0.93
236, 187500.00, 187500.00, 187500.00, -181777.88, 187500.00, 187500.00, -180865.27, 187500.00, 0.16, 0.01, -0.93
237, 187500.00, 187500.00, 187500.00, -184249.41, 187500.00, 187500.00, -184440.13, 187500.00, 0.16, 0.01, -0.93
238, 187500.00, 187500.00, 187500.00, -179786.00, 187500.00, 187500.00, -178446.86, 187500.00, 0.17, 0.01, -0.94
239, 187500.00, 187500.00, 187500.00, -176827.64, 187500.00, 187500.00, -174328.20, 187500.00, 0.17, 0.01, -0.94
240, 187500.00, 187500.00, 187500.00, -180684.66, 187500.00, 187500.00, -179476.77, 187500.00, 0.17, 0.01, -0.94
241, 187500.00, 187500.00, 187500.00, -184219.81, 187500.00, 187500.00, -184469.66, 187500.00, 0.17, 0.01, -0.94
242, 187500.00, 187500.00, 187500.00, -180652.02, 187500.00, 187500.00, -179711.28, 187500.00, 0.17, 0.01, -0.94
243, 187500.00, 187500.00, 187500.00, -176710.67, 187500.00, 187500.00, -174256.41, 187500.00, 0.17, 0.01, -0.94
244, 187500.00, 187500.00, 187500.00, -179638.89, 187500.00, 187500.00, -178091.58, 187500.00, 0.17, 0.01, -0.94
245, 187500.00, 187500.00, 187500.00, -183985.72, 187500.00, 187500.00, -184145.75, 187500.00, 0.17, 0.01, -0.94
246, 187500.00, 187500.00, 187500.00, -181519.00, 187500.00, 187500.00, -180918.86, 187500.00, 0.17, 0.01, -0.94
247, 187500.00, 187500.00, 187500.00, -176820.00, 187500.00, 187500.00, -174457.92, 187500.00, 0.17, 0.01, -0.94
248, 187500.00, 187500.00, 187500.00, -178600.88, 187500.00, 187500.00, -176710.38, 187500.00, 0.16, 0.01, -0.93
249, 187500.00, 187500.00, 187500.00, -183462.53, 187500.00, 187500.00, -183412.80, 187500.00, 0.16, 0.01, -0.93
250, 187500.00, 187500.00, 187500.00, -182302.61, 187500.00, 187500.00, -181995.05, 187500.00, 0.16, 0.01, -0.93
251, 187500.00, 187500.00, 187500.00, -177168.61, 187500.00, 187500.00, -174980.00, 187500.00, 0.16, 0.01, -0.93
252, 187500.00, 187500.00, 187500.00, -177666.59, 187500.00, 187500.00, -175489.94, 187500.00, 0.16, 0.01, -0.93
253, 187500.00, 187500.00, 187500.00, -182728.88, 187500.00, 187500.00, -182382.22, 187500.00, 0.16, 0.01, -0.92
254, 187500.00, 187500.00, 187500.00, -182953.97, 187500.00, 187500.00, -182846.86, 187500.00, 0.16, 0.01, -0.92
255, 187500.00, 187500.00, 187500.00, -177763.22, 187500.00, 187500.00, -175760.75, 187500.00, 0.16, 0.01, -0.92
0, 187500.00, 187500.00, 187500.00, -176973.13, 187500.00, 187500.00, -174500.05, 187500.00, 0.16, 0.01, -0.92
1, 187500.00, 187500.00, 187500.00, -181879.36, 187500.00, 187500.00, -181101.97, 187500.00, 0.16, 0.01, -0.92
2, 187500.00, 187500.00, 187500.00, -183461.39, 187500.00, 187500.00, -183410.70, 187500.00, 0.16, 0.01, -0.93
3, 187500.00, 187500.00, 187500.00, -178586.13, 187500.00, 187500.00, -176786.59, 187500.00, 0.16, 0.01, -0.93
4, 187500.00, 187500.00, 187500.00, -176520.34, 187500.00, 187500.00, -173814.92, 187500.00, 0.16, 0.01, -0.93
5, 187500.00, 187500.00, 187500.00, -180952.55, 187500.00, 187500.00, -179722.48, 187500.00, 0.16, 0.01, -0.93
6, 187500.00, 187500.00, 187500.00, -183792.91, 187500.00, 187500.00, -183732.58, 187500.00, 0.16, 0.01, -0.93
7, 187500.00, 187500.00, 187500.00, -179577.58, 187500.00, 187500.00, -178028.00, 187500.00, 0.16, 0.01, -0.93
8, 187500.00, 187500.00, 187500.00, -176359.66, 187500.00, 187500.00, -173503.05, 187500.00, 0.16, 0.01, -0.93
9, 187500.00, 187500.00, 187500.00, -180066.73, 187500.00, 187500.00, -178378.56, 187500.00, 0.16, 0.01, -0.93
10, 187500.00, 187500.00, 187500.00, -183943.72, 187500.00, 187500.00, -183799.69, 187500.00, 0.16, 0.01, -0.93
11, 187500.00, 187500.00, 187500.00, -180608.50, 187500.00, 187500.00, -179369.33, 187500.00, 0.16, 0.01, -0.93
12, 187500.00, 187500.00, 187500.00, -176307.27, 187500.00, 187500.00, -173461.44, 187500.00, 0.16, 0.01, -0.93
13, 187500.00, 187500.00, 187500.00, -178886.84, 187500.00, 187500.00, -176826.03, 187500.00, 0.16, 0.01, -0.93
14, 187500.00, 187500.00, 187500.00, -183398.31, 187500.00, 187500.00, -183089.08, 187500.00, 0.16, 0.01, -0.93
15, 187500.00, 187500.00, 187500.00, -181192.98, 187500.00, 187500.00, -180249.09, 187500.00, 0.16, 0.01, -0.93
16, 187500.00, 187500.00, 187500.00, -176234.94, 187500.00, 187500.00, -173477.78, 187500.00, 0.16, 0.01, -0.93
17, 187500.00, 187500.00, 187500.00, -177603.63, 187500.00, 187500.00, -175169.30, 187500.00, 0.16, 0.00, -0.93
18, 187500.00, 187500.00, 187500.00, -182541.34, 187500.00, 187500.00, -181914.66, 187500.00, 0.16, 0.00, -0.93
19, 187500.00, 187500.00, 187500.00, -181697.86, 187500.00, 187500.00, -180914.39, 187500.00, 0.16, 0.00, -0.93
20, 187500.00, 187500.00, 187500.00, -176431.95, 187500.00, 187500.00, -173731.23, 187500.00, 0.16, 0.00, -0.93
21, 187500.00, 187500.00, 187500.00, -176491.42, 187500.00, 187500.00, -173635.50, 187500.00, 0.16, 0.00, -0.93
22, 187500.00, 187500.00, 187500.00, -181529.58, 187500.00, 187500.00, -180460.30, 187500.00, 0.16, 0.00, -0.93
23, 187500.00, 187500.00, 187500.00, -182090.78, 187500.00, 187500.00, -181415.73, 187500.00, 0.16, 0.00, -0.93
24, 187500.00, 187500.00, 187500.00, -176821.45, 187500.00, 187500.00, -174307.81, 187500.00, 0.16, 0.00, -0.93
25, 187500.00, 187500.00, 187500.00, -175553.39, 187500.00, 187500.00, -172468.52, 187500.00, 0.16, 0.00, -0.93
26, 187500.00, 187500.00, 187500.00, -180336.75, 187500.00, 187500.00, -178924.50, 187500.00, 0.16, 0.00, -0.93
27, 187500.00, 187500.00, 187500.00, -182244.14, 187500.00, 187500.00, -181741.58, 187500.00, 0.16, -0.00, -0.92
28, 187500.00, 187500.00, 187500.00, -177343.66, 187500.00, 187500.00, -175180.83, 187500.00, 0.16, -0.00, -0.92
29, 187500.00, 187500.00, 187500.00, -174772.48, 187500.00, 187500.00, -171606.34, 187500.00, 0.16, -0.00, -0.92
30, 187500.00, 187500.00, 187500.00, -178980.05, 187500.00, 187500.00, -177230.38, 187500.00, 0.16, -0.00, -0.92
31, 187500.00, 187500.00, 187500.00, -182092.48, 187500.00, 187500.00, -181659.42, 187500.00, 0.16, -0.00, -0.92
32, 187500.00, 187500.00, 187500.00, -178030.45, 187500.00, 187500.00, -176258.39, 187500.00, 0.15, 0.00, -0.92
33, 187500.00, 187500.00, 187500.00, -174473.70, 187500.00, 187500.00, -171338.19, 187500.00, 0.15, 0.00, -0.92
34, 187500.00, 187500.00, 187500.00, -177898.52, 187500.00, 187500.00, -175826.80, 187500.00, 0.15, 0.00, -0.92
35, 187500.00, 187500.00, 187500.00, -182063.25, 187500.00, 187500.00, -181585.19, 187500.00, 0.15, 0.00, -0.92
36, 187500.00, 187500.00, 187500.00, -179100.83, 187500.00, 187500.00, -177656.27, 187500.00, 0.15, 0.00, -0.92
37, 187500.00, 187500.00, 187500.00, -174709.20, 187500.00, 187500.00, -171595.16, 187500.00, 0.16, 0.01, -0.93
38, 187500.00, 187500.00, 187500.00, -177095.08, 187500.00, 187500.00, -174624.70, 187500.00, 0.16, 0.01, -0.93
39, 187500.00, 187500.00, 187500.00, -181963.11, 187500.00, 187500.00, -181266.20, 187500.00, 0.16, 0.01, -0.93
40, 187500.00, 187500.00, 187500.00, -180257.69, 187500.00, 187500.00, -179057.61, 187500.00, 0.16, 0.01, -0.93
41, 187500.00, 187500.00, 187500.00, -175235.14, 187500.00, 187500.00, -172149.83, 187500.00, 0.16, 0.01, -0.93
42, 187500.00, 187500.00, 187500.00, -176348.08, 187500.00, 187500.00, -173426.28, 187500.00, 0.15, 0.01, -0.93
43, 187500.00, 187500.00, 187500.00, -181558.08, 187500.00, 187500.00, -180456.27, 187500.00, 0.15, 0.01, -0.93
44, 187500.00, 187500.00, 187500.00, -181234.59, 187500.00, 187500.00, -180139.00, 187500.00, 0.15, 0.01, -0.93
45, 187500.00, 187500.00, 187500.00, -175975.33, 187500.00, 187500.00, -172944.19, 187500.00, 0.15, 0.01, -0.93
46, 187500.00, 187500.00, 187500.00, -175744.81, 187500.00, 187500.00, -172415.00, 187500.00, 0.15, 0.01, -0.93
47, 187500.00, 187500.00, 187500.00, -180838.44, 187500.00, 187500.00, -179234.44, 187500.00, 0.16, 0.01, -0.93
48, 187500.00, 187500.00, 187500.00, -181863.63, 187500.00, 187500.00, -180782.22, 187500.00, 0.16, 0.01, -0.93
49, 187500.00, 187500.00, 187500.00, -176739.19, 187500.00, 187500.00, -173844.48, 187500.00, 0.16, 0.01, -0.93
50, 187500.00, 187500.00, 187500.00, -175198.72, 187500.00, 187500.00, -171573.64, 187500.00, 0.16, 0.01, -0.93
51, 187500.00, 187500.00, 187500.00, -179933.50, 187500.00, 187500.00, -177867.44, 187500.00, 0.16, 0.01, -0.93
52, 187500.00, 187500.00, 187500.00, -182260.70, 187500.00, 187500.00, -181189.42, 187500.00, 0.16, 0.01, -0.93
53, 187500.00, 187500.00, 187500.00, -177697.86, 187500.00, 187500.00, -175054.30, 187500.00, 0.16, 0.01, -0.93
54, 187500.00, 187500.00, 187500.00, -174933.98, 187500.00, 187500.00, -171166.25, 187500.00, 0.16, 0.01, -0.93
55, 187500.00, 187500.00, 187500.00, -179019.16, 187500.00, 187500.00, -176550.44, 187500.00, 0.16, 0.01, -0.93
56, 187500.00, 187500.00, 187500.00, -182541.55, 187500.00, 187500.00, -181470.70, 187500.00, 0.16, 0.01, -0.93
57, 187500.00, 187500.00, 187500.00, -178755.80, 187500.00, 187500.00, -176435.25, 187500.00, 0.16, 0.00, -0.94
58, 187500.00, 187500.00, 187500.00, -174856.70, 187500.00, 187500.00, -171054.16, 187500.00, 0.16, 0.00, -0.94
59, 187500.00, 187500.00, 187500.00, -177935.23, 187500.00, 187500.00, -175051.70, 187500.00, 0.16, 0.00, -0.94
60, 187500.00, 187500.00, 187500.00, -182269.06, 187500.00, 187500.00, -181031.00, 187500.00, 0.16, 0.00, -0.94
61, 187500.00, 187500.00, 187500.00, -179562.95, 187500.00, 187500.00, -177508.16, 187500.00, 0.16, 0.00, -0.94
62, 187500.00, 187500.00, 187500.00, -174840.02, 187500.00, 187500.00, -171049.95, 187500.00, 0.16, 0.00, -0.94
63, 187500.00, 187500.00, 187500.00, -176747.33, 187500.00, 187500.00, -173441.63, 187500.00, 0.15, -0.00, -0.94
64, 187500.00, 187500.00, 187500.00, -181608.81, 187500.00, 187500.00, -180065.80, 187500.00, 0.15, -0.00, -0.94
65, 187500.00, 187500.00, 187500.00, -180183.27, 187500.00, 187500.00, -178325.45, 187500.00, 0.15, -0.00, -0.94
66, 187500.00, 187500.00, 187500.00, -175023.16, 187500.00, 187500.00, -171304.14, 187500.00, 0.15, -0.00, -0.94
67, 187500.00, 187500.00, 187500.00, -175649.44, 187500.00, 187500.00, -171944.19, 187500.00, 0.15, -0.00, -0.94
68, 187500.00, 187500.00, 187500.00, -180639.39, 187500.00, 187500.00, -178635.78, 187500.00, 0.16, 0.00, -0.94
69, 187500.00, 187500.00, 187500.00, -180579.11, 187500.00, 187500.00, -178815.56, 187500.00, 0.16, 0.00, -0.94
70, 187500.00, 187500.00, 187500.00, -175300.33, 187500.00, 187500.00, -171749.45, 187500.00, 0.16, 0.00, -0.94
71, 187500.00, 187500.00, 187500.00, -174577.09, 187500.00, 187500.00, -170599.48, 187500.00, 0.16, 0.00, -0.94
72, 187500.00, 187500.00, 187500.00, -179491.00, 187500.00, 187500.00, -177141.44, 187500.00, 0.16, 0.00, -0.94
73, 187500.00, 187500.00, 187500.00, -180848.61, 187500.00, 187500.00, -179226.86, 187500.00, 0.16, 0.00, -0.93
74, 187500.00, 187500.00, 187500.00, -175858.88, 187500.00, 187500.00, -172660.61, 187500.00, 0.16, 0.00, -0.93
75, 187500.00, 187500.00, 187500.00, -173898.47, 187500.00, 187500.00, -169848.16, 187500.00, 0.16, 0.00, -0.93
76, 187500.00, 187500.00, 187500.00, -178405.77, 187500.00, 187500.00, -175789.36, 187500.00, 0.16, 0.00, -0.93
77, 187500.00, 187500.00, 187500.00, -181097.09, 187500.00, 187500.00, -179587.77, 187500.00, 0.16, 0.00, -0.93
78, 187500.00, 187500.00, 187500.00, -176784.17, 187500.00, 187500.00, -173990.31, 187500.00, 0.16, 0.01, -0.93
79, 187500.00, 187500.00, 187500.00, -173728.08, 187500.00, 187500.00, -169738.58, 187500.00, 0.16, 0.01, -0.93
80, 187500.00, 187500.00, 187500.00, -177551.05, 187500.00, 187500.00, -174753.73, 187500.00, 0.16, 0.01, -0.93
81, 187500.00, 187500.00, 187500.00, -181346.36, 187500.00, 187500.00, -180020.81, 187500.00, 0.16, 0.01, -0.93
82, 187500.00, 187500.00, 187500.00, -178037.25, 187500.00, 187500.00, -175803.03, 187500.00, 0.16, 0.01, -0.93
83, 187500.00, 187500.00, 187500.00, -174165.81, 187500.00, 187500.00, -170512.28, 187500.00, 0.16, 0.01, -0.94
84, 187500.00, 187500.00, 187500.00, -177124.30, 187500.00, 187500.00, -174364.13, 187500.00, 0.16, 0.01, -0.94
85, 187500.00, 187500.00, 187500.00, -181862.09, 187500.00, 187500.00, -180881.91, 187500.00, 0.16, 0.01, -0.94
86, 187500.00, 187500.00, 187500.00, -179821.28, 187500.00, 187500.00, -178289.02, 187500.00, 0.16, 0.01, -0.94
87, 187500.00, 187500.00, 187500.00, -175280.11, 187500.00, 187500.00, -172101.72, 187500.00, 0.16, 0.01, -0.94
88, 187500.00, 187500.00, 187500.00, -177106.14, 187500.00, 187500.00, -174420.63, 187500.00, 0.16, 0.01, -0.94
89, 187500.00, 187500.00, 187500.00, -182267.97, 187500.00, 187500.00, -181488.11, 187500.00, 0.16, 0.01, -0.94
90, 187500.00, 187500.00, 187500.00, -181483.00, 187500.00, 187500.00, -180586.64, 187500.00, 0.16, 0.01, -0.94
91, 187500.00, 187500.00, 187500.00, -176482.28, 187500.00, 187500.00, -173774.28, 187500.00, 0.16, 0.01, -0.94
92, 187500.00, 187500.00, 187500.00, -176977.89, 187500.00, 187500.00, -174282.73, 187500.00, 0.16, 0.01, -0.94
93, 187500.00, 187500.00, 187500.00, -182196.19, 187500.00, 187500.00, -181368.86, 187500.00, 0.16, 0.01, -0.93
94, 187500.00, 187500.00, 187500.00, -182773.47, 187500.00, 187500.00, -182323.20, 187500.00, 0.16, 0.01, -0.93
95, 187500.00, 187500.00, 187500.00, -177792.45, 187500.00, 187500.00, -175556.36, 187500.00, 0.16, 0.01, -0.93
96, 187500.00, 187500.00, 187500.00, -176998.14, 187500.00, 187500.00, -174314.34, 187500.00, 0.16, 0.01, -0.93
97, 187500.00, 187500.00, 187500.00, -182000.69, 187500.00, 187500.00, -181063.66, 187500.00, 0.16, 0.01, -0.93
98, 187500.00, 187500.00, 187500.00, -183905.13, 187500.00, 187500.00, -183844.09, 187500.00, 0.16, 0.01, -0.93
99, 187500.00, 187500.00, 187500.00, -179297.11, 187500.00, 187500.00, -177612.91, 187500.00, 0.16, 0.01, -0.93
100, 187500.00, 187500.00, 187500.00, -177258.42, 187500.00, 187500.00, -174703.83, 187500.00, 0.16, 0.01, -0.93
101, 187500.00, 187500.00, 187500.00, -181783.38, 187500.00, 187500.00, -180765.56, 187500.00, 0.16, 0.01, -0.93
102, 187500.00, 187500.00, 187500.00, -184946.17, 187500.00, 187500.00, -185252.02, 187500.00, 0.16, 0.01, -0.93
103, 187500.00, 187500.00, 187500.00, -181005.78, 187500.00, 187500.00, -179970.00, 187500.00, 0.16, 0.01, -0.93
104, 187500.00, 187500.00, 187500.00, -177776.38, 187500.00, 187500.00, -175483.58, 187500.00, 0.16, 0.01, -0.93
105, 187500.00, 187500.00, 187500.00, -181484.48, 187500.00, 187500.00, -180426.45, 187500.00, 0.16, 0.01, -0.93
106, 187500.00, 187500.00, 187500.00, -185586.69, 187500.00, 187500.00, -186210.05, 187500.00, 0.16, 0.01, -0.93
107, 187500.00, 187500.00, 187500.00, -182625.56, 187500.00, 187500.00, -182309.09, 187500.00, 0.16, 0.01, -0.93
108, 187500.00, 187500.00, 187500.00, -178485.25, 187500.00, 187500.00, -176601.81, 187500.00, 0.16, 0.01, -0.92
109, 187500.00, 187500.00, 187500.00, -181124.05, 187500.00, 187500.00, -180073.94, 187500.00, 0.16, 0.01, -0.92
110, 187500.00, 187500.00, 187500.00, -185863.22, 187500.00, 187500.00, -186535.00, 187500.00, 0.16, 0.01, -0.92
111, 187500.00, 187500.00, 187500.00, -184085.55, 187500.00, 187500.00, -184393.33, 187500.00, 0.16, 0.01, -0.92
112, 187500.00, 187500.00, 187500.00, -179287.78, 187500.00, 187500.00, -177859.66, 187500.00, 0.16, 0.01, -0.92
113, 187500.00, 187500.00, 187500.00, -180658.59, 187500.00, 187500.00, -179601.22, 187500.00, 0.16, 0.01, -0.93
114, 187500.00, 187500.00, 187500.00, -185707.27, 187500.00, 187500.00, -186233.19, 187500.00, 0.16, 0.01, -0.93
115, 187500.00, 187500.00, 187500.00, -185312.14, 187500.00, 187500.00, -185944.25, 187500.00, 0.16, 0.01, -0.93
116, 187500.00, 187500.00, 187500.00, -180203.92, 187500.00, 187500.00, -179260.63, 187500.00, 0.16, 0.01, -0.93
117, 187500.00, 187500.00, 187500.00, -180269.09, 187500.00, 187500.00, -179217.89, 187500.00, 0.16, 0.01, -0.93
118, 187500.00, 187500.00, 187500.00, -185317.22, 187500.00, 187500.00, -185701.17, 187500.00, 0.16, 0.01, -0.94
119, 187500.00, 187500.00, 187500.00, -186277.94, 187500.00, 187500.00, -186976.73, 187500.00, 0.16, 0.01, -0.94
120, 187500.00, 187500.00, 187500.00, -181148.80, 187500.00, 187500.00, -180675.73, 187500.00, 0.16, 0.01, -0.94
121, 187500.00, 187500.00, 187500.00, -179784.80, 187500.00, 187500.00, -178700.38, 187500.00, 0.16, 0.01, -0.94
122, 187500.00, 187500.00, 187500.00, -184466.48, 187500.00, 187500.00, -184774.88, 187500.00, 0.16, 0.01, -0.94
123, 187500.00, 187500.00, 187500.00, -186605.34, 187500.00, 187500.00, -187438.42, 187500.00, 0.16, 0.01, -0.94
124, 187500.00, 187500.00, 187500.00, -181989.48, 187500.00, 187500.00, -181930.16, 187500.00, 0.16, 0.01, -0.94
125, 187500.00, 187500.00, 187500.00, -179417.05, 187500.00, 187500.00, -178364.86, 187500.00, 0.16, 0.01, -0.94
126, 187500.00, 187500.00, 187500.00, -183437.11, 187500.00, 187500.00, -183640.78, 187500.00, 0.16, 0.01, -0.94
127, 187500.00, 187500.00, 187500.00, -186622.63, 187500.00, 187500.00, -187500.02, 187500.00, 0.16, 0.01, -0.94
128, 187500.00, 187500.00, 187500.00, -182982.19, 187500.00, 187500.00, -183365.23, 187500.00, 0.16, 0.01, -0.95
129, 187500.00, 187500.00, 187500.00, -179714.72, 187500.00, 187500.00, -178902.22, 187500.00, 0.16, 0.01, -0.95
130, 187500.00, 187500.00, 187500.00, -182846.14, 187500.00, 187500.00, -183009.94, 187500.00, 0.16, 0.01, -0.95
131, 187500.00, 187500.00, 187500.00, -186488.39, 187500.00, 187500.00, -187500.02, 187500.00, 0.16, 0.01, -0.95
132, 187500.00, 187500.00, 187500.00, -183696.20, 187500.00, 187500.00, -184356.48, 187500.00, 0.16, 0.01, -0.95
133, 187500.00, 187500.00, 187500.00, -179564.59, 187500.00, 187500.00, -178777.14, 187500.00, 0.16, 0.01, -0.94
134, 187500.00, 187500.00, 187500.00, -181590.55, 187500.00, 187500.00, -181410.19, 187500.00, 0.16, 0.01, -0.94
135, 187500.00, 187500.00, 187500.00, -185715.23, 187500.00, 187500.00, -186909.58, 187500.00, 0.16, 0.01, -0.94
136, 187500.00, 187500.00, 187500.00, -184081.34, 187500.00, 187500.00, -185023.23, 187500.00, 0.16, 0.01, -0.94
137, 187500.00, 187500.00, 187500.00, -179476.88, 187500.00, 187500.00, -178773.31, 187500.00, 0.16, 0.01, -0.94
138, 187500.00, 187500.00, 187500.00, -180326.98, 187500.00, 187500.00, -179797.19, 187500.00, 0.15, 0.01, -0.93
139, 187500.00, 187500.00, 187500.00, -184671.05, 187500.00, 187500.00, -185787.27, 187500.00, 0.15, 0.01, -0.93
140, 187500.00, 187500.00, 187500.00, -184262.17, 187500.00, 187500.00, -185451.39, 187500.00, 0.15, 0.01, -0.93
141, 187500.00, 187500.00, 187500.00, -179524.75, 187500.00, 187500.00, -178934.84, 187500.00, 0.15, 0.01, -0.93
142, 187500.00, 187500.00, 187500.00, -179230.94, 187500.00, 187500.00, -178372.77, 187500.00, 0.15, 0.01, -0.93
143, 187500.00, 187500.00, 187500.00, -183544.83, 187500.00, 187500.00, -184262.13, 187500.00, 0.15, 0.01, -0.93
144, 187500.00, 187500.00, 187500.00, -184401.70, 187500.00, 187500.00, -185589.23, 187500.00, 0.15, 0.01, -0.93
145, 187500.00, 187500.00, 187500.00, -179931.45, 187500.00, 187500.00, -179444.22, 187500.00, 0.15, 0.01, -0.93
146, 187500.00, 187500.00, 187500.00, -178489.72, 187500.00, 187500.00, -177312.19, 187500.00, 0.15, 0.01, -0.93
147, 187500.00, 187500.00, 187500.00, -182479.91, 187500.00, 187500.00, -182710.16, 187500.00, 0.15, 0.01, -0.93
148, 187500.00, 187500.00, 187500.00, -184495.42, 187500.00, 187500.00, -185624.69, 187500.00, 0.16, 0.01, -0.93
149, 187500.00, 187500.00, 187500.00, -180480.50, 187500.00, 187500.00, -180171.77, 187500.00, 0.16, 0.01, -0.93
150, 187500.00, 187500.00, 187500.00, -177941.16, 187500.00, 187500.00, -176574.89, 187500.00, 0.16, 0.01, -0.93
151, 187500.00, 187500.00, 187500.00, -181372.05, 187500.00, 187500.00, -181145.39, 187500.00, 0.16, 0.01, -0.93
152, 187500.00, 187500.00, 187500.00, -184345.64, 187500.00, 187500.00, -185333.94, 187500.00, 0.16, 0.01, -0.93
153, 187500.00, 187500.00, 187500.00, -181142.69, 187500.00, 187500.00, -181023.23, 187500.00, 0.16, 0.01, -0.93
154, 187500.00, 187500.00, 187500.00, -177782.48, 187500.00, 187500.00, -176327.47, 187500.00, 0.16, 0.01, -0.93
155, 187500.00, 187500.00, 187500.00, -180424.27, 187500.00, 187500.00, -179778.89, 187500.00, 0.16, 0.01, -0.93
156, 187500.00, 187500.00, 187500.00, -184176.53, 187500.00, 187500.00, -184989.31, 187500.00, 0.16, 0.01, -0.93
157, 187500.00, 187500.00, 187500.00, -181960.98, 187500.00, 187500.00, -182059.80, 187500.00, 0.16, 0.01, -0.93
158, 187500.00, 187500.00, 187500.00, -177921.44, 187500.00, 187500.00, -176483.13, 187500.00, 0.16, 0.01, -0.94
159, 187500.00, 187500.00, 187500.00, -179578.17, 187500.00, 187500.00, -178580.11, 187500.00, 0.16, 0.01, -0.94
160, 187500.00, 187500.00, 187500.00, -183788.75, 187500.00, 187500.00, -184391.94, 187500.00, 0.16, 0.01, -0.94
161, 187500.00, 187500.00, 187500.00, -182708.88, 187500.00, 187500.00, -183041.53, 187500.00, 0.16, 0.01, -0.94
162, 187500.00, 187500.00, 187500.00, -178279.03, 187500.00, 187500.00, -176955.38, 187500.00, 0.16, 0.01, -0.94
163, 187500.00, 187500.00, 187500.00, -178842.66, 187500.00, 187500.00, -177561.72, 187500.00, 0.16, 0.01, -0.93
164, 187500.00, 187500.00, 187500.00, -183280.08, 187500.00, 187500.00, -183640.20, 187500.00, 0.16, 0.01, -0.93
165, 187500.00, 187500.00, 187500.00, -183415.23, 187500.00, 187500.00, -183980.52, 187500.00, 0.16, 0.01, -0.93
166, 187500.00, 187500.00, 187500.00, -178881.92, 187500.00, 187500.00, -177793.56, 187500.00, 0.16, 0.01, -0.93
167, 187500.00, 187500.00, 187500.00, -178298.72, 187500.00, 187500.00, -176853.08, 187500.00, 0.16, 0.01, -0.93
168, 187500.00, 187500.00, 187500.00, -182629.59, 187500.00, 187500.00, -182730.69, 187500.00, 0.16, 0.01, -0.92
169, 187500.00, 187500.00, 187500.00, -183950.25, 187500.00, 187500.00, -184699.00, 187500.00, 0.16, 0.01, -0.92
170, 187500.00, 187500.00, 187500.00, -179669.44, 187500.00, 187500.00, -178889.91, 187500.00, 0.16, 0.01, -0.92
171, 187500.00, 187500.00, 187500.00, -177987.03, 187500.00, 187500.00, -176462.25, 187500.00, 0.16, 0.01, -0.92
172, 187500.00, 187500.00, 187500.00, -181911.36, 187500.00, 187500.00, -181744.20, 187500.00, 0.16, 0.01, -0.92
173, 187500.00, 187500.00, 187500.00, -184273.52, 187500.00, 187500.00, -185133.69, 187500.00, 0.16, 0.01, -0.93
174, 187500.00, 187500.00, 187500.00, -180559.59, 187500.00, 187500.00, -180126.58, 187500.00, 0.16, 0.01, -0.93
175, 187500.00, 187500.00, 187500.00, -177850.72, 187500.00, 187500.00, -176327.14, 187500.00, 0.16, 0.01, -0.93
176, 187500.00, 187500.00, 187500.00, -181127.33, 187500.00, 187500.00, -180682.36, 187500.00, 0.16, 0.01, -0.93
177, 187500.00, 187500.00, 187500.00, -184423.80, 187500.00, 187500.00, -185320.14, 187500.00, 0.16, 0.01, -0.93
178, 187500.00, 187500.00, 187500.00, -181505.33, 187500.00, 187500.00, -181424.72, 187500.00, 0.16, 0.01, -0.93
179, 187500.00, 187500.00, 187500.00, -177884.92, 187500.00, 187500.00, -176397.80, 187500.00, 0.16, 0.01, -0.93
180, 187500.00, 187500.00, 187500.00, -180273.09, 187500.00, 187500.00, -179509.89, 187500.00, 0.16, 0.01, -0.93
181, 187500.00, 187500.00, 187500.00, -184222.31, 187500.00, 187500.00, -185011.17, 187500.00, 0.16, 0.01, -0.93
182, 187500.00, 187500.00, 187500.00, -182336.27, 187500.00, 187500.00, -182548.95, 187500.00, 0.16, 0.01, -0.93
183, 187500.00, 187500.00, 187500.00, -178119.72, 187500.00, 187500.00, -176736.36, 187500.00, 0.16, 0.00, -0.93
184, 187500.00, 187500.00, 187500.00, -179464.77, 187500.00, 187500.00, -178413.39, 187500.00, 0.16, 0.00, -0.93
185, 187500.00, 187500.00, 187500.00, -183811.16, 187500.00, 187500.00, -184401.80, 187500.00, 0.16, 0.00, -0.93
186, 187500.00, 187500.00, 187500.00, -183094.22, 187500.00, 187500.00, -183554.17, 187500.00, 0.16, 0.00, -0.93
187, 187500.00, 187500.00, 187500.00, -178585.89, 187500.00, 187500.00, -177368.28, 187500.00, 0.16, 0.00, -0.93
188, 187500.00, 187500.00, 187500.00, -178817.84, 187500.00, 187500.00, -177523.81, 187500.00, 0.16, 0.00, -0.94
189, 187500.00, 187500.00, 187500.00, -183216.27, 187500.00, 187500.00, -183530.14, 187500.00, 0.16, 0.00, -0.94
190, 187500.00, 187500.00, 187500.00, -183645.61, 187500.00, 187500.00, -184273.66, 187500.00, 0.16, 0.00, -0.94
191, 187500.00, 187500.00, 187500.00, -179159.81, 187500.00, 187500.00, -178157.88, 187500.00, 0.16, 0.00, -0.94
192, 187500.00, 187500.00, 187500.00, -178257.41, 187500.00, 187500.00, -176779.98, 187500.00, 0.16, 0.00, -0.94
193, 187500.00, 187500.00, 187500.00, -182455.73, 187500.00, 187500.00, -182459.20, 187500.00, 0.16, 0.01, -0.93
194, 187500.00, 187500.00, 187500.00, -184020.45, 187500.00, 187500.00, -184753.67, 187500.00, 0.16, 0.01, -0.93
195, 187500.00, 187500.00, 187500.00, -179850.53, 187500.00, 187500.00, -179099.56, 187500.00, 0.16, 0.01, -0.93
196, 187500.00, 187500.00, 187500.00, -177840.69, 187500.00, 187500.00, -176229.11, 187500.00, 0.16, 0.01, -0.93
197, 187500.00, 187500.00, 187500.00, -181565.69, 187500.00, 187500.00, -181209.72, 187500.00, 0.16, 0.01, -0.93
198, 187500.00, 187500.00, 187500.00, -184164.44, 187500.00, 187500.00, -184899.66, 187500.00, 0.16, 0.01, -0.93
199, 187500.00, 187500.00, 187500.00, -180614.81, 187500.00, 187500.00, -180127.16, 187500.00, 0.16, 0.01, -0.93
200, 187500.00, 187500.00, 187500.00, -177621.44, 187500.00, 187500.00, -175949.27, 187500.00, 0.16, 0.01, -0.93
201, 187500.00, 187500.00, 187500.00, -180626.16, 187500.00, 187500.00, -179910.61, 187500.00, 0.16, 0.01, -0.93
202, 187500.00, 187500.00, 187500.00, -184073.11, 187500.00, 187500.00, -184740.09, 187500.00, 0.16, 0.01, -0.93
203, 187500.00, 187500.00, 187500.00, -181422.36, 187500.00, 187500.00, -181217.70, 187500.00, 0.16, 0.01, -0.93
204, 187500.00, 187500.00, 187500.00, -177649.38, 187500.00, 187500.00, -175992.75, 187500.00, 0.16, 0.01, -0.93
205, 187500.00, 187500.00, 187500.00, -179744.70, 187500.00, 187500.00, -178684.91, 187500.00, 0.16, 0.01, -0.93
206, 187500.00, 187500.00, 187500.00, -183789.05, 187500.00, 187500.00, -184282.55, 187500.00, 0.16, 0.01, -0.93
207, 187500.00, 187500.00, 187500.00, -182223.97, 187500.00, 187500.00, -182260.16, 187500.00, 0.16, 0.01, -0.93
208, 187500.00, 187500.00, 187500.00, -177963.16, 187500.00, 187500.00, -176390.17, 187500.00, 0.16, 0.01, -0.93
209, 187500.00, 187500.00, 187500.00, -179035.30, 187500.00, 187500.00, -177674.48, 187500.00, 0.16, 0.01, -0.93
210, 187500.00, 187500.00, 187500.00, -183437.09, 187500.00, 187500.00, -183706.81, 187500.00, 0.16, 0.01, -0.93
211, 187500.00, 187500.00, 187500.00, -183048.47, 187500.00, 187500.00, -183312.44, 187500.00, 0.16, 0.01, -0.93
212, 187500.00, 187500.00, 187500.00, -178513.31, 187500.00, 187500.00, -177096.42, 187500.00, 0.16, 0.01, -0.93
213, 187500.00, 187500.00, 187500.00, -178421.16, 187500.00, 187500.00, -176792.61, 187500.00, 0.16, 0.01, -0.93
214, 187500.00, 187500.00, 187500.00, -182844.17, 187500.00, 187500.00, -182787.52, 187500.00, 0.16, 0.01, -0.93
215, 187500.00, 187500.00, 187500.00, -183666.67, 187500.00, 187500.00, -184052.58, 187500.00, 0.16, 0.01, -0.93
216, 187500.00, 187500.00, 187500.00, -179231.50, 187500.00, 187500.00, -178013.17, 187500.00, 0.16, 0.01, -0.93
217, 187500.00, 187500.00, 187500.00, -177984.91, 187500.00, 187500.00, -176172.47, 187500.00, 0.16, 0.01, -0.93
218, 187500.00, 187500.00, 187500.00, -182094.77, 187500.00, 187500.00, -181711.31, 187500.00, 0.16, 0.01, -0.93
219, 187500.00, 187500.00, 187500.00, -183965.44, 187500.00, 187500.00, -184431.66, 187500.00, 0.16, 0.01, -0.93
220, 187500.00, 187500.00, 187500.00, -179931.14, 187500.00, 187500.00, -178987.25, 187500.00, 0.16, 0.01, -0.93
221, 187500.00, 187500.00, 187500.00, -177619.06, 187500.00, 187500.00, -175724.94, 187500.00, 0.16, 0.01, -0.93
222, 187500.00, 187500.00, 187500.00, -181170.77, 187500.00, 187500.00, -180457.42, 187500.00, 0.16, 0.01, -0.93
223, 187500.00, 187500.00, 187500.00, -184054.50, 187500.00, 187500.00, -184551.11, 187500.00, 0.16, 0.01, -0.94
224, 187500.00, 187500.00, 187500.00, -180728.95, 187500.00, 187500.00, -180100.38, 187500.00, 0.16, 0.01, -0.94
225, 187500.00, 187500.00, 187500.00, -177467.55, 187500.00, 187500.00, -175563.11, 187500.00, 0.16, 0.01, -0.94
226, 187500.00, 187500.00, 187500.00, -180252.13, 187500.00, 187500.00, -179216.30, 187500.00, 0.16, 0.01, -0.94
227, 187500.00, 187500.00, 187500.00, -183942.72, 187500.00, 187500.00, -184376.50, 187500.00, 0.16, 0.01, -0.94
228, 187500.00, 187500.00, 187500.00, -181565.63, 187500.00, 187500.00, -181254.30, 187500.00, 0.16, 0.01, -0.94
229, 187500.00, 187500.00, 187500.00, -177567.39, 187500.00, 187500.00, -175755.92, 187500.00, 0.16, 0.01, -0.94
230, 187500.00, 187500.00, 187500.00, -179382.06, 187500.00, 187500.00, -178074.63, 187500.00, 0.16, 0.01, -0.94
231, 187500.00, 187500.00, 187500.00, -183592.95, 187500.00, 187500.00, -183901.66, 187500.00, 0.16, 0.01, -0.94
232, 187500.00, 187500.00, 187500.00, -182334.50, 187500.00, 187500.00, -182335.58, 187500.00, 0.16, 0.01, -0.94
233, 187500.00, 187500.00, 187500.00, -177914.27, 187500.00, 187500.00, -176294.28, 187500.00, 0.16, 0.01, -0.94
234, 187500.00, 187500.00, 187500.00, -178635.73, 187500.00, 187500.00, -177124.41, 187500.00, 0.16, 0.01, -0.94
235, 187500.00, 187500.00, 187500.00, -183025.28, 187500.00, 187500.00, -183143.17, 187500.00, 0.16, 0.01, -0.94
236, 187500.00, 187500.00, 187500.00, -182938.81, 187500.00, 187500.00, -183191.58, 187500.00, 0.16, 0.01, -0.94
237, 187500.00, 187500.00, 187500.00, -178427.59, 187500.00, 187500.00, -177039.69, 187500.00, 0.16, 0.01, -0.94
238, 187500.00, 187500.00, 187500.00, -178022.94, 187500.00, 187500.00, -176334.11, 187500.00, 0.16, 0.01, -0.94
239, 187500.00, 187500.00, 187500.00, -182349.92, 187500.00, 187500.00, -182199.50, 187500.00, 0.16, 0.01, -0.94
240, 187500.00, 187500.00, 187500.00, -183446.06, 187500.00, 187500.00, -183859.23, 187500.00, 0.16, 0.01, -0.94
241, 187500.00, 187500.00, 187500.00, -179144.48, 187500.00, 187500.00, -178008.11, 187500.00, 0.16, 0.01, -0.94
242, 187500.00, 187500.00, 187500.00, -177635.19, 187500.00, 187500.00, -175802.64, 187500.00, 0.16, 0.01, -0.94
243, 187500.00, 187500.00, 187500.00, -181610.83, 187500.00, 187500.00, -181133.03, 187500.00, 0.16, 0.01, -0.93
244, 187500.00, 187500.00, 187500.00, -183808.61, 187500.00, 187500.00, -184284.41, 187500.00, 0.16, 0.01, -0.93
245, 187500.00, 187500.00, 187500.00, -180005.67, 187500.00, 187500.00, -179147.03, 187500.00, 0.16, 0.01, -0.93
246, 187500.00, 187500.00, 187500.00, -177465.41, 187500.00, 187500.00, -175567.42, 187500.00, 0.16, 0.01, -0.93
247, 187500.00, 187500.00, 187500.00, -180825.09, 187500.00, 187500.00, -180024.67, 187500.00, 0.16, 0.01, -0.93
248, 187500.00, 187500.00, 187500.00, -183933.59, 187500.00, 187500.00, -184412.53, 187500.00, 0.15, 0.01, -0.93
249, 187500.00, 187500.00, 187500.00, -180886.11, 187500.00, 187500.00, -180347.41, 187500.00, 0.15, 0.01, -0.93
250, 187500.00, 187500.00, 187500.00, -177453.64, 187500.00, 187500.00, -175588.50, 187500.00, 0.15, 0.01, -0.93
251, 187500.00, 187500.00, 187500.00, -179985.88, 187500.00, 187500.00, -178890.33, 187500.00, 0.15, 0.01, -0.93
252, 187500.00, 187500.00, 187500.00, -183800.00, 187500.00, 187500.00, -184206.17, 187500.00, 0.15, 0.01, -0.93
253, 187500.00, 187500.00, 187500.00, -181727.67, 187500.00, 187500.00, -181498.30, 187500.00, 0.16, 0.00, -0.93
254, 187500.00, 187500.00, 187500.00, -177663.59, 187500.00, 187500.00, -175887.81, 187500.00, 0.16, 0.00, -0.93
255, 187500.00, 187500.00, 187500.00, -179207.66, 187500.00, 187500.00, -177822.22, 187500.00, 0.16, 0.00, -0.93
0, 187500.00, 187500.00, 187500.00, -183502.81, 187500.00, 187500.00, -183751.27, 187500.00, 0.16, 0.00, -0.93
1, 187500.00, 187500.00, 187500.00, -182586.64, 187500.00, 187500.00, -182651.78, 187500.00, 0.16, 0.00, -0.93
2, 187500.00, 187500.00, 187500.00, -178118.88, 187500.00, 187500.00, -176536.95, 187500.00, 0.16, 0.01, -0.92
3, 187500.00, 187500.00, 187500.00, -178534.73, 187500.00, 187500.00, -176947.98, 187500.00, 0.16, 0.01, -0.92
4, 187500.00, 187500.00, 187500.00, -182968.41, 187500.00, 187500.00, -183009.23, 187500.00, 0.16, 0.01, -0.92
5, 187500.00, 187500.00, 187500.00, -183226.55, 187500.00, 187500.00, -183532.48, 187500.00, 0.16, 0.01, -0.92
6, 187500.00, 187500.00, 187500.00, -178726.70, 187500.00, 187500.00, -177405.59, 187500.00, 0.16, 0.01, -0.92
7, 187500.00, 187500.00, 187500.00, -177997.02, 187500.00, 187500.00, -176266.91, 187500.00, 0.16, 0.01, -0.92
8, 187500.00, 187500.00, 187500.00, -182248.88, 187500.00, 187500.00, -182031.34, 187500.00, 0.16, 0.01, -0.92
9, 187500.00, 187500.00, 187500.00, -183656.56, 187500.00, 187500.00, -184131.70, 187500.00, 0.16, 0.01, -0.92
10, 187500.00, 187500.00, 187500.00, -179437.36, 187500.00, 187500.00, -178409.03, 187500.00, 0.16, 0.01, -0.92
11, 187500.00, 187500.00, 187500.00, -177590.59, 187500.00, 187500.00, -175758.78, 187500.00, 0.16, 0.01, -0.92
12, 187500.00, 187500.00, 187500.00, -181394.33, 187500.00, 187500.00, -180856.09, 187500.00, 0.16, 0.01, -0.92
13, 187500.00, 187500.00, 187500.00, -183866.98, 187500.00, 187500.00, -184380.70, 187500.00, 0.17, 0.01, -0.93
14, 187500.00, 187500.00, 187500.00, -180233.16, 187500.00, 187500.00, -179481.31, 187500.00, 0.17, 0.01, -0.93
15, 187500.00, 187500.00, 187500.00, -177390.77, 187500.00, 187500.00, -175495.52, 187500.00, 0.17, 0.01, -0.93
16, 187500.00, 187500.00, 187500.00, -180525.75, 187500.00, 187500.00, -179627.73, 187500.00, 0.17, 0.01, -0.93
17, 187500.00, 187500.00, 187500.00, -183859.30, 187500.00, 187500.00, -184306.72, 187500.00, 0.17, 0.01, -0.93
18, 187500.00, 187500.00, 187500.00, -181066.38, 187500.00, 187500.00, -180592.66, 187500.00, 0.16, 0.01, -0.93
19, 187500.00, 187500.00, 187500.00, -177408.86, 187500.00, 187500.00, -175527.30, 187500.00, 0.16, 0.01, -0.93
20, 187500.00, 187500.00, 187500.00, -179648.16, 187500.00, 187500.00, -178428.38, 187500.00, 0.16, 0.01, -0.93
21, 187500.00, 187500.00, 187500.00, -183623.28, 187500.00, 187500.00, -183948.97, 187500.00, 0.16, 0.01, -0.93
22, 187500.00, 187500.00, 187500.00, -181865.67, 187500.00, 187500.00, -181676.38, 187500.00, 0.16, 0.01, -0.93
23, 187500.00, 187500.00, 187500.00, -177648.47, 187500.00, 187500.00, -175880.27, 187500.00, 0.16, 0.00, -0.93
24, 187500.00, 187500.00, 187500.00, -178861.84, 187500.00, 187500.00, -177368.86, 187500.00, 0.16, 0.00, -0.93
25, 187500.00, 187500.00, 187500.00, -183179.00, 187500.00, 187500.00, -183309.47, 187500.00, 0.16, 0.00, -0.93
26, 187500.00, 187500.00, 187500.00, -182563.39, 187500.00, 187500.00, -182626.86, 187500.00, 0.16, 0.00, -0.93
27, 187500.00, 187500.00, 187500.00, -178083.25, 187500.00, 187500.00, -176500.00, 187500.00, 0.16, 0.00, -0.93
28, 187500.00, 187500.00, 187500.00, -178175.88, 187500.00, 187500.00, -176462.70, 187500.00, 0.16, 0.00, -0.94
29, 187500.00, 187500.00, 187500.00, -182561.69, 187500.00, 187500.00, -182431.67, 187500.00, 0.16, 0.00, -0.94
30, 187500.00, 187500.00, 187500.00, -183150.56, 187500.00, 187500.00, -183401.44, 187500.00, 0.16, 0.00, -0.94
31, 187500.00, 187500.00, 187500.00, -178689.83, 187500.00, 187500.00, -177322.06, 187500.00, 0.16, 0.00, -0.94
32, 187500.00, 187500.00, 187500.00, -177628.53, 187500.00, 187500.00, -175723.19, 187500.00, 0.16, 0.00, -0.94
33, 187500.00, 187500.00, 187500.00, -181816.55, 187500.00, 187500.00, -181367.28, 187500.00, 0.16, 0.00, -0.93
34, 187500.00, 187500.00, 187500.00, -183577.08, 187500.00, 187500.00, -183933.97, 187500.00, 0.16, 0.00, -0.93
35, 187500.00, 187500.00, 187500.00, -179479.22, 187500.00, 187500.00, -178386.30, 187500.00, 0.16, 0.00, -0.93
36, 187500.00, 187500.00, 187500.00, -177319.52, 187500.00, 187500.00, -175323.48, 187500.00, 0.16, 0.00, -0.93
37, 187500.00, 187500.00, 187500.00, -180996.33, 187500.00, 187500.00, -180222.48, 187500.00, 0.16, 0.00, -0.93
38, 187500.00, 187500.00, 187500.00, -183742.59, 187500.00, 187500.00, -184123.09, 187500.00, 0.16, 0.01, -0.94
39, 187500.00, 187500.00, 187500.00, -180326.53, 187500.00, 187500.00, -179535.13, 187500.00, 0.16, 0.01, -0.94
40, 187500.00, 187500.00, 187500.00, -177255.78, 187500.00, 187500.00, -175247.33, 187500.00, 0.16, 0.01, -0.94
41, 187500.00, 187500.00, 187500.00, -180193.97, 187500.00, 187500.00, -179111.61, 187500.00, 0.16, 0.01, -0.94
42, 187500.00, 187500.00, 187500.00, -183770.77, 187500.00, 187500.00, -184121.55, 187500.00, 0.16, 0.01, -0.94
43, 187500.00, 187500.00, 187500.00, -181276.23, 187500.00, 187500.00, -180828.53, 187500.00, 0.16, 0.01, -0.93
44, 187500.00, 187500.00, 187500.00, -177480.11, 187500.00, 187500.00, -175579.81, 187500.00, 0.16, 0.01, -0.93
45, 187500.00, 187500.00, 187500.00, -179498.92, 187500.00, 187500.00, -178168.14, 187500.00, 0.16, 0.01, -0.93
46, 187500.00, 187500.00, 187500.00, -183647.09, 187500.00, 187500.00, -183905.81, 187500.00, 0.16, 0.01, -0.93
47, 187500.00, 187500.00, 187500.00, -182244.66, 187500.00, 187500.00, -182116.22, 187500.00, 0.16, 0.01, -0.93
48, 187500.00, 187500.00, 187500.00, -177976.34, 187500.00, 187500.00, -176246.83, 187500.00, 0.16, 0.00, -0.93
49, 187500.00, 187500.00, 187500.00, -178931.20, 187500.00, 187500.00, -177382.00, 187500.00, 0.16, 0.00, -0.93
50, 187500.00, 187500.00, 187500.00, -183328.13, 187500.00, 187500.00, -183422.39, 187500.00, 0.16, 0.00, -0.93
51, 187500.00, 187500.00, 187500.00, -183090.42, 187500.00, 187500.00, -183258.77, 187500.00, 0.16, 0.00, -0.93
52, 187500.00, 187500.00, 187500.00, -178613.66, 187500.00, 187500.00, -177158.28, 187500.00, 0.16, 0.00, -0.93
53, 187500.00, 187500.00, 187500.00, -178422.55, 187500.00, 187500.00, -176752.92, 187500.00, 0.16, 0.00, -0.93
54, 187500.00, 187500.00, 187500.00, -182804.36, 187500.00, 187500.00, -182720.41, 187500.00, 0.16, 0.00, -0.93
55, 187500.00, 187500.00, 187500.00, -183749.75, 187500.00, 187500.00, -184181.81, 187500.00, 0.16, 0.00, -0.93
56, 187500.00, 187500.00, 187500.00, -179379.69, 187500.00, 187500.00, -178258.39, 187500.00, 0.16, 0.00, -0.93
57, 187500.00, 187500.00, 187500.00, -178041.30, 187500.00, 187500.00, -176307.48, 187500.00, 0.16, 0.00, -0.93
58, 187500.00, 187500.00, 187500.00, -182104.42, 187500.00, 187500.00, -181790.55, 187500.00, 0.17, 0.00, -0.93
59, 187500.00, 187500.00, 187500.00, -184162.25, 187500.00, 187500.00, -184762.80, 187500.00, 0.17, 0.00, -0.93
60, 187500.00, 187500.00, 187500.00, -180236.97, 187500.00, 187500.00, -179469.42, 187500.00, 0.17, 0.00, -0.93
61, 187500.00, 187500.00, 187500.00, -177816.69, 187500.00, 187500.00, -176068.34, 187500.00, 0.17, 0.00, -0.93
62, 187500.00, 187500.00, 187500.00, -181308.00, 187500.00, 187500.00, -180716.70, 187500.00, 0.17, 0.00, -0.93
63, 187500.00, 187500.00, 187500.00, -184299.94, 187500.00, 187500.00, -184947.77, 187500.00, 0.16, 0.01, -0.93
64, 187500.00, 187500.00, 187500.00, -181120.16, 187500.00, 187500.00, -180688.48, 187500.00, 0.16, 0.01, -0.93
65, 187500.00, 187500.00, 187500.00, -177806.67, 187500.00, 187500.00, -176070.70, 187500.00, 0.16, 0.01, -0.93
66, 187500.00, 187500.00, 187500.00, -180465.20, 187500.00, 187500.00, -179554.17, 187500.00, 0.16, 0.01, -0.93
67, 187500.00, 187500.00, 187500.00, -184187.39, 187500.00, 187500.00, -184752.83, 187500.00, 0.16, 0.01, -0.93
68, 187500.00, 187500.00, 187500.00, -181950.81, 187500.00, 187500.00, -181817.67, 187500.00, 0.16, 0.01, -0.93
69, 187500.00, 187500.00, 187500.00, -177926.58, 187500.00, 187500.00, -176289.08, 187500.00, 0.16, 0.01, -0.93
70, 187500.00, 187500.00, 187500.00, -179600.50, 187500.00, 187500.00, -178428.78, 187500.00, 0.16, 0.01, -0.93
71, 187500.00, 187500.00, 187500.00, -183784.27, 187500.00, 187500.00, -184232.48, 187500.00, 0.16, 0.01, -0.93
72, 187500.00, 187500.00, 187500.00, -182636.30, 187500.00, 187500.00, -182816.77, 187500.00, 0.16, 0.01, -0.93
73, 187500.00, 187500.00, 187500.00, -178199.91, 187500.00, 187500.00, -176749.81, 187500.00, 0.16, 0.01, -0.93
74, 187500.00, 187500.00, 187500.00, -178782.77, 187500.00, 187500.00, -177394.09, 187500.00, 0.16, 0.01, -0.93
75, 187500.00, 187500.00, 187500.00, -183167.11, 187500.00, 187500.00, -183411.80, 187500.00, 0.16, 0.01, -0.93
76, 187500.00, 187500.00, 187500.00, -183202.84, 187500.00, 187500.00, -183635.91, 187500.00, 0.16, 0.01, -0.93
77, 187500.00, 187500.00, 187500.00, -178662.98, 187500.00, 187500.00, -177450.56, 187500.00, 0.16, 0.01, -0.93
78, 187500.00, 187500.00, 187500.00, -178112.27, 187500.00, 187500.00, -176554.77, 187500.00, 0.16, 0.01, -0.93
79, 187500.00, 187500.00, 187500.00, -182395.34, 187500.00, 187500.00, -182377.91, 187500.00, 0.16, 0.01, -0.93
80, 187500.00, 187500.00, 187500.00, -183601.98, 187500.00, 187500.00, -184208.41, 187500.00, 0.16, 0.01, -0.93
81, 187500.00, 187500.00, 187500.00, -179291.94, 187500.00, 187500.00, -178358.58, 187500.00, 0.16, 0.01, -0.93
82, 187500.00, 187500.00, 187500.00, -177624.44, 187500.00, 187500.00, -175945.03, 187500.00, 0.16, 0.01, -0.93
83, 187500.00, 187500.00, 187500.00, -181515.41, 187500.00, 187500.00, -181175.17, 187500.00, 0.16, 0.01, -0.93
84, 187500.00, 187500.00, 187500.00, -183778.86, 187500.00, 187500.00, -184448.75, 187500.00, 0.16, 0.01, -0.93
85, 187500.00, 187500.00, 187500.00, -180003.33, 187500.00, 187500.00, -179371.84, 187500.00, 0.16, 0.01, -0.93
86, 187500.00, 187500.00, 187500.00, -177320.78, 187500.00, 187500.00, -175608.53, 187500.00, 0.16, 0.01, -0.93
87, 187500.00, 187500.00, 187500.00, -180562.02, 187500.00, 187500.00, -179916.42, 187500.00, 0.16, 0.01, -0.93
88, 187500.00, 187500.00, 187500.00, -183746.22, 187500.00, 187500.00, -184415.91, 187500.00, 0.15, 0.01, -0.93
89, 187500.00, 187500.00, 187500.00, -180758.73, 187500.00, 187500.00, -180445.72, 187500.00, 0.15, 0.01, -0.93
90, 187500.00, 187500.00, 187500.00, -177210.25, 187500.00, 187500.00, -175518.41, 187500.00, 0.15, 0.01, -0.93
91, 187500.00, 187500.00, 187500.00, -179599.17, 187500.00, 187500.00, -178629.38, 187500.00, 0.15, 0.01, -0.93
92, 187500.00, 187500.00, 187500.00, -183448.41, 187500.00, 187500.00, -184002.73, 187500.00, 0.15, 0.01, -0.93
93, 187500.00, 187500.00, 187500.00, -181455.34, 187500.00, 187500.00, -181423.34, 187500.00, 0.16, 0.00, -0.92
94, 187500.00, 187500.00, 187500.00, -177282.86, 187500.00, 187500.00, -175679.16, 187500.00, 0.16, 0.00, -0.92
95, 187500.00, 187500.00, 187500.00, -178652.23, 187500.00, 187500.00, -177393.47, 187500.00, 0.16, 0.00, -0.92
96, 187500.00, 187500.00, 187500.00, -182904.86, 187500.00, 187500.00, -183262.34, 187500.00, 0.16, 0.00, -0.92
97, 187500.00, 187500.00, 187500.00, -182050.50, 187500.00, 187500.00, -182265.55, 187500.00, 0.16, 0.00, -0.92
98, 187500.00, 187500.00, 187500.00, -177562.66, 187500.00, 187500.00, -176126.28, 187500.00, 0.16, 0.00, -0.93
99, 187500.00, 187500.00, 187500.00, -177833.88, 187500.00, 187500.00, -176345.20, 187500.00, 0.16, 0.00, -0.93
100, 187500.00, 187500.00, 187500.00, -182203.70, 187500.00, 187500.00, -182316.78, 187500.00, 0.16, 0.00, -0.93
101, 187500.00, 187500.00, 187500.00, -182539.56, 187500.00, 187500.00, -182973.55, 187500.00, 0.16, 0.00, -0.93
0, 0.00, 187500.00, 187500.00, -181577.23, 187500.00, 187500.00, -181483.50, 187500.00, 0.16, 0.01, -0.94
1, 0.00, 187500.00, 187500.00, -182651.97, 187500.00, 187500.00, -183122.72, 187500.00, 0.16, 0.01, -0.94
2, 0.00, 187500.00, 187500.00, -178311.13, 187500.00, 187500.00, -177229.86, 187500.00, 0.17, 0.01, -0.93
3, 0.00, 187500.00, 187500.00, -176769.25, 187500.00, 187500.00, -174995.75, 187500.00, 0.17, 0.01, -0.93
4, 0.00, 187500.00, 187500.00, -180726.56, 187500.00, 187500.00, -180290.70, 187500.00, 0.17, 0.01, -0.93
5, 0.00, 187500.00, 187500.00, -182914.48, 187500.00, 187500.00, -183422.19, 187500.00, 0.17, 0.01, -0.93
6, 0.00, 187500.00, 187500.00, -179091.31, 187500.00, 187500.00, -178251.13, 187500.00, 0.17, 0.01, -0.93
7, 0.00, 187500.00, 187500.00, -176529.06, 187500.00, 187500.00, -174631.63, 187500.00, 0.17, 0.00, -0.93
8, 0.00, 187500.00, 187500.00, -179872.73, 187500.00, 187500.00, -179042.11, 187500.00, 0.17, 0.00, -0.93
9, 0.00, 187500.00, 187500.00, -182992.09, 187500.00, 187500.00, -183419.80, 187500.00, 0.17, 0.00, -0.93
10, 0.00, 187500.00, 187500.00, -179936.66, 187500.00, 187500.00, -179332.02, 187500.00, 0.17, 0.00, -0.93
11, 0.00, 187500.00, 187500.00, -176521.11, 187500.00, 187500.00, -174576.58, 187500.00, 0.17, 0.00, -0.93
12, 0.00, 187500.00, 187500.00, -179049.67, 187500.00, 187500.00, -177855.70, 187500.00, 0.17, 0.00, -0.93
13, 0.00, 187500.00, 187500.00, -182931.28, 187500.00, 187500.00, -183226.52, 187500.00, 0.17, 0.00, -0.93
14, 0.00, 187500.00, 187500.00, -180866.53, 187500.00, 187500.00, -180521.98, 187500.00, 0.17, 0.00, -0.93
15, 0.00, 187500.00, 187500.00, -176754.45, 187500.00, 187500.00, -174856.27, 187500.00, 0.17, 0.00, -0.93
16, 0.00, 187500.00, 187500.00, -178287.61, 187500.00, 187500.00, -176771.92, 187500.00, 0.17, 0.00, -0.93
17, 0.00, 187500.00, 187500.00, -182611.88, 187500.00, 187500.00, -182708.06, 187500.00, 0.16, 0.01, -0.93
18, 0.00, 187500.00, 187500.00, -181685.50, 187500.00, 187500.00, -181590.69, 187500.00, 0.16, 0.01, -0.93
19, 0.00, 187500.00, 187500.00, -177225.17, 187500.00, 187500.00, -175475.69, 187500.00, 0.16, 0.01, -0.93
20, 0.00, 187500.00, 187500.00, -177654.61, 187500.00, 187500.00, -175883.44, 187500.00, 0.16, 0.01, -0.93
21, 0.00, 187500.00, 187500.00, -182122.20, 187500.00, 187500.00, -181950.03, 187500.00, 0.16, 0.01, -0.93
22, 0.00, 187500.00, 187500.00, -182389.53, 187500.00, 187500.00, -182468.03, 187500.00, 0.16, 0.01, -0.94
23, 0.00, 187500.00, 187500.00, -177878.78, 187500.00, 187500.00, -176317.61, 187500.00, 0.16, 0.01, -0.94
24, 0.00, 187500.00, 187500.00, -177159.67, 187500.00, 187500.00, -175184.05, 187500.00, 0.16, 0.01, -0.94
25, 0.00, 187500.00, 187500.00, -181460.63, 187500.00, 187500.00, -180985.00, 187500.00, 0.16, 0.01, -0.94
26, 0.00, 187500.00, 187500.00, -182896.61, 187500.00, 187500.00, -183123.39, 187500.00, 0.16, 0.01, -0.94
27, 0.00, 187500.00, 187500.00, -178633.84, 187500.00, 187500.00, -177363.81, 187500.00, 0.16, 0.01, -0.93
28, 0.00, 187500.00, 187500.00, -176768.75, 187500.00, 187500.00, -174704.06, 187500.00, 0.16, 0.01, -0.93
29, 0.00, 187500.00, 187500.00, -180606.58, 187500.00, 187500.00, -179831.20, 187500.00, 0.16, 0.01, -0.93
30, 0.00, 187500.00, 187500.00, -183080.55, 187500.00, 187500.00, -183372.98, 187500.00, 0.16, 0.01, -0.93
31, 0.00, 187500.00, 187500.00, -179383.81, 187500.00, 187500.00, -178411.64, 187500.00, 0.16, 0.01, -0.93
32, 0.00, 187500.00, 187500.00, -176529.36, 187500.00, 187500.00, -174424.98, 187500.00, 0.16, 0.01, -0.93
33, 0.00, 187500.00, 187500.00, -179660.91, 187500.00, 187500.00, -178558.30, 187500.00, 0.16, 0.01, -0.93
34, 0.00, 187500.00, 187500.00, -182982.19, 187500.00, 187500.00, -183224.53, 187500.00, 0.16, 0.01, -0.93
35, 0.00, 187500.00, 187500.00, -180126.13, 187500.00, 187500.00, -179449.70, 187500.00, 0.16, 0.01, -0.93
36, 0.00, 187500.00, 187500.00, -176458.61, 187500.00, 187500.00, -174403.03, 187500.00, 0.16, 0.01, -0.93
37, 0.00, 187500.00, 187500.00, -178690.55, 187500.00, 187500.00, -177294.45, 187500.00, 0.16, 0.02, -0.93
38, 0.00, 187500.00, 187500.00, -182633.69, 187500.00, 187500.00, -182760.69, 187500.00, 0.16, 0.02, -0.93
39, 0.00, 187500.00, 187500.00, -180827.53, 187500.00, 187500.00, -180440.67, 187500.00, 0.16, 0.02, -0.93
40, 0.00, 187500.00, 187500.00, -176606.17, 187500.00, 187500.00, -174655.92, 187500.00, 0.16, 0.02, -0.93
41, 0.00, 187500.00, 187500.00, -177807.06, 187500.00, 187500.00, -176135.97, 187500.00, 0.16, 0.02, -0.93
42, 0.00, 187500.00, 187500.00, -182104.13, 187500.00, 187500.00, -182029.97, 187500.00, 0.15, 0.02, -0.94
43, 0.00, 187500.00, 187500.00, -181446.03, 187500.00, 187500.00, -181301.91, 187500.00, 0.15, 0.02, -0.94
44, 0.00, 187500.00, 187500.00, -176960.78, 187500.00, 187500.00, -175184.58, 187500.00, 0.15, 0.02, -0.94
45, 0.00, 187500.00, 187500.00, -177062.28, 187500.00, 187500.00, -175167.53, 187500.00, 0.15, 0.02, -0.94
46, 0.00, 187500.00, 187500.00, -181436.05, 187500.00, 187500.00, -181099.06, 187500.00, 0.15, 0.02, -0.94
47, 0.00, 187500.00, 187500.00, -181981.89, 187500.00, 187500.00, -182016.86, 187500.00, 0.16, 0.01, -0.94
48, 0.00, 187500.00, 187500.00, -177528.72, 187500.00, 187500.00, -175963.56, 187500.00, 0.16, 0.01, -0.94
49, 0.00, 187500.00, 187500.00, -176488.31, 187500.00, 187500.00, -174398.78, 187500.00, 0.16, 0.01, -0.94
50, 0.00, 187500.00, 187500.00, -180686.05, 187500.00, 187500.00, -180024.28, 187500.00, 0.16, 0.01, -0.94
51, 0.00, 187500.00, 187500.00, -182427.58, 187500.00, 187500.00, -182556.92, 187500.00, 0.16, 0.01, -0.94
52, 0.00, 187500.00, 187500.00, -178310.30, 187500.00, 187500.00, -176996.47, 187500.00, 0.16, 0.01, -0.94
53, 0.00, 187500.00, 187500.00, -176180.94, 187500.00, 187500.00, -173978.38, 187500.00, 0.16, 0.01, -0.94
54, 0.00, 187500.00, 187500.00, -179863.23, 187500.00, 187500.00, -178866.75, 187500.00, 0.16, 0.01, -0.94
55, 0.00, 187500.00, 187500.00, -182631.56, 187500.00, 187500.00, -182776.73, 187500.00, 0.16, 0.01, -0.94
56, 0.00, 187500.00, 187500.00, -179166.58, 187500.00, 187500.00, -178135.97, 187500.00, 0.16, 0.01, -0.94
57, 0.00, 187500.00, 187500.00, -176047.27, 187500.00, 187500.00, -173802.89, 187500.00, 0.16, 0.00, -0.94
58, 0.00, 187500.00, 187500.00, -178969.89, 187500.00, 187500.00, -177632.25, 187500.00, 0.16, 0.00, -0.94
59, 0.00, 187500.00, 187500.00, -182559.36, 187500.00, 187500.00, -182634.13, 187500.00, 0.16, 0.00, -0.94
60, 0.00, 187500.00, 187500.00, -179987.23, 187500.00, 187500.00, -179246.81, 187500.00, 0.16, 0.00, -0.94
61, 0.00, 187500.00, 187500.00, -176106.58, 187500.00, 187500.00, -173908.61, 187500.00, 0.16, 0.00, -0.94
62, 0.00, 187500.00, 187500.00, -178077.22, 187500.00, 187500.00, -176428.45, 187500.00, 0.16, 0.01, -0.94
63, 0.00, 187500.00, 187500.00, -182234.13, 187500.00, 187500.00, -182150.08, 187500.00, 0.16, 0.01, -0.94
64, 0.00, 187500.00, 187500.00, -180786.58, 187500.00, 187500.00, -180311.03, 187500.00, 0.16, 0.01, -0.94
65, 0.00, 187500.00, 187500.00, -176435.77, 187500.00, 187500.00, -174351.45, 187500.00, 0.16, 0.01, -0.94
66, 0.00, 187500.00, 187500.00, -177339.34, 187500.00, 187500.00, -175411.48, 187500.00, 0.16, 0.01, -0.94
67, 0.00, 187500.00, 187500.00, -181760.13, 187500.00, 187500.00, -181437.94, 187500.00, 0.16, 0.01, -0.93
68, 0.00, 187500.00, 187500.00, -181487.89, 187500.00, 187500.00, -181227.27, 187500.00, 0.16, 0.01, -0.93
69, 0.00, 187500.00, 187500.00, -176941.45, 187500.00, 187500.00, -175038.20, 187500.00, 0.16, 0.01, -0.93
70, 0.00, 187500.00, 187500.00, -176686.94, 187500.00, 187500.00, -174549.39, 187500.00, 0.16, 0.01, -0.93
71, 0.00, 187500.00, 187500.00, -181048.77, 187500.00, 187500.00, -180454.14, 187500.00, 0.16, 0.01, -0.93
72, 0.00, 187500.00, 187500.00, -181962.94, 187500.00, 187500.00, -181871.58, 187500.00, 0.16, 0.01, -0.94
73, 0.00, 187500.00, 187500.00, -177568.78, 187500.00, 187500.00, -175918.69, 187500.00, 0.16, 0.01, -0.94
74, 0.00, 187500.00, 187500.00, -176215.58, 187500.00, 187500.00, -173947.45, 187500.00, 0.16, 0.01, -0.94
75, 0.00, 187500.00, 187500.00, -180277.16, 187500.00, 187500.00, -179390.38, 187500.00, 0.16, 0.01, -0.94
76, 0.00, 187500.00, 187500.00, -182280.80, 187500.00, 187500.00, -182293.78, 187500.00, 0.16, 0.01, -0.94
77, 0.00, 187500.00, 187500.00, -178326.14, 187500.00, 187500.00, -176975.11, 187500.00, 0.16, 0.01, -0.93
78, 0.00, 187500.00, 187500.00, -175925.13, 187500.00, 187500.00, -173608.91, 187500.00, 0.16, 0.01, -0.93
79, 0.00, 187500.00, 187500.00, -179390.33, 187500.00, 187500.00, -178205.41, 187500.00, 0.16, 0.01, -0.93
80, 0.00, 187500.00, 187500.00, -182360.72, 187500.00, 187500.00, -182398.03, 187500.00, 0.16, 0.01, -0.93
81, 0.00, 187500.00, 187500.00, -179146.23, 187500.00, 187500.00, -178109.06, 187500.00, 0.16, 0.01, -0.93
82, 0.00, 187500.00, 187500.00, -175844.72, 187500.00, 187500.00, -173537.13, 187500.00, 0.16, -0.00, -0.93
83, 0.00, 187500.00, 187500.00, -178504.13, 187500.00, 187500.00, -177004.11, 187500.00, 0.16, -0.00, -0.93
84, 0.00, 187500.00, 187500.00, -182236.34, 187500.00, 187500.00, -182183.08, 187500.00, 0.16, -0.00, -0.93
85, 0.00, 187500.00, 187500.00, -179964.42, 187500.00, 187500.00, -179208.84, 187500.00, 0.16, -0.00, -0.93
86, 0.00, 187500.00, 187500.00, -175988.91, 187500.00, 187500.00, -173743.64, 187500.00, 0.16, -0.00, -0.93
87, 0.00, 187500.00, 187500.00, -177673.03, 187500.00, 187500.00, -175874.36, 187500.00, 0.16, 0.00, -0.93
88, 0.00, 187500.00, 187500.00, -181883.83, 187500.00, 187500.00, -181656.23, 187500.00, 0.16, 0.00, -0.93
89, 0.00, 187500.00, 187500.00, -180721.42, 187500.00, 187500.00, -180230.09, 187500.00, 0.16, 0.00, -0.93
90, 0.00, 187500.00, 187500.00, -176316.50, 187500.00, 187500.00, -174224.64, 187500.00, 0.16, 0.00, -0.93
91, 0.00, 187500.00, 187500.00, -176912.28, 187500.00, 187500.00, -174887.13, 187500.00, 0.16, 0.00, -0.93
92, 0.00, 187500.00, 187500.00, -181326.00, 187500.00, 187500.00, -180893.17, 187500.00, 0.17, 0.00, -0.93
93, 0.00, 187500.00, 187500.00, -181365.56, 187500.00, 187500.00, -181111.33, 187500.00, 0.17, 0.00, -0.93
94, 0.00, 187500.00, 187500.00, -176836.92, 187500.00, 187500.00, -174958.11, 187500.00, 0.17, 0.00, -0.93
95, 0.00, 187500.00, 187500.00, -176271.94, 187500.00, 187500.00, -174057.09, 187500.00, 0.17, 0.00, -0.93
96, 0.00, 187500.00, 187500.00, -180598.27, 187500.00, 187500.00, -179898.92, 187500.00, 0.17, 0.00, -0.93
97, 0.00, 187500.00, 187500.00, -181840.16, 187500.00, 187500.00, -181771.13, 187500.00, 0.16, 0.01, -0.93
98, 0.00, 187500.00, 187500.00, -177529.16, 187500.00, 187500.00, -175945.13, 187500.00, 0.16, 0.01, -0.93
99, 0.00, 187500.00, 187500.00, -175868.59, 187500.00, 187500.00, -173567.80, 187500.00, 0.16, 0.01, -0.93
100, 0.00, 187500.00, 187500.00, -179791.30, 187500.00, 187500.00, -178811.17, 187500.00, 0.16, 0.01, -0.93
101, 0.00, 187500.00, 187500.00, -182109.64, 187500.00, 187500.00, -182131.59, 187500.00, 0.16, 0.01, -0.93
102, 0.00, 187500.00, 187500.00, -178344.09, 187500.00, 187500.00, -177072.22, 187500.00, 0.16, 0.01, -0.93
103, 0.00, 187500.00, 187500.00, -175669.03, 187500.00, 187500.00, -173334.73, 187500.00, 0.16, 0.01, -0.93
104, 0.00, 187500.00, 187500.00, -178945.41, 187500.00, 187500.00, -177655.64, 187500.00, 0.16, 0.01, -0.93
105, 0.00, 187500.00, 187500.00, -182199.55, 187500.00, 187500.00, -182205.83, 187500.00, 0.16, 0.01, -0.93
106, 0.00, 187500.00, 187500.00, -179231.17, 187500.00, 187500.00, -178254.08, 187500.00, 0.16, 0.01, -0.93
107, 0.00, 187500.00, 187500.00, -175710.86, 187500.00, 187500.00, -173385.19, 187500.00, 0.16, 0.01, -0.93
108, 0.00, 187500.00, 187500.00, -178142.50, 187500.00, 187500.00, -176529.44, 187500.00, 0.16, 0.01, -0.93
109, 0.00, 187500.00, 187500.00, -182068.45, 187500.00, 187500.00, -181955.42, 187500.00, 0.16, 0.01, -0.93
110, 0.00, 187500.00, 187500.00, -180111.72, 187500.00, 187500.00, -179416.84, 187500.00, 0.16, 0.01, -0.93
111, 0.00, 187500.00, 187500.00, -175992.52, 187500.00, 187500.00, -173762.36, 187500.00, 0.16, 0.01, -0.93
112, 0.00, 187500.00, 187500.00, -177415.73, 187500.00, 187500.00, -175529.27, 187500.00, 0.16, 0.02, -0.92
113, 0.00, 187500.00, 187500.00, -181741.00, 187500.00, 187500.00, -181451.28, 187500.00, 0.16, 0.02, -0.92
114, 0.00, 187500.00, 187500.00, -180926.19, 187500.00, 187500.00, -180491.61, 187500.00, 0.16, 0.02, -0.92
115, 0.00, 187500.00, 187500.00, -176486.02, 187500.00, 187500.00, -174432.27, 187500.00, 0.16, 0.02, -0.92
116, 0.00, 187500.00, 187500.00, -176774.39, 187500.00, 187500.00, -174673.09, 187500.00, 0.16, 0.02, -0.92
117, 0.00, 187500.00, 187500.00, -181194.34, 187500.00, 187500.00, -180672.19, 187500.00, 0.16, 0.01, -0.92
118, 0.00, 187500.00, 187500.00, -181567.42, 187500.00, 187500.00, -181356.28, 187500.00, 0.16, 0.01, -0.92
119, 0.00, 187500.00, 187500.00, -177076.69, 187500.00, 187500.00, -175271.44, 187500.00, 0.16, 0.01, -0.92
120, 0.00, 187500.00, 187500.00, -176202.95, 187500.00, 187500.00, -173955.73, 187500.00, 0.16, 0.01, -0.92
121, 0.00, 187500.00, 187500.00, -180411.89, 187500.00, 187500.00, -179620.05, 187500.00, 0.16, 0.01, -0.92
122, 0.00, 187500.00, 187500.00, -181933.72, 187500.00, 187500.00, -181869.97, 187500.00, 0.16, 0.02, -0.93
123, 0.00, 187500.00, 187500.00, -177732.97, 187500.00, 187500.00, -176205.14, 187500.00, 0.16, 0.02, -0.93
124, 0.00, 187500.00, 187500.00, -175753.27, 187500.00, 187500.00, -173400.17, 187500.00, 0.16, 0.02, -0.93
125, 0.00, 187500.00, 187500.00, -179503.25, 187500.00, 187500.00, -178394.75, 187500.00, 0.16, 0.02, -0.93
126, 0.00, 187500.00, 187500.00, -182084.17, 187500.00, 187500.00, -182068.97, 187500.00, 0.16, 0.02, -0.93
127, 0.00, 187500.00, 187500.00, -178479.92, 187500.00, 187500.00, -177249.33, 187500.00, 0.16, 0.01, -0.92
128, 0.00, 187500.00, 187500.00, -175529.39, 187500.00, 187500.00, -173155.06, 187500.00, 0.16, 0.01, -0.92
129, 0.00, 187500.00, 187500.00, -178583.64, 187500.00, 187500.00, -177167.78, 187500.00, 0.16, 0.01, -0.92
130, 0.00, 187500.00, 187500.00, -182024.83, 187500.00, 187500.00, -181976.66, 187500.00, 0.16, 0.01, -0.92
131, 0.00, 187500.00, 187500.00, -179299.91, 187500.00, 187500.00, -178378.45, 187500.00, 0.16, 0.01, -0.92
132, 0.00, 187500.00, 187500.00, -175580.23, 187500.00, 187500.00, -173250.47, 187500.00, 0.16, 0.01, -0.93
133, 0.00, 187500.00, 187500.00, -177725.69, 187500.00, 187500.00, -176020.11, 187500.00, 0.16, 0.01, -0.93
134, 0.00, 187500.00, 187500.00, -181764.64, 187500.00, 187500.00, -181614.38, 187500.00, 0.16, 0.01, -0.93
135, 0.00, 187500.00, 187500.00, -180125.03, 187500.00, 187500.00, -179513.56, 187500.00, 0.16, 0.01, -0.93
136, 0.00, 187500.00, 187500.00, -175914.13, 187500.00, 187500.00, -173724.06, 187500.00, 0.16, 0.01, -0.93
137, 0.00, 187500.00, 187500.00, -177039.84, 187500.00, 187500.00, -175075.17, 187500.00, 0.16, 0.01, -0.93
138, 0.00, 187500.00, 187500.00, -181489.25, 187500.00, 187500.00, -181114.19, 187500.00, 0.16, 0.01, -0.93
139, 0.00, 187500.00, 187500.00, -181058.28, 187500.00, 187500.00, -180653.20, 187500.00, 0.16, 0.01, -0.93
140, 0.00, 187500.00, 187500.00, -176563.16, 187500.00, 187500.00, -174521.05, 187500.00, 0.16, 0.01, -0.93
141, 0.00, 187500.00, 187500.00, -176550.55, 187500.00, 187500.00, -174334.06, 187500.00, 0.16, 0.01, -0.93
142, 0.00, 187500.00, 187500.00, -181019.33, 187500.00, 187500.00, -180355.38, 187500.00, 0.17, 0.01, -0.93
143, 0.00, 187500.00, 187500.00, -181799.00, 187500.00, 187500.00, -181557.61, 187500.00, 0.17, 0.01, -0.93
144, 0.00, 187500.00, 187500.00, -177379.34, 187500.00, 187500.00, -175554.38, 187500.00, 0.17, 0.01, -0.93
145, 0.00, 187500.00, 187500.00, -176190.19, 187500.00, 187500.00, -173805.97, 187500.00, 0.17, 0.01, -0.93
146, 0.00, 187500.00, 187500.00, -180341.36, 187500.00, 187500.00, -179370.16, 187500.00, 0.17, 0.01, -0.93
147, 0.00, 187500.00, 187500.00, -182211.64, 187500.00, 187500.00, -182084.28, 187500.00, 0.17, 0.01, -0.93
148, 0.00, 187500.00, 187500.00, -178184.44, 187500.00, 187500.00, -176668.83, 187500.00, 0.17, 0.01, -0.93
149, 0.00, 187500.00, 187500.00, -175940.34, 187500.00, 187500.00, -173521.28, 187500.00, 0.17, 0.01, -0.93
150, 0.00, 187500.00, 187500.00, -179519.02, 187500.00, 187500.00, -178273.84, 187500.00, 0.17, 0.01, -0.93
151, 0.00, 187500.00, 187500.00, -182395.61, 187500.00, 187500.00, -182329.56, 187500.00, 0.17, 0.01, -0.93
152, 0.00, 187500.00, 187500.00, -179063.28, 187500.00, 187500.00, -177870.19, 187500.00, 0.17, 0.01, -0.93
153, 0.00, 187500.00, 187500.00, -175891.48, 187500.00, 187500.00, -173474.25, 187500.00, 0.17, 0.01, -0.93
154, 0.00, 187500.00, 187500.00, -178696.80, 187500.00, 187500.00, -177145.48, 187500.00, 0.17, 0.01, -0.93
155, 0.00, 187500.00, 187500.00, -182357.19, 187500.00, 187500.00, -182230.41, 187500.00, 0.17, 0.01, -0.93
156, 0.00, 187500.00, 187500.00, -179959.72, 187500.00, 187500.00, -179072.48, 187500.00, 0.17, 0.01, -0.93
157, 0.00, 187500.00, 187500.00, -176088.58, 187500.00, 187500.00, -173742.47, 187500.00, 0.16, 0.01, -0.93
158, 0.00, 187500.00, 187500.00, -177954.14, 187500.00, 187500.00, -176117.08, 187500.00, 0.16, 0.01, -0.93
159, 0.00, 187500.00, 187500.00, -182134.44, 187500.00, 187500.00, -181861.70, 187500.00, 0.16, 0.01, -0.93
160, 0.00, 187500.00, 187500.00, -180821.38, 187500.00, 187500.00, -180213.70, 187500.00, 0.16, 0.01, -0.93
161, 0.00, 187500.00, 187500.00, -176482.94, 187500.00, 187500.00, -174296.69, 187500.00, 0.16, 0.01, -0.93
162, 0.00, 187500.00, 187500.00, -177252.36, 187500.00, 187500.00, -175199.63, 187500.00, 0.16, 0.01, -0.93
163, 0.00, 187500.00, 187500.00, -181672.64, 187500.00, 187500.00, -181225.19, 187500.00, 0.16, 0.01, -0.93
164, 0.00, 187500.00, 187500.00, -181551.69, 187500.00, 187500.00, -181228.83, 187500.00, 0.16, 0.01, -0.93
165, 0.00, 187500.00, 187500.00, -177047.14, 187500.00, 187500.00, -175118.41, 187500.00, 0.16, 0.01, -0.93
166, 0.00, 187500.00, 187500.00, -176671.33, 187500.00, 187500.00, -174478.36, 187500.00, 0.16, 0.01, -0.93
167, 0.00, 187500.00, 187500.00, -181026.66, 187500.00, 187500.00, -180372.41, 187500.00, 0.16, 0.01, -0.93
168, 0.00, 187500.00, 187500.00, -182119.19, 187500.00, 187500.00, -182027.48, 187500.00, 0.16, 0.01, -0.93
169, 0.00, 187500.00, 187500.00, -177757.47, 187500.00, 187500.00, -176121.72, 187500.00, 0.16, 0.01, -0.93
170, 0.00, 187500.00, 187500.00, -176220.86, 187500.00, 187500.00, -173908.69, 187500.00, 0.16, 0.01, -0.93
171, 0.00, 187500.00, 187500.00, -180243.75, 187500.00, 187500.00, -179283.09, 187500.00, 0.16, 0.01, -0.93
172, 0.00, 187500.00, 187500.00, -182455.83, 187500.00, 187500.00, -182447.53, 187500.00, 0.16, 0.01, -0.93
173, 0.00, 187500.00, 187500.00, -178579.56, 187500.00, 187500.00, -177225.13, 187500.00, 0.16, 0.01, -0.93
174, 0.00, 187500.00, 187500.00, -176013.61, 187500.00, 187500.00, -173631.56, 187500.00, 0.16, 0.01, -0.93
175, 0.00, 187500.00, 187500.00, -179402.78, 187500.00, 187500.00, -178107.92, 187500.00, 0.16, 0.01, -0.93
176, 0.00, 187500.00, 187500.00, -182535.88, 187500.00, 187500.00, -182497.34, 187500.00, 0.16, 0.01, -0.93
177, 0.00, 187500.00, 187500.00, -179441.75, 187500.00, 187500.00, -178366.58, 187500.00, 0.16, 0.01, -0.92
178, 0.00, 187500.00, 187500.00, -176041.38, 187500.00, 187500.00, -173664.28, 187500.00, 0.16, 0.01, -0.92
179, 0.00, 187500.00, 187500.00, -178589.97, 187500.00, 187500.00, -176983.03, 187500.00, 0.16, 0.01, -0.92
180, 0.00, 187500.00, 187500.00, -182415.69, 187500.00, 187500.00, -182285.83, 187500.00, 0.16, 0.01, -0.92
181, 0.00, 187500.00, 187500.00, -180304.34, 187500.00, 187500.00, -179530.84, 187500.00, 0.16, 0.01, -0.92
182, 0.00, 187500.00, 187500.00, -176243.64, 187500.00, 187500.00, -173962.64, 187500.00, 0.16, 0.01, -0.93
183, 0.00, 187500.00, 187500.00, -177789.08, 187500.00, 187500.00, -175911.22, 187500.00, 0.16, 0.01, -0.93
184, 0.00, 187500.00, 187500.00, -182056.50, 187500.00, 187500.00, -181765.59, 187500.00, 0.16, 0.01, -0.93
185, 0.00, 187500.00, 187500.00, -181084.86, 187500.00, 187500.00, -180589.75, 187500.00, 0.16, 0.01, -0.93
186, 0.00, 187500.00, 187500.00, -176668.83, 187500.00, 187500.00, -174565.64, 187500.00, 0.16, 0.01, -0.93
187, 0.00, 187500.00, 187500.00, -177113.00, 187500.00, 187500.00, -175011.30, 187500.00, 0.16, 0.01, -0.93
188, 0.00, 187500.00, 187500.00, -181552.42, 187500.00, 187500.00, -181026.50, 187500.00, 0.15, 0.01, -0.93
189, 0.00, 187500.00, 187500.00, -181786.23, 187500.00, 187500.00, -181487.02, 187500.00, 0.15, 0.01, -0.93
190, 0.00, 187500.00, 187500.00, -177305.52, 187500.00, 187500.00, -175384.00, 187500.00, 0.15, 0.01, -0.93
191, 0.00, 187500.00, 187500.00, -176635.28, 187500.00, 187500.00, -174313.06, 187500.00, 0.15, 0.01, -0.93
192, 0.00, 187500.00, 187500.00, -180943.16, 187500.00, 187500.00, -180093.72, 187500.00, 0.15, 0.01, -0.93
193, 0.00, 187500.00, 187500.00, -182354.95, 187500.00, 187500.00, -182165.53, 187500.00, 0.16, 0.01, -0.93
0, 0.00, 187500.00, 0.00, -179873.13, 187500.00, 187500.00, -178532.66, 187500.00, 0.16, 0.01, -0.93
1, 0.00, 187500.00, 0.00, -182845.33, 187500.00, 187500.00, -182711.73, 187500.00, 0.16, 0.01, -0.93
2, 0.00, 187500.00, 0.00, -179574.59, 187500.00, 187500.00, -178321.72, 187500.00, 0.15, 0.01, -0.93
3, 0.00, 187500.00, 0.00, -176317.28, 187500.00, 187500.00, -173795.17, 187500.00, 0.15, 0.01, -0.93
4, 0.00, 187500.00, 0.00, -179113.70, 187500.00, 187500.00, -177432.19, 187500.00, 0.15, 0.01, -0.93
5, 0.00, 187500.00, 0.00, -182877.19, 187500.00, 187500.00, -182637.50, 187500.00, 0.15, 0.01, -0.93
6, 0.00, 187500.00, 0.00, -180558.88, 187500.00, 187500.00, -179567.45, 187500.00, 0.15, 0.01, -0.93
7, 0.00, 187500.00, 0.00, -176643.34, 187500.00, 187500.00, -174162.13, 187500.00, 0.15, 0.01, -0.93
8, 0.00, 187500.00, 0.00, -178480.38, 187500.00, 187500.00, -176479.80, 187500.00, 0.15, 0.01, -0.93
9, 0.00, 187500.00, 0.00, -182719.78, 187500.00, 187500.00, -182292.58, 187500.00, 0.15, 0.01, -0.93
