%OpenBCI Raw EEG Data
%
%Sample Rate = 250.0 Hz
%First Column = SampleIndex
%Other Columns = EEG data in microvolts followed by Accel Data (in G) interleaved with Aux Data
0, 0.00, 17486.08, 0.00, 0.00, 0.00, 0.00, 0.00, 0.00, 0.01, -0.19, 1.00
1, 0.00, 17475.91, 0.00, 0.00, 0.00, 0.00, 0.00, 0.00, 0.01, -0.19, 1.00
2, 0.00, 17456.29, 0.00, 0.00, 0.00, 0.00, 0.00, 0.00, 0.00, -0.20, 1.01
3, 0.00, 17478.44, 0.00, 0.00, 0.00, 0.00, 0.00, 0.00, 0.00, -0.20, 1.01
4, 0.00, 17521.26, 0.00, 0.00, 0.00, 0.00, 0.00, 0.00, 0.00, -0.20, 1.01
5, 0.00, 17551.28, 0.00, 0.00, 0.00, 0.00, 0.00, 0.00, 0.00, -0.20, 1.01
6, 0.00, 17532.91, 0.00, 0.00, 0.00, 0.00, 0.00, 0.00, 0.00, -0.20, 1.01
7, 0.00, 17534.56, 0.00, 0.00, 0.00, 0.00, 0.00, 0.00, 0.01, -0.20, 1.01
8, 0.00, 17578.08, 0.00, 0.00, 0.00, 0.00, 0.00, 0.00, 0.01, -0.20, 1.01
9, 0.00, 17575.02, 0.00, 0.00, 0.00, 0.00, 0.00, 0.00, 0.01, -0.20, 1.01
10, 0.00, 17571.24, 0.00, 0.00, 0.00, 0.00, 0.00, 0.00, 0.01, -0.20, 1.01
11, 0.00, 17581.90, 0.00, 0.00, 0.00, 0.00, 0.00, 0.00, 0.01, -0.20, 1.01
12, 0.00, 17612.79, 0.00, 0.00, 0.00, 0.00, 0.00, 0.00, 0.01, -0.20, 1.01
13, 0.00, 17627.35, 0.00, 0.00, 0.00, 0.00, 0.00, 0.00, 0.01, -0.20, 1.01
14, 0.00, 17608.70, 0.00, 0.00, 0.00, 0.00, 0.00, 0.00, 0.01, -0.20, 1.01
15, 0.00, 17600.23, 0.00, 0.00, 0.00, 0.00, 0.00, 0.00, 0.01, -0.20, 1.01
16, 0.00, 17628.26, 0.00, 0.00, 0.00, 0.00, 0.00, 0.00, 0.01, -0.20, 1.01
17, 0.00, 17640.73, 0.00, 0.00, 0.00, 0.00, 0.00, 0.00, 0.01, -0.19, 1.01
18, 0.00, 17631.86, 0.00, 0.00, 0.00, 0.00, 0.00, 0.00, 0.01, -0.19, 1.01
19, 0.00, 17623.41, 0.00, 0.00, 0.00, 0.00, 0.00, 0.00, 0.01, -0.19, 1.01
20, 0.00, 17637.78, 0.00, 0.00, 0.00, 0.00, 0.00, 0.00, 0.01, -0.19, 1.01
21, 0.00, 17659.91, 0.00, 0.00, 0.00, 0.00, 0.00, 0.00, 0.01, -0.19, 1.01
22, 0.00, 17658.46, 0.00, 0.00, 0.00, 0.00, 0.00, 0.00, 0.01, -0.20, 1.01
23, 0.00, 17636.62, 0.00, 0.00, 0.00, 0.00, 0.00, 0.00, 0.01, -0.20, 1.01
24, 0.00, 17654.70, 0.00, 0.00, 0.00, 0.00, 0.00, 0.00, 0.01, -0.20, 1.01
25, 0.00, 17670.98, 0.00, 0.00, 0.00, 0.00, 0.00, 0.00, 0.01, -0.20, 1.01
26, 0.00, 17662.62, 0.00, 0.00, 0.00, 0.00, 0.00, 0.00, 0.01, -0.20, 1.01
27, 0.00, 17665.83, 0.00, 0.00, 0.00, 0.00, 0.00, 0.00, 0.00, -0.20, 1.01
28, 0.00, 17684.37, 0.00, 0.00, 0.00, 0.00, 0.00, 0.00, 0.00, -0.20, 1.01
29, 0.00, 17687.85, 0.00, 0.00, 0.00, 0.00, 0.00, 0.00, 0.00, -0.20, 1.01
30, 0.00, 17664.45, 0.00, 0.00, 0.00, 0.00, 0.00, 0.00, 0.00, -0.20, 1.01
31, 0.00, 17643.26, 0.00, 0.00, 0.00, 0.00, 0.00, 0.00, 0.00, -0.20, 1.01
32, 0.00, 17648.80, 0.00, 0.00, 0.00, 0.00, 0.00, 0.00, 0.01, -0.20, 1.01
33, 0.00, 17653.94, 0.00, 0.00, 0.00, 0.00, 0.00, 0.00, 0.01, -0.20, 1.01
34, 0.00, 17687.05, 0.00, 0.00, 0.00, 0.00, 0.00, 0.00, 0.01, -0.20, 1.01
35, 0.00, 17670.01, 0.00, 0.00, 0.00, 0.00, 0.00, 0.00, 0.01, -0.20, 1.01
36, 0.00, 17674.82, 0.00, 0.00, 0.00, 0.00, 0.00, 0.00, 0.01, -0.20, 1.01
37, 0.00, 17687.34, 0.00, 0.00, 0.00, 0.00, 0.00, 0.00, 0.01, -0.20, 1.00
38, 0.00, 17679.96, 0.00, 0.00, 0.00, 0.00, 0.00, 0.00, 0.01, -0.20, 1.00
39, 0.00, 17732.51, 0.00, 0.00, 0.00, 0.00, 0.00, 0.00, 0.01, -0.20, 1.00
40, 0.00, 17711.50, 0.00, 0.00, 0.00, 0.00, 0.00, 0.00, 0.01, -0.20, 1.00
41, 0.00, 17712.21, 0.00, 0.00, 0.00, 0.00, 0.00, 0.00, 0.01, -0.20, 1.00
42, 0.00, 17707.14, 0.00, 0.00, 0.00, 0.00, 0.00, 0.00, 0.00, -0.19, 1.01
43, 0.00, 17710.67, 0.00, 0.00, 0.00, 0.00, 0.00, 0.00, 0.00, -0.19, 1.01
44, 0.00, 17706.04, 0.00, 0.00, 0.00, 0.00, 0.00, 0.00, 0.00, -0.19, 1.01
45, 0.00, 17718.03, 0.00, 0.00, 0.00, 0.00, 0.00, 0.00, 0.00, -0.19, 1.01
46, 0.00, 17734.63, 0.00, 0.00, 0.00, 0.00, 0.00, 0.00, 0.00, -0.19, 1.01
47, 0.00, 17730.95, 0.00, 0.00, 0.00, 0.00, 0.00, 0.00, 0.00, -0.20, 1.01
48, 0.00, 17700.99, 0.00, 0.00, 0.00, 0.00, 0.00, 0.00, 0.00, -0.20, 1.01
49, 0.00, 17710.36, 0.00, 0.00, 0.00, 0.00, 0.00, 0.00, 0.00, -0.20, 1.01
50, 0.00, 17701.46, 0.00, 0.00, 0.00, 0.00, 0.00, 0.00, 0.00, -0.20, 1.01
51, 0.00, 17714.25, 0.00, 0.00, 0.00, 0.00, 0.00, 0.00, 0.00, -0.20, 1.01
52, 0.00, 17725.89, 0.00, 0.00, 0.00, 0.00, 0.00, 0.00, 0.01, -0.20, 1.01
53, 0.00, 17735.21, 0.00, 0.00, 0.00, 0.00, 0.00, 0.00, 0.01, -0.20, 1.01
54, 0.00, 17753.39, 0.00, 0.00, 0.00, 0.00, 0.00, 0.00, 0.01, -0.20, 1.01
55, 0.00, 17759.51, 0.00, 0.00, 0.00, 0.00, 0.00, 0.00, 0.01, -0.20, 1.01
56, 0.00, 17740.00, 0.00, 0.00, 0.00, 0.00, 0.00, 0.00, 0.01, -0.20, 1.01
57, 0.00, 17756.00, 0.00, 0.00, 0.00, 0.00, 0.00, 0.00, 0.01, -0.19, 1.01
58, 0.00, 17781.39, 0.00, 0.00, 0.00, 0.00, 0.00, 0.00, 0.01, -0.19, 1.01
59, 0.00, 17775.85, 0.00, 0.00, 0.00, 0.00, 0.00, 0.00, 0.01, -0.19, 1.01
60, 0.00, 17767.36, 0.00, 0.00, 0.00, 0.00, 0.00, 0.00, 0.01, -0.19, 1.01
61, 0.00, 17764.67, 0.00, 0.00, 0.00, 0.00, 0.00, 0.00, 0.01, -0.19, 1.01
62, 0.00, 17784.01, 0.00, 0.00, 0.00, 0.00, 0.00, 0.00, 0.00, -0.22, 1.02
63, 0.00, 17787.52, 0.00, 0.00, 0.00, 0.00, 0.00, 0.00, 0.00, -0.22, 1.02
64, 0.00, 17767.58, 0.00, 0.00, 0.00, 0.00, 0.00, 0.00, 0.00, -0.22, 1.02
65, 0.00, 17761.77, 0.00, 0.00, 0.00, 0.00, 0.00, 0.00, 0.00, -0.22, 1.02
66, 0.00, 17789.04, 0.00, 0.00, 0.00, 0.00, 0.00, 0.00, 0.00, -0.22, 1.02
67, 0.00, 17801.73, 0.00, 0.00, 0.00, 0.00, 0.00, 0.00, 0.00, -0.20, 1.01
68, 0.00, 17792.46, 0.00, 0.00, 0.00, 0.00, 0.00, 0.00, 0.00, -0.20, 1.01
69, 0.00, 17788.54, 0.00, 0.00, 0.00, 0.00, 0.00, 0.00, 0.00, -0.20, 1.01
70, 0.00, 17790.63, 0.00, 0.00, 0.00, 0.00, 0.00, 0.00, 0.00, -0.20, 1.01
71, 0.00, 17810.74, 0.00, 0.00, 0.00, 0.00, 0.00, 0.00, 0.00, -0.20, 1.01
72, 0.00, 17807.50, 0.00, 0.00, 0.00, 0.00, 0.00, 0.00, -0.01, -0.19, 1.03
73, 0.00, 17793.69, 0.00, 0.00, 0.00, 0.00, 0.00, 0.00, -0.01, -0.19, 1.03
74, 0.00, 17801.91, 0.00, 0.00, 0.00, 0.00, 0.00, 0.00, -0.01, -0.19, 1.03
75, 0.00, 17833.32, 0.00, 0.00, 0.00, 0.00, 0.00, 0.00, -0.01, -0.19, 1.03
76, 0.00, 17822.10, 0.00, 0.00, 0.00, 0.00, 0.00, 0.00, -0.01, -0.19, 1.03
77, 0.00, 17805.44, 0.00, 0.00, 0.00, 0.00, 0.00, 0.00, -0.00, -0.18, 1.02
78, 0.00, 17814.92, 0.00, 0.00, 0.00, 0.00, 0.00, 0.00, -0.00, -0.18, 1.02
79, 0.00, 17832.09, 0.00, 0.00, 0.00, 0.00, 0.00, 0.00, -0.00, -0.18, 1.02
80, 0.00, 17833.81, 0.00, 0.00, 0.00, 0.00, 0.00, 0.00, -0.00, -0.18, 1.02
81, 0.00, 17816.73, 0.00, 0.00, 0.00, 0.00, 0.00, 0.00, -0.00, -0.18, 1.02
82, 0.00, 17815.95, 0.00, 0.00, 0.00, 0.00, 0.00, 0.00, 0.00, -0.18, 1.02
83, 0.00, 17848.11, 0.00, 0.00, 0.00, 0.00, 0.00, 0.00, 0.00, -0.18, 1.02
84, 0.00, 17848.89, 0.00, 0.00, 0.00, 0.00, 0.00, 0.00, 0.00, -0.18, 1.02
85, 0.00, 17845.61, 0.00, 0.00, 0.00, 0.00, 0.00, 0.00, 0.00, -0.18, 1.02
86, 0.00, 17842.39, 0.00, 0.00, 0.00, 0.00, 0.00, 0.00, 0.00, -0.18, 1.02
87, 0.00, 17853.12, 0.00, 0.00, 0.00, 0.00, 0.00, 0.00, -0.01, -0.19, 1.02
88, 0.00, 17864.59, 0.00, 0.00, 0.00, 0.00, 0.00, 0.00, -0.01, -0.19, 1.02
89, 0.00, 17846.59, 0.00, 0.00, 0.00, 0.00, 0.00, 0.00, -0.01, -0.19, 1.02
90, 0.00, 17846.55, 0.00, 0.00, 0.00, 0.00, 0.00, 0.00, -0.01, -0.19, 1.02
91, 0.00, 17870.49, 0.00, 0.00, 0.00, 0.00, 0.00, 0.00, -0.01, -0.19, 1.02
92, 0.00, 17873.73, 0.00, 0.00, 0.00, 0.00, 0.00, 0.00, -0.00, -0.19, 1.02
93, 0.00, 17853.14, 0.00, 0.00, 0.00, 0.00, 0.00, 0.00, -0.00, -0.19, 1.02
94, 0.00, 17855.78, 0.00, 0.00, 0.00, 0.00, 0.00, 0.00, -0.00, -0.19, 1.02
95, 0.00, 17867.49, 0.00, 0.00, 0.00, 0.00, 0.00, 0.00, -0.00, -0.19, 1.02
96, 0.00, 17882.31, 0.00, 0.00, 0.00, 0.00, 0.00, 0.00, -0.00, -0.19, 1.02
97, 0.00, 17878.02, 0.00, 0.00, 0.00, 0.00, 0.00, 0.00, 0.00, -0.19, 1.01
98, 0.00, 17866.42, 0.00, 0.00, 0.00, 0.00, 0.00, 0.00, 0.00, -0.19, 1.01
99, 0.00, 17884.59, 0.00, 0.00, 0.00, 0.00, 0.00, 0.00, 0.00, -0.19, 1.01
100, 0.00, 17898.36, 0.00, 0.00, 0.00, 0.00, 0.00, 0.00, 0.00, -0.19, 1.01
101, 0.00, 17892.55, 0.00, 0.00, 0.00, 0.00, 0.00, 0.00, 0.00, -0.19, 1.01
102, 0.00, 17878.06, 0.00, 0.00, 0.00, 0.00, 0.00, 0.00, 0.00, -0.20, 1.01
103, 0.00, 17887.59, 0.00, 0.00, 0.00, 0.00, 0.00, 0.00, 0.00, -0.20, 1.01
104, 0.00, 17909.07, 0.00, 0.00, 0.00, 0.00, 0.00, 0.00, 0.00, -0.20, 1.01
105, 0.00, 17906.18, 0.00, 0.00, 0.00, 0.00, 0.00, 0.00, 0.00, -0.20, 1.01
106, 0.00, 17879.34, 0.00, 0.00, 0.00, 0.00, 0.00, 0.00, 0.00, -0.20, 1.01
107, 0.00, 17874.96, 0.00, 0.00, 0.00, 0.00, 0.00, 0.00, 0.01, -0.19, 1.01
108, 0.00, 17905.85, 0.00, 0.00, 0.00, 0.00, 0.00, 0.00, 0.01, -0.19, 1.01
109, 0.00, 17901.09, 0.00, 0.00, 0.00, 0.00, 0.00, 0.00, 0.01, -0.19, 1.01
110, 0.00, 17880.30, 0.00, 0.00, 0.00, 0.00, 0.00, 0.00, 0.01, -0.19, 1.01
111, 0.00, 17876.01, 0.00, 0.00, 0.00, 0.00, 0.00, 0.00, 0.01, -0.19, 1.01
112, 0.00, 17884.48, 0.00, 0.00, 0.00, 0.00, 0.00, 0.00, 0.01, -0.19, 1.02
113, 0.00, 17885.73, 0.00, 0.00, 0.00, 0.00, 0.00, 0.00, 0.01, -0.19, 1.02
114, 0.00, 17875.83, 0.00, 0.00, 0.00, 0.00, 0.00, 0.00, 0.01, -0.19, 1.02
115, 0.00, 17859.15, 0.00, 0.00, 0.00, 0.00, 0.00, 0.00, 0.01, -0.19, 1.02
116, 0.00, 17887.18, 0.00, 0.00, 0.00, 0.00, 0.00, 0.00, 0.01, -0.19, 1.02
117, 0.00, 17909.36, 0.00, 0.00, 0.00, 0.00, 0.00, 0.00, 0.01, -0.19, 1.02
118, 0.00, 17884.14, 0.00, 0.00, 0.00, 0.00, 0.00, 0.00, 0.01, -0.19, 1.02
119, 0.00, 17879.14, 0.00, 0.00, 0.00, 0.00, 0.00, 0.00, 0.01, -0.19, 1.02
120, 0.00, 17920.82, 0.00, 0.00, 0.00, 0.00, 0.00, 0.00, 0.01, -0.19, 1.02
121, 0.00, 17928.54, 0.00, 0.00, 0.00, 0.00, 0.00, 0.00, 0.01, -0.19, 1.02
122, 0.00, 17894.49, 0.00, 0.00, 0.00, 0.00, 0.00, 0.00, 0.01, -0.19, 1.01
123, 0.00, 17872.97, 0.00, 0.00, 0.00, 0.00, 0.00, 0.00, 0.01, -0.19, 1.01
124, 0.00, 17909.94, 0.00, 0.00, 0.00, 0.00, 0.00, 0.00, 0.01, -0.19, 1.01
125, 0.00, 17955.20, 0.00, 0.00, 0.00, 0.00, 0.00, 0.00, 0.01, -0.19, 1.01
126, 0.00, 17944.72, 0.00, 0.00, 0.00, 0.00, 0.00, 0.00, 0.01, -0.19, 1.01
127, 0.00, 17926.05, 0.00, 0.00, 0.00, 0.00, 0.00, 0.00, 0.01, -0.19, 1.02
128, 0.00, 17938.88, 0.00, 0.00, 0.00, 0.00, 0.00, 0.00, 0.01, -0.19, 1.02
129, 0.00, 17959.51, 0.00, 0.00, 0.00, 0.00, 0.00, 0.00, 0.01, -0.19, 1.02
130, 0.00, 17972.28, 0.00, 0.00, 0.00, 0.00, 0.00, 0.00, 0.01, -0.19, 1.02
131, 0.00, 17958.78, 0.00, 0.00, 0.00, 0.00, 0.00, 0.00, 0.01, -0.19, 1.02
132, 0.00, 17959.69, 0.00, 0.00, 0.00, 0.00, 0.00, 0.00, 0.00, -0.20, 1.01
133, 0.00, 17989.78, 0.00, 0.00, 0.00, 0.00, 0.00, 0.00, 0.00, -0.20, 1.01
134, 0.00, 18003.41, 0.00, 0.00, 0.00, 0.00, 0.00, 0.00, 0.00, -0.20, 1.01
135, 0.00, 17972.43, 0.00, 0.00, 0.00, 0.00, 0.00, 0.00, 0.00, -0.20, 1.01
136, 0.00, 17967.09, 0.00, 0.00, 0.00, 0.00, 0.00, 0.00, 0.00, -0.20, 1.01
137, 0.00, 17986.92, 0.00, 0.00, 0.00, 0.00, 0.00, 0.00, 0.00, -0.20, 1.01
138, 0.00, 17990.38, 0.00, 0.00, 0.00, 0.00, 0.00, 0.00, 0.00, -0.20, 1.01
139, 0.00, 17977.57, 0.00, 0.00, 0.00, 0.00, 0.00, 0.00, 0.00, -0.20, 1.01
140, 0.00, 17958.29, 0.00, 0.00, 0.00, 0.00, 0.00, 0.00, 0.00, -0.20, 1.01
141, 0.00, 17974.65, 0.00, 0.00, 0.00, 0.00, 0.00, 0.00, 0.00, -0.20, 1.01
142, 0.00, 17987.74, 0.00, 0.00, 0.00, 0.00, 0.00, 0.00, 0.00, -0.21, 1.01
143, 0.00, 17982.78, 0.00, 0.00, 0.00, 0.00, 0.00, 0.00, 0.00, -0.21, 1.01
144, 0.00, 17968.37, 0.00, 0.00, 0.00, 0.00, 0.00, 0.00, 0.00, -0.21, 1.01
145, 0.00, 17991.46, 0.00, 0.00, 0.00, 0.00, 0.00, 0.00, 0.00, -0.21, 1.01
146, 0.00, 18015.10, 0.00, 0.00, 0.00, 0.00, 0.00, 0.00, 0.00, -0.21, 1.01
147, 0.00, 18008.42, 0.00, 0.00, 0.00, 0.00, 0.00, 0.00, 0.00, -0.21, 1.01
148, 0.00, 17991.70, 0.00, 0.00, 0.00, 0.00, 0.00, 0.00, 0.01, -0.20, 1.02
149, 0.00, 18014.07, 0.00, 0.00, 0.00, 0.00, 0.00, 0.00, 0.01, -0.20, 1.02
150, 0.00, 18048.68, 0.00, 0.00, 0.00, 0.00, 0.00, 0.00, 0.01, -0.20, 1.02
151, 0.00, 18048.21, 0.00, 0.00, 0.00, 0.00, 0.00, 0.00, 0.01, -0.20, 1.02
152, 0.00, 18016.00, 0.00, 0.00, 0.00, 0.00, 0.00, 0.00, 0.01, -0.20, 1.02
153, 0.00, 18025.27, 0.00, 0.00, 0.00, 0.00, 0.00, 0.00, 0.01, -0.19, 1.01
154, 0.00, 18040.05, 0.00, 0.00, 0.00, 0.00, 0.00, 0.00, 0.01, -0.19, 1.01
155, 0.00, 18046.64, 0.00, 0.00, 0.00, 0.00, 0.00, 0.00, 0.01, -0.19, 1.01
156, 0.00, 18026.32, 0.00, 0.00, 0.00, 0.00, 0.00, 0.00, 0.01, -0.19, 1.01
157, 0.00, 18024.69, 0.00, 0.00, 0.00, 0.00, 0.00, 0.00, 0.01, -0.19, 1.01
158, 0.00, 18056.63, 0.00, 0.00, 0.00, 0.00, 0.00, 0.00, 0.00, -0.19, 1.01
159, 0.00, 18058.89, 0.00, 0.00, 0.00, 0.00, 0.00, 0.00, 0.00, -0.19, 1.01
160, 0.00, 18043.31, 0.00, 0.00, 0.00, 0.00, 0.00, 0.00, 0.00, -0.19, 1.01
161, 0.00, 18048.18, 0.00, 0.00, 0.00, 0.00, 0.00, 0.00, 0.00, -0.19, 1.01
162, 0.00, 18069.87, 0.00, 0.00, 0.00, 0.00, 0.00, 0.00, 0.00, -0.19, 1.01
163, 0.00, 18083.46, 0.00, 0.00, 0.00, 0.00, 0.00, 0.00, -0.00, -0.20, 1.02
164, 0.00, 18075.95, 0.00, 0.00, 0.00, 0.00, 0.00, 0.00, -0.00, -0.20, 1.02
165, 0.00, 18069.39, 0.00, 0.00, 0.00, 0.00, 0.00, 0.00, -0.00, -0.20, 1.02
166, 0.00, 18079.19, 0.00, 0.00, 0.00, 0.00, 0.00, 0.00, -0.00, -0.20, 1.02
167, 0.00, 18104.20, 0.00, 0.00, 0.00, 0.00, 0.00, 0.00, -0.00, -0.20, 1.02
168, 0.00, 18099.50, 0.00, 0.00, 0.00, 0.00, 0.00, 0.00, 0.00, -0.20, 1.02
169, 0.00, 18090.03, 0.00, 0.00, 0.00, 0.00, 0.00, 0.00, 0.00, -0.20, 1.02
170, 0.00, 18090.29, 0.00, 0.00, 0.00, 0.00, 0.00, 0.00, 0.00, -0.20, 1.02
171, 0.00, 18109.49, 0.00, 0.00, 0.00, 0.00, 0.00, 0.00, 0.00, -0.20, 1.02
172, 0.00, 18095.44, 0.00, 0.00, 0.00, 0.00, 0.00, 0.00, 0.00, -0.20, 1.02
173, 0.00, 18085.56, 0.00, 0.00, 0.00, 0.00, 0.00, 0.00, -0.00, -0.20, 1.01
174, 0.00, 18086.81, 0.00, 0.00, 0.00, 0.00, 0.00, 0.00, -0.00, -0.20, 1.01
175, 0.00, 18112.60, 0.00, 0.00, 0.00, 0.00, 0.00, 0.00, -0.00, -0.20, 1.01
176, 0.00, 18127.00, 0.00, 0.00, 0.00, 0.00, 0.00, 0.00, -0.00, -0.20, 1.01
177, 0.00, 18103.64, 0.00, 0.00, 0.00, 0.00, 0.00, 0.00, -0.00, -0.20, 1.01
178, 0.00, 18103.93, 0.00, 0.00, 0.00, 0.00, 0.00, 0.00, 0.00, -0.20, 1.02
179, 0.00, 18112.76, 0.00, 0.00, 0.00, 0.00, 0.00, 0.00, 0.00, -0.20, 1.02
180, 0.00, 18129.01, 0.00, 0.00, 0.00, 0.00, 0.00, 0.00, 0.00, -0.20, 1.02
181, 0.00, 18102.37, 0.00, 0.00, 0.00, 0.00, 0.00, 0.00, 0.00, -0.20, 1.02
182, 0.00, 18097.31, 0.00, 0.00, 0.00, 0.00, 0.00, 0.00, 0.00, -0.20, 1.02
183, 0.00, 18135.62, 0.00, 0.00, 0.00, 0.00, 0.00, 0.00, 0.00, -0.19, 1.01
184, 0.00, 18134.53, 0.00, 0.00, 0.00, 0.00, 0.00, 0.00, 0.00, -0.19, 1.01
185, 0.00, 18091.10, 0.00, 0.00, 0.00, 0.00, 0.00, 0.00, 0.00, -0.19, 1.01
186, 0.00, 18029.83, 0.00, 0.00, 0.00, 0.00, 0.00, 0.00, 0.00, -0.19, 1.01
187, 0.00, 17993.11, 0.00, 0.00, 0.00, 0.00, 0.00, 0.00, 0.00, -0.19, 1.01
188, 0.00, 17954.80, 0.00, 0.00, 0.00, 0.00, 0.00, 0.00, 0.01, -0.19, 1.01
189, 0.00, 17903.21, 0.00, 0.00, 0.00, 0.00, 0.00, 0.00, 0.01, -0.19, 1.01
190, 0.00, 17832.09, 0.00, 0.00, 0.00, 0.00, 0.00, 0.00, 0.01, -0.19, 1.01
191, 0.00, 17796.21, 0.00, 0.00, 0.00, 0.00, 0.00, 0.00, 0.01, -0.19, 1.01
192, 0.00, 17752.67, 0.00, 0.00, 0.00, 0.00, 0.00, 0.00, 0.01, -0.19, 1.01
193, 0.00, 17715.48, 0.00, 0.00, 0.00, 0.00, 0.00, 0.00, 0.00, -0.19, 1.01
194, 0.00, 17668.34, 0.00, 0.00, 0.00, 0.00, 0.00, 0.00, 0.00, -0.19, 1.01
195, 0.00, 17658.79, 0.00, 0.00, 0.00, 0.00, 0.00, 0.00, 0.00, -0.19, 1.01
196, 0.00, 17630.00, 0.00, 0.00, 0.00, 0.00, 0.00, 0.00, 0.00, -0.19, 1.01
197, 0.00, 17630.43, 0.00, 0.00, 0.00, 0.00, 0.00, 0.00, 0.00, -0.19, 1.01
198, 0.00, 17622.67, 0.00, 0.00, 0.00, 0.00, 0.00, 0.00, 0.00, -0.19, 1.02
199, 0.00, 17622.70, 0.00, 0.00, 0.00, 0.00, 0.00, 0.00, 0.00, -0.19, 1.02
200, 0.00, 17663.13, 0.00, 0.00, 0.00, 0.00, 0.00, 0.00, 0.00, -0.19, 1.02
201, 0.00, 17675.09, 0.00, 0.00, 0.00, 0.00, 0.00, 0.00, 0.00, -0.19, 1.02
202, 0.00, 17652.83, 0.00, 0.00, 0.00, 0.00, 0.00, 0.00, 0.00, -0.19, 1.02
203, 0.00, 17653.61, 0.00, 0.00, 0.00, 0.00, 0.00, 0.00, 0.00, -0.19, 1.01
204, 0.00, 17692.14, 0.00, 0.00, 0.00, 0.00, 0.00, 0.00, 0.00, -0.19, 1.01
205, 0.00, 17700.48, 0.00, 0.00, 0.00, 0.00, 0.00, 0.00, 0.00, -0.19, 1.01
206, 0.00, 17679.69, 0.00, 0.00, 0.00, 0.00, 0.00, 0.00, 0.00, -0.19, 1.01
207, 0.00, 17692.34, 0.00, 0.00, 0.00, 0.00, 0.00, 0.00, 0.00, -0.19, 1.01
208, 0.00, 17720.48, 0.00, 0.00, 0.00, 0.00, 0.00, 0.00, -0.00, -0.20, 1.01
209, 0.00, 17740.18, 0.00, 0.00, 0.00, 0.00, 0.00, 0.00, -0.00, -0.20, 1.01
210, 0.00, 17754.79, 0.00, 0.00, 0.00, 0.00, 0.00, 0.00, -0.00, -0.20, 1.01
211, 0.00, 17784.72, 0.00, 0.00, 0.00, 0.00, 0.00, 0.00, -0.00, -0.20, 1.01
212, 0.00, 17850.50, 0.00, 0.00, 0.00, 0.00, 0.00, 0.00, -0.00, -0.20, 1.01
213, 0.00, 17928.91, 0.00, 0.00, 0.00, 0.00, 0.00, 0.00, 0.00, -0.19, 1.01
214, 0.00, 17971.43, 0.00, 0.00, 0.00, 0.00, 0.00, 0.00, 0.00, -0.19, 1.01
215, 0.00, 17990.72, 0.00, 0.00, 0.00, 0.00, 0.00, 0.00, 0.00, -0.19, 1.01
216, 0.00, 18039.02, 0.00, 0.00, 0.00, 0.00, 0.00, 0.00, 0.00, -0.19, 1.01
217, 0.00, 18074.49, 0.00, 0.00, 0.00, 0.00, 0.00, 0.00, 0.00, -0.19, 1.01
218, 0.00, 18060.54, 0.00, 0.00, 0.00, 0.00, 0.00, 0.00, 0.00, -0.19, 1.01
219, 0.00, 18055.36, 0.00, 0.00, 0.00, 0.00, 0.00, 0.00, 0.00, -0.19, 1.01
220, 0.00, 18074.02, 0.00, 0.00, 0.00, 0.00, 0.00, 0.00, 0.00, -0.19, 1.01
221, 0.00, 18108.02, 0.00, 0.00, 0.00, 0.00, 0.00, 0.00, 0.00, -0.19, 1.01
222, 0.00, 18119.98, 0.00, 0.00, 0.00, 0.00, 0.00, 0.00, 0.00, -0.19, 1.01
223, 0.00, 18087.17, 0.00, 0.00, 0.00, 0.00, 0.00, 0.00, 0.00, -0.19, 1.01
224, 0.00, 18092.91, 0.00, 0.00, 0.00, 0.00, 0.00, 0.00, 0.00, -0.19, 1.01
225, 0.00, 18118.95, 0.00, 0.00, 0.00, 0.00, 0.00, 0.00, 0.00, -0.19, 1.01
226, 0.00, 18122.08, 0.00, 0.00, 0.00, 0.00, 0.00, 0.00, 0.00, -0.19, 1.01
227, 0.00, 18102.99, 0.00, 0.00, 0.00, 0.00, 0.00, 0.00, 0.00, -0.19, 1.01
228, 0.00, 18102.34, 0.00, 0.00, 0.00, 0.00, 0.00, 0.00, 0.01, -0.19, 1.01
229, 0.00, 18130.91, 0.00, 0.00, 0.00, 0.00, 0.00, 0.00, 0.01, -0.19, 1.01
230, 0.00, 18135.65, 0.00, 0.00, 0.00, 0.00, 0.00, 0.00, 0.01, -0.19, 1.01
231, 0.00, 18120.87, 0.00, 0.00, 0.00, 0.00, 0.00, 0.00, 0.01, -0.19, 1.01
232, 0.00, 18119.46, 0.00, 0.00, 0.00, 0.00, 0.00, 0.00, 0.01, -0.19, 1.01
233, 0.00, 18154.31, 0.00, 0.00, 0.00, 0.00, 0.00, 0.00, 0.01, -0.19, 1.01
234, 0.00, 18165.89, 0.00, 0.00, 0.00, 0.00, 0.00, 0.00, 0.01, -0.19, 1.01
235, 0.00, 18145.28, 0.00, 0.00, 0.00, 0.00, 0.00, 0.00, 0.01, -0.19, 1.01
236, 0.00, 18130.79, 0.00, 0.00, 0.00, 0.00, 0.00, 0.00, 0.01, -0.19, 1.01
237, 0.00, 18162.74, 0.00, 0.00, 0.00, 0.00, 0.00, 0.00, 0.01, -0.19, 1.01
238, 0.00, 18178.38, 0.00, 0.00, 0.00, 0.00, 0.00, 0.00, 0.00, -0.19, 1.01
239, 0.00, 18165.60, 0.00, 0.00, 0.00, 0.00, 0.00, 0.00, 0.00, -0.19, 1.01
240, 0.00, 18154.49, 0.00, 0.00, 0.00, 0.00, 0.00, 0.00, 0.00, -0.19, 1.01
241, 0.00, 18174.27, 0.00, 0.00, 0.00, 0.00, 0.00, 0.00, 0.00, -0.19, 1.01
242, 0.00, 18194.61, 0.00, 0.00, 0.00, 0.00, 0.00, 0.00, 0.00, -0.19, 1.01
243, 0.00, 18180.57, 0.00, 0.00, 0.00, 0.00, 0.00, 0.00, -0.00, -0.20, 1.01
244, 0.00, 18156.05, 0.00, 0.00, 0.00, 0.00, 0.00, 0.00, -0.00, -0.20, 1.01
245, 0.00, 18175.50, 0.00, 0.00, 0.00, 0.00, 0.00, 0.00, -0.00, -0.20, 1.01
246, 0.00, 18193.04, 0.00, 0.00, 0.00, 0.00, 0.00, 0.00, -0.00, -0.20, 1.01
247, 0.00, 18187.08, 0.00, 0.00, 0.00, 0.00, 0.00, 0.00, -0.00, -0.20, 1.01
248, 0.00, 18171.65, 0.00, 0.00, 0.00, 0.00, 0.00, 0.00, 0.00, -0.19, 1.01
249, 0.00, 18178.32, 0.00, 0.00, 0.00, 0.00, 0.00, 0.00, 0.00, -0.19, 1.01
250, 0.00, 18217.41, 0.00, 0.00, 0.00, 0.00, 0.00, 0.00, 0.00, -0.19, 1.01
251, 0.00, 18234.91, 0.00, 0.00, 0.00, 0.00, 0.00, 0.00, 0.00, -0.19, 1.01
252, 0.00, 18255.74, 0.00, 0.00, 0.00, 0.00, 0.00, 0.00, 0.00, -0.19, 1.01
253, 0.00, 18232.79, 0.00, 0.00, 0.00, 0.00, 0.00, 0.00, 0.01, -0.19, 1.01
254, 0.00, 18209.99, 0.00, 0.00, 0.00, 0.00, 0.00, 0.00, 0.01, -0.19, 1.01
255, 0.00, 18236.32, 0.00, 0.00, 0.00, 0.00, 0.00, 0.00, 0.01, -0.19, 1.01
0, 0.00, 18264.08, 0.00, 0.00, 0.00, 0.00, 0.00, 0.00, 0.01, -0.19, 1.01
1, 0.00, 18328.43, 0.00, 0.00, 0.00, 0.00, 0.00, 0.00, 0.01, -0.19, 1.01
2, 0.00, 18377.71, 0.00, 0.00, 0.00, 0.00, 0.00, 0.00, 0.00, -0.19, 1.02
3, 0.00, 18403.20, 0.00, 0.00, 0.00, 0.00, 0.00, 0.00, 0.00, -0.19, 1.02
4, 0.00, 18404.56, 0.00, 0.00, 0.00, 0.00, 0.00, 0.00, 0.00, -0.19, 1.02
5, 0.00, 18434.42, 0.00, 0.00, 0.00, 0.00, 0.00, 0.00, 0.00, -0.19, 1.02
6, 0.00, 18468.08, 0.00, 0.00, 0.00, 0.00, 0.00, 0.00, 0.00, -0.19, 1.02
7, 0.00, 18502.97, 0.00, 0.00, 0.00, 0.00, 0.00, 0.00, 0.00, -0.19, 1.01
8, 0.00, 18506.39, 0.00, 0.00, 0.00, 0.00, 0.00, 0.00, 0.00, -0.19, 1.01
9, 0.00, 18513.19, 0.00, 0.00, 0.00, 0.00, 0.00, 0.00, 0.00, -0.19, 1.01
10, 0.00, 18552.24, 0.00, 0.00, 0.00, 0.00, 0.00, 0.00, 0.00, -0.19, 1.01
11, 0.00, 18596.74, 0.00, 0.00, 0.00, 0.00, 0.00, 0.00, 0.00, -0.19, 1.01
12, 0.00, 18631.10, 0.00, 0.00, 0.00, 0.00, 0.00, 0.00, -0.00, -0.19, 1.01
13, 0.00, 18646.63, 0.00, 0.00, 0.00, 0.00, 0.00, 0.00, -0.00, -0.19, 1.01
14, 0.00, 18679.75, 0.00, 0.00, 0.00, 0.00, 0.00, 0.00, -0.00, -0.19, 1.01
15, 0.00, 18749.22, 0.00, 0.00, 0.00, 0.00, 0.00, 0.00, -0.00, -0.19, 1.01
16, 0.00, 18812.72, 0.00, 0.00, 0.00, 0.00, 0.00, 0.00, -0.00, -0.19, 1.01
17, 0.00, 18836.91, 0.00, 0.00, 0.00, 0.00, 0.00, 0.00, 0.00, -0.19, 1.00
18, 0.00, 18847.53, 0.00, 0.00, 0.00, 0.00, 0.00, 0.00, 0.00, -0.19, 1.00
19, 0.00, 18866.08, 0.00, 0.00, 0.00, 0.00, 0.00, 0.00, 0.00, -0.19, 1.00
20, 0.00, 18887.83, 0.00, 0.00, 0.00, 0.00, 0.00, 0.00, 0.00, -0.19, 1.00
21, 0.00, 18906.07, 0.00, 0.00, 0.00, 0.00, 0.00, 0.00, 0.00, -0.19, 1.00
22, 0.00, 18905.98, 0.00, 0.00, 0.00, 0.00, 0.00, 0.00, 0.01, -0.19, 1.01
23, 0.00, 18955.02, 0.00, 0.00, 0.00, 0.00, 0.00, 0.00, 0.01, -0.19, 1.01
24, 0.00, 18995.65, 0.00, 0.00, 0.00, 0.00, 0.00, 0.00, 0.01, -0.19, 1.01
25, 0.00, 18996.17, 0.00, 0.00, 0.00, 0.00, 0.00, 0.00, 0.01, -0.19, 1.01
26, 0.00, 19009.58, 0.00, 0.00, 0.00, 0.00, 0.00, 0.00, 0.01, -0.19, 1.01
27, 0.00, 19024.17, 0.00, 0.00, 0.00, 0.00, 0.00, 0.00, 0.01, -0.20, 1.00
28, 0.00, 19078.91, 0.00, 0.00, 0.00, 0.00, 0.00, 0.00, 0.01, -0.20, 1.00
29, 0.00, 19087.18, 0.00, 0.00, 0.00, 0.00, 0.00, 0.00, 0.01, -0.20, 1.00
30, 0.00, 19115.81, 0.00, 0.00, 0.00, 0.00, 0.00, 0.00, 0.01, -0.20, 1.00
31, 0.00, 19147.44, 0.00, 0.00, 0.00, 0.00, 0.00, 0.00, 0.01, -0.20, 1.00
32, 0.00, 19189.73, 0.00, 0.00, 0.00, 0.00, 0.00, 0.00, 0.00, -0.20, 1.01
33, 0.00, 19200.84, 0.00, 0.00, 0.00, 0.00, 0.00, 0.00, 0.00, -0.20, 1.01
34, 0.00, 19192.50, 0.00, 0.00, 0.00, 0.00, 0.00, 0.00, 0.00, -0.20, 1.01
35, 0.00, 19221.96, 0.00, 0.00, 0.00, 0.00, 0.00, 0.00, 0.00, -0.20, 1.01
36, 0.00, 19245.34, 0.00, 0.00, 0.00, 0.00, 0.00, 0.00, 0.00, -0.20, 1.01
37, 0.00, 19264.79, 0.00, 0.00, 0.00, 0.00, 0.00, 0.00, 0.01, -0.20, 1.02
38, 0.00, 19264.32, 0.00, 0.00, 0.00, 0.00, 0.00, 0.00, 0.01, -0.20, 1.02
39, 0.00, 19269.26, 0.00, 0.00, 0.00, 0.00, 0.00, 0.00, 0.01, -0.20, 1.02
40, 0.00, 19297.36, 0.00, 0.00, 0.00, 0.00, 0.00, 0.00, 0.01, -0.20, 1.02
41, 0.00, 19352.56, 0.00, 0.00, 0.00, 0.00, 0.00, 0.00, 0.01, -0.20, 1.02
42, 0.00, 19343.82, 0.00, 0.00, 0.00, 0.00, 0.00, 0.00, 0.01, -0.19, 1.01
43, 0.00, 19349.75, 0.00, 0.00, 0.00, 0.00, 0.00, 0.00, 0.01, -0.19, 1.01
44, 0.00, 19409.20, 0.00, 0.00, 0.00, 0.00, 0.00, 0.00, 0.01, -0.19, 1.01
45, 0.00, 19461.08, 0.00, 0.00, 0.00, 0.00, 0.00, 0.00, 0.01, -0.19, 1.01
46, 0.00, 19472.59, 0.00, 0.00, 0.00, 0.00, 0.00, 0.00, 0.01, -0.19, 1.01
47, 0.00, 19462.58, 0.00, 0.00, 0.00, 0.00, 0.00, 0.00, 0.01, -0.19, 1.01
48, 0.00, 19482.85, 0.00, 0.00, 0.00, 0.00, 0.00, 0.00, 0.01, -0.19, 1.01
49, 0.00, 19515.96, 0.00, 0.00, 0.00, 0.00, 0.00, 0.00, 0.01, -0.19, 1.01
50, 0.00, 19514.84, 0.00, 0.00, 0.00, 0.00, 0.00, 0.00, 0.01, -0.19, 1.01
51, 0.00, 19509.03, 0.00, 0.00, 0.00, 0.00, 0.00, 0.00, 0.01, -0.19, 1.01
52, 0.00, 19518.57, 0.00, 0.00, 0.00, 0.00, 0.00, 0.00, 0.01, -0.20, 1.01
53, 0.00, 19552.32, 0.00, 0.00, 0.00, 0.00, 0.00, 0.00, 0.01, -0.20, 1.01
54, 0.00, 19597.54, 0.00, 0.00, 0.00, 0.00, 0.00, 0.00, 0.01, -0.20, 1.01
55, 0.00, 19601.83, 0.00, 0.00, 0.00, 0.00, 0.00, 0.00, 0.01, -0.20, 1.01
56, 0.00, 19631.54, 0.00, 0.00, 0.00, 0.00, 0.00, 0.00, 0.01, -0.20, 1.01
57, 0.00, 19668.01, 0.00, 0.00, 0.00, 0.00, 0.00, 0.00, 0.00, -0.20, 1.01
58, 0.00, 19689.03, 0.00, 0.00, 0.00, 0.00, 0.00, 0.00, 0.00, -0.20, 1.01
59, 0.00, 19685.09, 0.00, 0.00, 0.00, 0.00, 0.00, 0.00, 0.00, -0.20, 1.01
60, 0.00, 19747.16, 0.00, 0.00, 0.00, 0.00, 0.00, 0.00, 0.00, -0.20, 1.01
61, 0.00, 19787.95, 0.00, 0.00, 0.00, 0.00, 0.00, 0.00, 0.00, -0.20, 1.01
62, 0.00, 19839.88, 0.00, 0.00, 0.00, 0.00, 0.00, 0.00, 0.00, -0.20, 1.01
63, 0.00, 19859.77, 0.00, 0.00, 0.00, 0.00, 0.00, 0.00, 0.00, -0.20, 1.01
64, 0.00, 19918.91, 0.00, 0.00, 0.00, 0.00, 0.00, 0.00, 0.00, -0.20, 1.01
65, 0.00, 19998.69, 0.00, 0.00, 0.00, 0.00, 0.00, 0.00, 0.00, -0.20, 1.01
66, 0.00, 20059.10, 0.00, 0.00, 0.00, 0.00, 0.00, 0.00, 0.00, -0.20, 1.01
67, 0.00, 20136.33, 0.00, 0.00, 0.00, 0.00, 0.00, 0.00, 0.01, -0.20, 1.01
68, 0.00, 20227.86, 0.00, 0.00, 0.00, 0.00, 0.00, 0.00, 0.01, -0.20, 1.01
69, 0.00, 20359.13, 0.00, 0.00, 0.00, 0.00, 0.00, 0.00, 0.01, -0.20, 1.01
70, 0.00, 20462.06, 0.00, 0.00, 0.00, 0.00, 0.00, 0.00, 0.01, -0.20, 1.01
71, 0.00, 20552.14, 0.00, 0.00, 0.00, 0.00, 0.00, 0.00, 0.01, -0.20, 1.01
72, 0.00, 20633.63, 0.00, 0.00, 0.00, 0.00, 0.00, 0.00, 0.01, -0.19, 1.02
73, 0.00, 20743.20, 0.00, 0.00, 0.00, 0.00, 0.00, 0.00, 0.01, -0.19, 1.02
74, 0.00, 20852.66, 0.00, 0.00, 0.00, 0.00, 0.00, 0.00, 0.01, -0.19, 1.02
75, 0.00, 20926.28, 0.00, 0.00, 0.00, 0.00, 0.00, 0.00, 0.01, -0.19, 1.02
76, 0.00, 20975.53, 0.00, 0.00, 0.00, 0.00, 0.00, 0.00, 0.01, -0.19, 1.02
77, 0.00, 21053.29, 0.00, 0.00, 0.00, 0.00, 0.00, 0.00, 0.01, -0.19, 1.02
78, 0.00, 21136.86, 0.00, 0.00, 0.00, 0.00, 0.00, 0.00, 0.00, -0.19, 1.02
79, 0.00, 21182.59, 0.00, 0.00, 0.00, 0.00, 0.00, 0.00, 0.00, -0.19, 1.02
80, 0.00, 21211.60, 0.00, 0.00, 0.00, 0.00, 0.00, 0.00, 0.00, -0.19, 1.02
81, 0.00, 21264.76, 0.00, 0.00, 0.00, 0.00, 0.00, 0.00, 0.00, -0.19, 1.02
82, 0.00, 21324.19, 0.00, 0.00, 0.00, 0.00, 0.00, 0.00, 0.00, -0.19, 1.02
83, 0.00, 21347.55, 0.00, 0.00, 0.00, 0.00, 0.00, 0.00, 0.00, -0.18, 1.02
84, 0.00, 21366.54, 0.00, 0.00, 0.00, 0.00, 0.00, 0.00, 0.00, -0.18, 1.02
85, 0.00, 21405.33, 0.00, 0.00, 0.00, 0.00, 0.00, 0.00, 0.00, -0.18, 1.02
86, 0.00, 21462.93, 0.00, 0.00, 0.00, 0.00, 0.00, 0.00, 0.00, -0.18, 1.02
87, 0.00, 21495.87, 0.00, 0.00, 0.00, 0.00, 0.00, 0.00, 0.00, -0.18, 1.02
88, 0.00, 21514.31, 0.00, 0.00, 0.00, 0.00, 0.00, 0.00, 0.00, -0.19, 1.02
89, 0.00, 21543.95, 0.00, 0.00, 0.00, 0.00, 0.00, 0.00, 0.00, -0.19, 1.02
90, 0.00, 21586.26, 0.00, 0.00, 0.00, 0.00, 0.00, 0.00, 0.00, -0.19, 1.02
91, 0.00, 21617.96, 0.00, 0.00, 0.00, 0.00, 0.00, 0.00, 0.00, -0.19, 1.02
92, 0.00, 21636.51, 0.00, 0.00, 0.00, 0.00, 0.00, 0.00, 0.00, -0.19, 1.02
93, 0.00, 21663.51, 0.00, 0.00, 0.00, 0.00, 0.00, 0.00, 0.00, -0.19, 1.02
94, 0.00, 21723.50, 0.00, 0.00, 0.00, 0.00, 0.00, 0.00, 0.00, -0.19, 1.02
95, 0.00, 21764.81, 0.00, 0.00, 0.00, 0.00, 0.00, 0.00, 0.00, -0.19, 1.02
96, 0.00, 21770.40, 0.00, 0.00, 0.00, 0.00, 0.00, 0.00, 0.00, -0.19, 1.02
97, 0.00, 21785.26, 0.00, 0.00, 0.00, 0.00, 0.00, 0.00, 0.00, -0.19, 1.02
98, 0.00, 21846.97, 0.00, 0.00, 0.00, 0.00, 0.00, 0.00, 0.00, -0.19, 1.01
99, 0.00, 21874.42, 0.00, 0.00, 0.00, 0.00, 0.00, 0.00, 0.00, -0.19, 1.01
100, 0.00, 21889.53, 0.00, 0.00, 0.00, 0.00, 0.00, 0.00, 0.00, -0.19, 1.01
101, 0.00, 21915.57, 0.00, 0.00, 0.00, 0.00, 0.00, 0.00, 0.00, -0.19, 1.01
102, 0.00, 21967.90, 0.00, 0.00, 0.00, 0.00, 0.00, 0.00, 0.00, -0.19, 1.01
103, 0.00, 22017.18, 0.00, 0.00, 0.00, 0.00, 0.00, 0.00, 0.00, -0.19, 1.01
104, 0.00, 22030.41, 0.00, 0.00, 0.00, 0.00, 0.00, 0.00, 0.00, -0.19, 1.01
105, 0.00, 22046.44, 0.00, 0.00, 0.00, 0.00, 0.00, 0.00, 0.00, -0.19, 1.01
106, 0.00, 22092.49, 0.00, 0.00, 0.00, 0.00, 0.00, 0.00, 0.00, -0.19, 1.01
107, 0.00, 22148.43, 0.00, 0.00, 0.00, 0.00, 0.00, 0.00, 0.00, -0.19, 1.01
108, 0.00, 22179.52, 0.00, 0.00, 0.00, 0.00, 0.00, 0.00, 0.01, -0.20, 1.01
109, 0.00, 22204.76, 0.00, 0.00, 0.00, 0.00, 0.00, 0.00, 0.01, -0.20, 1.01
110, 0.00, 22246.38, 0.00, 0.00, 0.00, 0.00, 0.00, 0.00, 0.01, -0.20, 1.01
111, 0.00, 22279.75, 0.00, 0.00, 0.00, 0.00, 0.00, 0.00, 0.01, -0.20, 1.01
112, 0.00, 22304.16, 0.00, 0.00, 0.00, 0.00, 0.00, 0.00, 0.01, -0.20, 1.01
113, 0.00, 22334.85, 0.00, 0.00, 0.00, 0.00, 0.00, 0.00, 0.01, -0.20, 1.02
114, 0.00, 22347.59, 0.00, 0.00, 0.00, 0.00, 0.00, 0.00, 0.01, -0.20, 1.02
115, 0.00, 22413.19, 0.00, 0.00, 0.00, 0.00, 0.00, 0.00, 0.01, -0.20, 1.02
116, 0.00, 22471.86, 0.00, 0.00, 0.00, 0.00, 0.00, 0.00, 0.01, -0.20, 1.02
117, 0.00, 22487.17, 0.00, 0.00, 0.00, 0.00, 0.00, 0.00, 0.01, -0.20, 1.02
118, 0.00, 22528.57, 0.00, 0.00, 0.00, 0.00, 0.00, 0.00, 0.01, -0.19, 1.01
119, 0.00, 22586.62, 0.00, 0.00, 0.00, 0.00, 0.00, 0.00, 0.01, -0.19, 1.01
120, 0.00, 22632.24, 0.00, 0.00, 0.00, 0.00, 0.00, 0.00, 0.01, -0.19, 1.01
121, 0.00, 22633.67, 0.00, 0.00, 0.00, 0.00, 0.00, 0.00, 0.01, -0.19, 1.01
122, 0.00, 22666.17, 0.00, 0.00, 0.00, 0.00, 0.00, 0.00, 0.01, -0.19, 1.01
123, 0.00, 22721.75, 0.00, 0.00, 0.00, 0.00, 0.00, 0.00, 0.00, -0.20, 1.01
124, 0.00, 22772.89, 0.00, 0.00, 0.00, 0.00, 0.00, 0.00, 0.00, -0.20, 1.01
125, 0.00, 22808.99, 0.00, 0.00, 0.00, 0.00, 0.00, 0.00, 0.00, -0.20, 1.01
126, 0.00, 22826.94, 0.00, 0.00, 0.00, 0.00, 0.00, 0.00, 0.00, -0.20, 1.01
127, 0.00, 22878.53, 0.00, 0.00, 0.00, 0.00, 0.00, 0.00, 0.00, -0.20, 1.01
128, 0.00, 22940.51, 0.00, 0.00, 0.00, 0.00, 0.00, 0.00, 0.00, -0.20, 1.01
129, 0.00, 22966.48, 0.00, 0.00, 0.00, 0.00, 0.00, 0.00, 0.00, -0.20, 1.01
130, 0.00, 22984.59, 0.00, 0.00, 0.00, 0.00, 0.00, 0.00, 0.00, -0.20, 1.01
131, 0.00, 23020.66, 0.00, 0.00, 0.00, 0.00, 0.00, 0.00, 0.00, -0.20, 1.01
132, 0.00, 23085.35, 0.00, 0.00, 0.00, 0.00, 0.00, 0.00, 0.00, -0.20, 1.01
133, 0.00, 23131.17, 0.00, 0.00, 0.00, 0.00, 0.00, 0.00, 0.00, -0.20, 1.02
134, 0.00, 23148.11, 0.00, 0.00, 0.00, 0.00, 0.00, 0.00, 0.00, -0.20, 1.02
135, 0.00, 23177.53, 0.00, 0.00, 0.00, 0.00, 0.00, 0.00, 0.00, -0.20, 1.02
136, 0.00, 23236.45, 0.00, 0.00, 0.00, 0.00, 0.00, 0.00, 0.00, -0.20, 1.02
137, 0.00, 23291.41, 0.00, 0.00, 0.00, 0.00, 0.00, 0.00, 0.00, -0.20, 1.02
138, 0.00, 23316.06, 0.00, 0.00, 0.00, 0.00, 0.00, 0.00, 0.00, -0.19, 1.01
139, 0.00, 23348.77, 0.00, 0.00, 0.00, 0.00, 0.00, 0.00, 0.00, -0.19, 1.01
140, 0.00, 23410.34, 0.00, 0.00, 0.00, 0.00, 0.00, 0.00, 0.00, -0.19, 1.01
141, 0.00, 23461.62, 0.00, 0.00, 0.00, 0.00, 0.00, 0.00, 0.00, -0.19, 1.01
142, 0.00, 23479.50, 0.00, 0.00, 0.00, 0.00, 0.00, 0.00, 0.00, -0.19, 1.01
143, 0.00, 23511.20, 0.00, 0.00, 0.00, 0.00, 0.00, 0.00, 0.01, -0.19, 1.00
144, 0.00, 23581.45, 0.00, 0.00, 0.00, 0.00, 0.00, 0.00, 0.01, -0.19, 1.00
145, 0.00, 23630.35, 0.00, 0.00, 0.00, 0.00, 0.00, 0.00, 0.01, -0.19, 1.00
146, 0.00, 23644.43, 0.00, 0.00, 0.00, 0.00, 0.00, 0.00, 0.01, -0.19, 1.00
147, 0.00, 23669.87, 0.00, 0.00, 0.00, 0.00, 0.00, 0.00, 0.01, -0.19, 1.00
148, 0.00, 23720.70, 0.00, 0.00, 0.00, 0.00, 0.00, 0.00, 0.01, -0.20, 1.01
149, 0.00, 23772.89, 0.00, 0.00, 0.00, 0.00, 0.00, 0.00, 0.01, -0.20, 1.01
150, 0.00, 23789.16, 0.00, 0.00, 0.00, 0.00, 0.00, 0.00, 0.01, -0.20, 1.01
151, 0.00, 23801.68, 0.00, 0.00, 0.00, 0.00, 0.00, 0.00, 0.01, -0.20, 1.01
152, 0.00, 23853.45, 0.00, 0.00, 0.00, 0.00, 0.00, 0.00, 0.01, -0.20, 1.01
153, 0.00, 23914.15, 0.00, 0.00, 0.00, 0.00, 0.00, 0.00, 0.01, -0.19, 1.01
154, 0.00, 23945.80, 0.00, 0.00, 0.00, 0.00, 0.00, 0.00, 0.01, -0.19, 1.01
155, 0.00, 23955.64, 0.00, 0.00, 0.00, 0.00, 0.00, 0.00, 0.01, -0.19, 1.01
156, 0.00, 23977.05, 0.00, 0.00, 0.00, 0.00, 0.00, 0.00, 0.01, -0.19, 1.01
157, 0.00, 24016.26, 0.00, 0.00, 0.00, 0.00, 0.00, 0.00, 0.01, -0.19, 1.01
158, 0.00, 24025.02, 0.00, 0.00, 0.00, 0.00, 0.00, 0.00, 0.01, -0.20, 1.00
159, 0.00, 24033.80, 0.00, 0.00, 0.00, 0.00, 0.00, 0.00, 0.01, -0.20, 1.00
160, 0.00, 24064.36, 0.00, 0.00, 0.00, 0.00, 0.00, 0.00, 0.01, -0.20, 1.00
161, 0.00, 24107.05, 0.00, 0.00, 0.00, 0.00, 0.00, 0.00, 0.01, -0.20, 1.00
162, 0.00, 24141.87, 0.00, 0.00, 0.00, 0.00, 0.00, 0.00, 0.01, -0.20, 1.00
163, 0.00, 24166.73, 0.00, 0.00, 0.00, 0.00, 0.00, 0.00, 0.00, -0.19, 1.00
164, 0.00, 24183.83, 0.00, 0.00, 0.00, 0.00, 0.00, 0.00, 0.00, -0.19, 1.00
165, 0.00, 24226.63, 0.00, 0.00, 0.00, 0.00, 0.00, 0.00, 0.00, -0.19, 1.00
166, 0.00, 24273.99, 0.00, 0.00, 0.00, 0.00, 0.00, 0.00, 0.00, -0.19, 1.00
167, 0.00, 24284.34, 0.00, 0.00, 0.00, 0.00, 0.00, 0.00, 0.00, -0.19, 1.00
168, 0.00, 24288.81, 0.00, 0.00, 0.00, 0.00, 0.00, 0.00, 0.01, -0.19, 1.01
169, 0.00, 24333.25, 0.00, 0.00, 0.00, 0.00, 0.00, 0.00, 0.01, -0.19, 1.01
170, 0.00, 24396.62, 0.00, 0.00, 0.00, 0.00, 0.00, 0.00, 0.01, -0.19, 1.01
171, 0.00, 24412.42, 0.00, 0.00, 0.00, 0.00, 0.00, 0.00, 0.01, -0.19, 1.01
172, 0.00, 24424.26, 0.00, 0.00, 0.00, 0.00, 0.00, 0.00, 0.01, -0.19, 1.01
173, 0.00, 24466.89, 0.00, 0.00, 0.00, 0.00, 0.00, 0.00, 0.01, -0.19, 1.01
174, 0.00, 24501.89, 0.00, 0.00, 0.00, 0.00, 0.00, 0.00, 0.01, -0.19, 1.01
175, 0.00, 24519.95, 0.00, 0.00, 0.00, 0.00, 0.00, 0.00, 0.01, -0.19, 1.01
176, 0.00, 24522.05, 0.00, 0.00, 0.00, 0.00, 0.00, 0.00, 0.01, -0.19, 1.01
177, 0.00, 24556.38, 0.00, 0.00, 0.00, 0.00, 0.00, 0.00, 0.01, -0.19, 1.01
178, 0.00, 24616.11, 0.00, 0.00, 0.00, 0.00, 0.00, 0.00, 0.00, -0.19, 1.01
179, 0.00, 24631.76, 0.00, 0.00, 0.00, 0.00, 0.00, 0.00, 0.00, -0.19, 1.01
180, 0.00, 24626.12, 0.00, 0.00, 0.00, 0.00, 0.00, 0.00, 0.00, -0.19, 1.01
181, 0.00, 24656.46, 0.00, 0.00, 0.00, 0.00, 0.00, 0.00, 0.00, -0.19, 1.01
182, 0.00, 24702.97, 0.00, 0.00, 0.00, 0.00, 0.00, 0.00, 0.00, -0.19, 1.01
183, 0.00, 24737.95, 0.00, 0.00, 0.00, 0.00, 0.00, 0.00, 0.00, -0.18, 1.01
184, 0.00, 24749.59, 0.00, 0.00, 0.00, 0.00, 0.00, 0.00, 0.00, -0.18, 1.01
185, 0.00, 24771.61, 0.00, 0.00, 0.00, 0.00, 0.00, 0.00, 0.00, -0.18, 1.01
186, 0.00, 24814.32, 0.00, 0.00, 0.00, 0.00, 0.00, 0.00, 0.00, -0.18, 1.01
187, 0.00, 24842.87, 0.00, 0.00, 0.00, 0.00, 0.00, 0.00, 0.00, -0.18, 1.01
188, 0.00, 24848.23, 0.00, 0.00, 0.00, 0.00, 0.00, 0.00, 0.01, -0.19, 1.01
189, 0.00, 24846.60, 0.00, 0.00, 0.00, 0.00, 0.00, 0.00, 0.01, -0.19, 1.01
190, 0.00, 24889.11, 0.00, 0.00, 0.00, 0.00, 0.00, 0.00, 0.01, -0.19, 1.01
191, 0.00, 24924.56, 0.00, 0.00, 0.00, 0.00, 0.00, 0.00, 0.01, -0.19, 1.01
192, 0.00, 24929.77, 0.00, 0.00, 0.00, 0.00, 0.00, 0.00, 0.01, -0.19, 1.01
193, 0.00, 24918.08, 0.00, 0.00, 0.00, 0.00, 0.00, 0.00, 0.01, -0.20, 1.01
194, 0.00, 24980.02, 0.00, 0.00, 0.00, 0.00, 0.00, 0.00, 0.01, -0.20, 1.01
195, 0.00, 25026.22, 0.00, 0.00, 0.00, 0.00, 0.00, 0.00, 0.01, -0.20, 1.01
196, 0.00, 25020.92, 0.00, 0.00, 0.00, 0.00, 0.00, 0.00, 0.01, -0.20, 1.01
197, 0.00, 25015.02, 0.00, 0.00, 0.00, 0.00, 0.00, 0.00, 0.01, -0.20, 1.01
198, 0.00, 25073.87, 0.00, 0.00, 0.00, 0.00, 0.00, 0.00, 0.01, -0.20, 1.01
199, 0.00, 25062.76, 0.00, 0.00, 0.00, 0.00, 0.00, 0.00, 0.01, -0.20, 1.01
200, 0.00, 25063.93, 0.00, 0.00, 0.00, 0.00, 0.00, 0.00, 0.01, -0.20, 1.01
201, 0.00, 25058.52, 0.00, 0.00, 0.00, 0.00, 0.00, 0.00, 0.01, -0.20, 1.01
202, 0.00, 25065.83, 0.00, 0.00, 0.00, 0.00, 0.00, 0.00, 0.01, -0.20, 1.01
203, 0.00, 25111.49, 0.00, 0.00, 0.00, 0.00, 0.00, 0.00, 0.00, -0.20, 1.02
204, 0.00, 25120.34, 0.00, 0.00, 0.00, 0.00, 0.00, 0.00, 0.00, -0.20, 1.02
205, 0.00, 25109.01, 0.00, 0.00, 0.00, 0.00, 0.00, 0.00, 0.00, -0.20, 1.02
206, 0.00, 25163.62, 0.00, 0.00, 0.00, 0.00, 0.00, 0.00, 0.00, -0.20, 1.02
207, 0.00, 25185.03, 0.00, 0.00, 0.00, 0.00, 0.00, 0.00, 0.00, -0.20, 1.02
208, 0.00, 25152.39, 0.00, 0.00, 0.00, 0.00, 0.00, 0.00, 0.01, -0.20, 1.02
209, 0.00, 25129.28, 0.00, 0.00, 0.00, 0.00, 0.00, 0.00, 0.01, -0.20, 1.02
210, 0.00, 25179.73, 0.00, 0.00, 0.00, 0.00, 0.00, 0.00, 0.01, -0.20, 1.02
211, 0.00, 25184.54, 0.00, 0.00, 0.00, 0.00, 0.00, 0.00, 0.01, -0.20, 1.02
212, 0.00, 25172.31, 0.00, 0.00, 0.00, 0.00, 0.00, 0.00, 0.01, -0.20, 1.02
213, 0.00, 25197.08, 0.00, 0.00, 0.00, 0.00, 0.00, 0.00, 0.01, -0.19, 1.02
214, 0.00, 25184.04, 0.00, 0.00, 0.00, 0.00, 0.00, 0.00, 0.01, -0.19, 1.02
215, 0.00, 25202.40, 0.00, 0.00, 0.00, 0.00, 0.00, 0.00, 0.01, -0.19, 1.02
216, 0.00, 25315.09, 0.00, 0.00, 0.00, 0.00, 0.00, 0.00, 0.01, -0.19, 1.02
217, 0.00, 25323.90, 0.00, 0.00, 0.00, 0.00, 0.00, 0.00, 0.01, -0.19, 1.02
218, 0.00, 25308.46, 0.00, 0.00, 0.00, 0.00, 0.00, 0.00, 0.00, -0.19, 1.01
219, 0.00, 25341.40, 0.00, 0.00, 0.00, 0.00, 0.00, 0.00, 0.00, -0.19, 1.01
220, 0.00, 25304.79, 0.00, 0.00, 0.00, 0.00, 0.00, 0.00, 0.00, -0.19, 1.01
221, 0.00, 25292.43, 0.00, 0.00, 0.00, 0.00, 0.00, 0.00, 0.00, -0.19, 1.01
222, 0.00, 25308.14, 0.00, 0.00, 0.00, 0.00, 0.00, 0.00, 0.00, -0.19, 1.01
223, 0.00, 25363.28, 0.00, 0.00, 0.00, 0.00, 0.00, 0.00, 0.01, -0.19, 1.02
224, 0.00, 25392.68, 0.00, 0.00, 0.00, 0.00, 0.00, 0.00, 0.01, -0.19, 1.02
225, 0.00, 25367.96, 0.00, 0.00, 0.00, 0.00, 0.00, 0.00, 0.01, -0.19, 1.02
226, 0.00, 25335.72, 0.00, 0.00, 0.00, 0.00, 0.00, 0.00, 0.01, -0.19, 1.02
227, 0.00, 25370.66, 0.00, 0.00, 0.00, 0.00, 0.00, 0.00, 0.01, -0.19, 1.02
228, 0.00, 25433.02, 0.00, 0.00, 0.00, 0.00, 0.00, 0.00, 0.00, -0.19, 1.01
229, 0.00, 25384.96, 0.00, 0.00, 0.00, 0.00, 0.00, 0.00, 0.00, -0.19, 1.01
230, 0.00, 25399.09, 0.00, 0.00, 0.00, 0.00, 0.00, 0.00, 0.00, -0.19, 1.01
231, 0.00, 25405.95, 0.00, 0.00, 0.00, 0.00, 0.00, 0.00, 0.00, -0.19, 1.01
232, 0.00, 25436.31, 0.00, 0.00, 0.00, 0.00, 0.00, 0.00, 0.00, -0.19, 1.01
233, 0.00, 25458.17, 0.00, 0.00, 0.00, 0.00, 0.00, 0.00, 0.00, -0.19, 1.01
234, 0.00, 25418.29, 0.00, 0.00, 0.00, 0.00, 0.00, 0.00, 0.00, -0.19, 1.01
235, 0.00, 25447.26, 0.00, 0.00, 0.00, 0.00, 0.00, 0.00, 0.00, -0.19, 1.01
236, 0.00, 25511.63, 0.00, 0.00, 0.00, 0.00, 0.00, 0.00, 0.00, -0.19, 1.01
237, 0.00, 25519.57, 0.00, 0.00, 0.00, 0.00, 0.00, 0.00, 0.00, -0.19, 1.01
238, 0.00, 25535.19, 0.00, 0.00, 0.00, 0.00, 0.00, 0.00, 0.00, -0.20, 1.01
239, 0.00, 25541.74, 0.00, 0.00, 0.00, 0.00, 0.00, 0.00, 0.00, -0.20, 1.01
240, 0.00, 25611.99, 0.00, 0.00, 0.00, 0.00, 0.00, 0.00, 0.00, -0.20, 1.01
241, 0.00, 25640.15, 0.00, 0.00, 0.00, 0.00, 0.00, 0.00, 0.00, -0.20, 1.01
242, 0.00, 25635.24, 0.00, 0.00, 0.00, 0.00, 0.00, 0.00, 0.00, -0.20, 1.01
243, 0.00, 25627.23, 0.00, 0.00, 0.00, 0.00, 0.00, 0.00, 0.01, -0.19, 1.01
244, 0.00, 25675.29, 0.00, 0.00, 0.00, 0.00, 0.00, 0.00, 0.01, -0.19, 1.01
245, 0.00, 25708.10, 0.00, 0.00, 0.00, 0.00, 0.00, 0.00, 0.01, -0.19, 1.01
246, 0.00, 25719.50, 0.00, 0.00, 0.00, 0.00, 0.00, 0.00, 0.01, -0.19, 1.01
247, 0.00, 25711.08, 0.00, 0.00, 0.00, 0.00, 0.00, 0.00, 0.01, -0.19, 1.01
248, 0.00, 25717.94, 0.00, 0.00, 0.00, 0.00, 0.00, 0.00, 0.01, -0.19, 1.01
249, 0.00, 25766.40, 0.00, 0.00, 0.00, 0.00, 0.00, 0.00, 0.01, -0.19, 1.01
250, 0.00, 25769.53, 0.00, 0.00, 0.00, 0.00, 0.00, 0.00, 0.01, -0.19, 1.01
251, 0.00, 25758.33, 0.00, 0.00, 0.00, 0.00, 0.00, 0.00, 0.01, -0.19, 1.01
252, 0.00, 25780.43, 0.00, 0.00, 0.00, 0.00, 0.00, 0.00, 0.01, -0.19, 1.01
253, 0.00, 25814.90, 0.00, 0.00, 0.00, 0.00, 0.00, 0.00, 0.00, -0.19, 1.01
254, 0.00, 25825.56, 0.00, 0.00, 0.00, 0.00, 0.00, 0.00, 0.00, -0.19, 1.01
255, 0.00, 25794.31, 0.00, 0.00, 0.00, 0.00, 0.00, 0.00, 0.00, -0.19, 1.01
0, 0.00, 25792.41, 0.00, 0.00, 0.00, 0.00, 0.00, 0.00, 0.00, -0.19, 1.01
1, 0.00, 25817.85, 0.00, 0.00, 0.00, 0.00, 0.00, 0.00, 0.00, -0.19, 1.01
2, 0.00, 25809.94, 0.00, 0.00, 0.00, 0.00, 0.00, 0.00, 0.00, -0.19, 1.01
3, 0.00, 25784.41, 0.00, 0.00, 0.00, 0.00, 0.00, 0.00, 0.01, -0.19, 1.02
4, 0.00, 25795.95, 0.00, 0.00, 0.00, 0.00, 0.00, 0.00, 0.01, -0.19, 1.02
5, 0.00, 25811.59, 0.00, 0.00, 0.00, 0.00, 0.00, 0.00, 0.01, -0.19, 1.02
6, 0.00, 25831.91, 0.00, 0.00, 0.00, 0.00, 0.00, 0.00, 0.01, -0.19, 1.02
7, 0.00, 25810.81, 0.00, 0.00, 0.00, 0.00, 0.00, 0.00, 0.01, -0.19, 1.02
8, 0.00, 25801.89, 0.00, 0.00, 0.00, 0.00, 0.00, 0.00, 0.01, -0.19, 1.01
9, 0.00, 25819.66, 0.00, 0.00, 0.00, 0.00, 0.00, 0.00, 0.01, -0.19, 1.01
10, 0.00, 25846.01, 0.00, 0.00, 0.00, 0.00, 0.00, 0.00, 0.01, -0.19, 1.01
11, 0.00, 25831.22, 0.00, 0.00, 0.00, 0.00, 0.00, 0.00, 0.01, -0.19, 1.01
12, 0.00, 25808.29, 0.00, 0.00, 0.00, 0.00, 0.00, 0.00, 0.01, -0.19, 1.01
13, 0.00, 25828.58, 0.00, 0.00, 0.00, 0.00, 0.00, 0.00, 0.01, -0.19, 1.01
14, 0.00, 25839.02, 0.00, 0.00, 0.00, 0.00, 0.00, 0.00, 0.01, -0.19, 1.01
15, 0.00, 25830.10, 0.00, 0.00, 0.00, 0.00, 0.00, 0.00, 0.01, -0.19, 1.01
16, 0.00, 25810.43, 0.00, 0.00, 0.00, 0.00, 0.00, 0.00, 0.01, -0.19, 1.01
17, 0.00, 25813.31, 0.00, 0.00, 0.00, 0.00, 0.00, 0.00, 0.01, -0.19, 1.01
18, 0.00, 25840.70, 0.00, 0.00, 0.00, 0.00, 0.00, 0.00, 0.01, -0.19, 1.01
19, 0.00, 25840.29, 0.00, 0.00, 0.00, 0.00, 0.00, 0.00, 0.01, -0.19, 1.01
20, 0.00, 25818.19, 0.00, 0.00, 0.00, 0.00, 0.00, 0.00, 0.01, -0.19, 1.01
21, 0.00, 25818.34, 0.00, 0.00, 0.00, 0.00, 0.00, 0.00, 0.01, -0.19, 1.01
22, 0.00, 25834.73, 0.00, 0.00, 0.00, 0.00, 0.00, 0.00, 0.01, -0.19, 1.01
23, 0.00, 25830.10, 0.00, 0.00, 0.00, 0.00, 0.00, 0.00, 0.01, -0.19, 1.01
24, 0.00, 25803.28, 0.00, 0.00, 0.00, 0.00, 0.00, 0.00, 0.01, -0.19, 1.01
25, 0.00, 25803.93, 0.00, 0.00, 0.00, 0.00, 0.00, 0.00, 0.01, -0.19, 1.01
26, 0.00, 25818.81, 0.00, 0.00, 0.00, 0.00, 0.00, 0.00, 0.01, -0.19, 1.01
27, 0.00, 25816.00, 0.00, 0.00, 0.00, 0.00, 0.00, 0.00, 0.01, -0.19, 1.01
28, 0.00, 25784.53, 0.00, 0.00, 0.00, 0.00, 0.00, 0.00, 0.01, -0.19, 1.01
29, 0.00, 25765.55, 0.00, 0.00, 0.00, 0.00, 0.00, 0.00, 0.01, -0.19, 1.01
30, 0.00, 25773.71, 0.00, 0.00, 0.00, 0.00, 0.00, 0.00, 0.01, -0.19, 1.01
31, 0.00, 25783.43, 0.00, 0.00, 0.00, 0.00, 0.00, 0.00, 0.01, -0.19, 1.01
32, 0.00, 25756.50, 0.00, 0.00, 0.00, 0.00, 0.00, 0.00, 0.01, -0.19, 1.01
33, 0.00, 25731.80, 0.00, 0.00, 0.00, 0.00, 0.00, 0.00, 0.01, -0.19, 1.00
34, 0.00, 25750.73, 0.00, 0.00, 0.00, 0.00, 0.00, 0.00, 0.01, -0.19, 1.00
35, 0.00, 25750.79, 0.00, 0.00, 0.00, 0.00, 0.00, 0.00, 0.01, -0.19, 1.00
36, 0.00, 25738.41, 0.00, 0.00, 0.00, 0.00, 0.00, 0.00, 0.01, -0.19, 1.00
37, 0.00, 25728.58, 0.00, 0.00, 0.00, 0.00, 0.00, 0.00, 0.01, -0.19, 1.00
38, 0.00, 25732.15, 0.00, 0.00, 0.00, 0.00, 0.00, 0.00, 0.01, -0.19, 1.01
39, 0.00, 25757.84, 0.00, 0.00, 0.00, 0.00, 0.00, 0.00, 0.01, -0.19, 1.01
40, 0.00, 25747.67, 0.00, 0.00, 0.00, 0.00, 0.00, 0.00, 0.01, -0.19, 1.01
41, 0.00, 25724.85, 0.00, 0.00, 0.00, 0.00, 0.00, 0.00, 0.01, -0.19, 1.01
42, 0.00, 25738.05, 0.00, 0.00, 0.00, 0.00, 0.00, 0.00, 0.01, -0.19, 1.01
43, 0.00, 25752.09, 0.00, 0.00, 0.00, 0.00, 0.00, 0.00, 0.01, -0.19, 1.01
44, 0.00, 25755.09, 0.00, 0.00, 0.00, 0.00, 0.00, 0.00, 0.01, -0.19, 1.01
45, 0.00, 25730.95, 0.00, 0.00, 0.00, 0.00, 0.00, 0.00, 0.01, -0.19, 1.01
46, 0.00, 25732.85, 0.00, 0.00, 0.00, 0.00, 0.00, 0.00, 0.01, -0.19, 1.01
47, 0.00, 25744.87, 0.00, 0.00, 0.00, 0.00, 0.00, 0.00, 0.01, -0.19, 1.01
48, 0.00, 25748.00, 0.00, 0.00, 0.00, 0.00, 0.00, 0.00, 0.01, -0.20, 1.01
49, 0.00, 25732.98, 0.00, 0.00, 0.00, 0.00, 0.00, 0.00, 0.01, -0.20, 1.01
50, 0.00, 25724.76, 0.00, 0.00, 0.00, 0.00, 0.00, 0.00, 0.01, -0.20, 1.01
51, 0.00, 25750.86, 0.00, 0.00, 0.00, 0.00, 0.00, 0.00, 0.01, -0.20, 1.01
52, 0.00, 25770.51, 0.00, 0.00, 0.00, 0.00, 0.00, 0.00, 0.01, -0.20, 1.01
53, 0.00, 25746.17, 0.00, 0.00, 0.00, 0.00, 0.00, 0.00, 0.01, -0.20, 1.00
54, 0.00, 25724.44, 0.00, 0.00, 0.00, 0.00, 0.00, 0.00, 0.01, -0.20, 1.00
55, 0.00, 25752.56, 0.00, 0.00, 0.00, 0.00, 0.00, 0.00, 0.01, -0.20, 1.00
56, 0.00, 25755.09, 0.00, 0.00, 0.00, 0.00, 0.00, 0.00, 0.01, -0.20, 1.00
57, 0.00, 25741.25, 0.00, 0.00, 0.00, 0.00, 0.00, 0.00, 0.01, -0.20, 1.00
58, 0.00, 25737.34, 0.00, 0.00, 0.00, 0.00, 0.00, 0.00, 0.01, -0.20, 1.01
59, 0.00, 25762.80, 0.00, 0.00, 0.00, 0.00, 0.00, 0.00, 0.01, -0.20, 1.01
60, 0.00, 25748.78, 0.00, 0.00, 0.00, 0.00, 0.00, 0.00, 0.01, -0.20, 1.01
61, 0.00, 25713.76, 0.00, 0.00, 0.00, 0.00, 0.00, 0.00, 0.01, -0.20, 1.01
62, 0.00, 25705.80, 0.00, 0.00, 0.00, 0.00, 0.00, 0.00, 0.01, -0.20, 1.01
63, 0.00, 25715.10, 0.00, 0.00, 0.00, 0.00, 0.00, 0.00, 0.01, -0.19, 1.01
64, 0.00, 25728.24, 0.00, 0.00, 0.00, 0.00, 0.00, 0.00, 0.01, -0.19, 1.01
65, 0.00, 25709.94, 0.00, 0.00, 0.00, 0.00, 0.00, 0.00, 0.01, -0.19, 1.01
66, 0.00, 25696.73, 0.00, 0.00, 0.00, 0.00, 0.00, 0.00, 0.01, -0.19, 1.01
67, 0.00, 25693.87, 0.00, 0.00, 0.00, 0.00, 0.00, 0.00, 0.01, -0.19, 1.01
68, 0.00, 25701.87, 0.00, 0.00, 0.00, 0.00, 0.00, 0.00, 0.01, -0.20, 1.01
69, 0.00, 25714.23, 0.00, 0.00, 0.00, 0.00, 0.00, 0.00, 0.01, -0.20, 1.01
70, 0.00, 25694.63, 0.00, 0.00, 0.00, 0.00, 0.00, 0.00, 0.01, -0.20, 1.01
71, 0.00, 25694.89, 0.00, 0.00, 0.00, 0.00, 0.00, 0.00, 0.01, -0.20, 1.01
72, 0.00, 25721.65, 0.00, 0.00, 0.00, 0.00, 0.00, 0.00, 0.01, -0.20, 1.01
73, 0.00, 25727.68, 0.00, 0.00, 0.00, 0.00, 0.00, 0.00, 0.01, -0.20, 1.01
74, 0.00, 25708.44, 0.00, 0.00, 0.00, 0.00, 0.00, 0.00, 0.01, -0.20, 1.01
75, 0.00, 25707.99, 0.00, 0.00, 0.00, 0.00, 0.00, 0.00, 0.01, -0.20, 1.01
76, 0.00, 25733.21, 0.00, 0.00, 0.00, 0.00, 0.00, 0.00, 0.01, -0.20, 1.01
77, 0.00, 25750.28, 0.00, 0.00, 0.00, 0.00, 0.00, 0.00, 0.01, -0.20, 1.01
78, 0.00, 25728.62, 0.00, 0.00, 0.00, 0.00, 0.00, 0.00, 0.01, -0.20, 1.01
79, 0.00, 25718.07, 0.00, 0.00, 0.00, 0.00, 0.00, 0.00, 0.01, -0.20, 1.01
80, 0.00, 25739.96, 0.00, 0.00, 0.00, 0.00, 0.00, 0.00, 0.01, -0.20, 1.01
81, 0.00, 25742.08, 0.00, 0.00, 0.00, 0.00, 0.00, 0.00, 0.01, -0.20, 1.01
82, 0.00, 25723.59, 0.00, 0.00, 0.00, 0.00, 0.00, 0.00, 0.01, -0.20, 1.01
83, 0.00, 25698.20, 0.00, 0.00, 0.00, 0.00, 0.00, 0.00, 0.01, -0.20, 1.01
84, 0.00, 25702.45, 0.00, 0.00, 0.00, 0.00, 0.00, 0.00, 0.01, -0.20, 1.01
85, 0.00, 25729.79, 0.00, 0.00, 0.00, 0.00, 0.00, 0.00, 0.01, -0.20, 1.01
86, 0.00, 25719.01, 0.00, 0.00, 0.00, 0.00, 0.00, 0.00, 0.01, -0.20, 1.01
87, 0.00, 25684.72, 0.00, 0.00, 0.00, 0.00, 0.00, 0.00, 0.01, -0.20, 1.01
88, 0.00, 25677.86, 0.00, 0.00, 0.00, 0.00, 0.00, 0.00, 0.00, -0.20, 1.01
89, 0.00, 25699.83, 0.00, 0.00, 0.00, 0.00, 0.00, 0.00, 0.00, -0.20, 1.01
90, 0.00, 25702.31, 0.00, 0.00, 0.00, 0.00, 0.00, 0.00, 0.00, -0.20, 1.01
91, 0.00, 25662.86, 0.00, 0.00, 0.00, 0.00, 0.00, 0.00, 0.00, -0.20, 1.01
92, 0.00, 25662.13, 0.00, 0.00, 0.00, 0.00, 0.00, 0.00, 0.00, -0.20, 1.01
93, 0.00, 25670.60, 0.00, 0.00, 0.00, 0.00, 0.00, 0.00, 0.01, -0.19, 1.01
94, 0.00, 25625.00, 0.00, 0.00, 0.00, 0.00, 0.00, 0.00, 0.01, -0.19, 1.01
95, 0.00, 25633.65, 0.00, 0.00, 0.00, 0.00, 0.00, 0.00, 0.01, -0.19, 1.01
96, 0.00, 25645.97, 0.00, 0.00, 0.00, 0.00, 0.00, 0.00, 0.01, -0.19, 1.01
97, 0.00, 25642.41, 0.00, 0.00, 0.00, 0.00, 0.00, 0.00, 0.01, -0.19, 1.01
98, 0.00, 25642.46, 0.00, 0.00, 0.00, 0.00, 0.00, 0.00, 0.01, -0.19, 1.01
99, 0.00, 25619.08, 0.00, 0.00, 0.00, 0.00, 0.00, 0.00, 0.01, -0.19, 1.01
100, 0.00, 25614.79, 0.00, 0.00, 0.00, 0.00, 0.00, 0.00, 0.01, -0.19, 1.01
101, 0.00, 25644.71, 0.00, 0.00, 0.00, 0.00, 0.00, 0.00, 0.01, -0.19, 1.01
102, 0.00, 25648.20, 0.00, 0.00, 0.00, 0.00, 0.00, 0.00, 0.01, -0.19, 1.01
103, 0.00, 25629.54, 0.00, 0.00, 0.00, 0.00, 0.00, 0.00, 0.00, -0.20, 1.01
104, 0.00, 25612.17, 0.00, 0.00, 0.00, 0.00, 0.00, 0.00, 0.00, -0.20, 1.01
105, 0.00, 25626.81, 0.00, 0.00, 0.00, 0.00, 0.00, 0.00, 0.00, -0.20, 1.01
106, 0.00, 25636.38, 0.00, 0.00, 0.00, 0.00, 0.00, 0.00, 0.00, -0.20, 1.01
107, 0.00, 25624.17, 0.00, 0.00, 0.00, 0.00, 0.00, 0.00, 0.00, -0.20, 1.01
108, 0.00, 25609.02, 0.00, 0.00, 0.00, 0.00, 0.00, 0.00, 0.01, -0.20, 1.02
109, 0.00, 25620.28, 0.00, 0.00, 0.00, 0.00, 0.00, 0.00, 0.01, -0.20, 1.02
110, 0.00, 25642.66, 0.00, 0.00, 0.00, 0.00, 0.00, 0.00, 0.01, -0.20, 1.02
111, 0.00, 25638.75, 0.00, 0.00, 0.00, 0.00, 0.00, 0.00, 0.01, -0.20, 1.02
112, 0.00, 25616.21, 0.00, 0.00, 0.00, 0.00, 0.00, 0.00, 0.01, -0.20, 1.02
113, 0.00, 25622.27, 0.00, 0.00, 0.00, 0.00, 0.00, 0.00, 0.01, -0.19, 1.01
114, 0.00, 25648.42, 0.00, 0.00, 0.00, 0.00, 0.00, 0.00, 0.01, -0.19, 1.01
115, 0.00, 25648.76, 0.00, 0.00, 0.00, 0.00, 0.00, 0.00, 0.01, -0.19, 1.01
116, 0.00, 25646.68, 0.00, 0.00, 0.00, 0.00, 0.00, 0.00, 0.01, -0.19, 1.01
117, 0.00, 25644.47, 0.00, 0.00, 0.00, 0.00, 0.00, 0.00, 0.01, -0.19, 1.01
118, 0.00, 25670.55, 0.00, 0.00, 0.00, 0.00, 0.00, 0.00, 0.00, -0.19, 1.01
119, 0.00, 25680.25, 0.00, 0.00, 0.00, 0.00, 0.00, 0.00, 0.00, -0.19, 1.01
120, 0.00, 25655.98, 0.00, 0.00, 0.00, 0.00, 0.00, 0.00, 0.00, -0.19, 1.01
121, 0.00, 25642.52, 0.00, 0.00, 0.00, 0.00, 0.00, 0.00, 0.00, -0.19, 1.01
122, 0.00, 25653.90, 0.00, 0.00, 0.00, 0.00, 0.00, 0.00, 0.00, -0.19, 1.01
123, 0.00, 25673.19, 0.00, 0.00, 0.00, 0.00, 0.00, 0.00, 0.00, -0.20, 1.01
124, 0.00, 25660.05, 0.00, 0.00, 0.00, 0.00, 0.00, 0.00, 0.00, -0.20, 1.01
125, 0.00, 25634.48, 0.00, 0.00, 0.00, 0.00, 0.00, 0.00, 0.00, -0.20, 1.01
126, 0.00, 25660.58, 0.00, 0.00, 0.00, 0.00, 0.00, 0.00, 0.00, -0.20, 1.01
127, 0.00, 25661.03, 0.00, 0.00, 0.00, 0.00, 0.00, 0.00, 0.00, -0.20, 1.01
128, 0.00, 25644.20, 0.00, 0.00, 0.00, 0.00, 0.00, 0.00, 0.01, -0.19, 1.02
129, 0.00, 25629.16, 0.00, 0.00, 0.00, 0.00, 0.00, 0.00, 0.01, -0.19, 1.02
130, 0.00, 25624.40, 0.00, 0.00, 0.00, 0.00, 0.00, 0.00, 0.01, -0.19, 1.02
131, 0.00, 25633.85, 0.00, 0.00, 0.00, 0.00, 0.00, 0.00, 0.01, -0.19, 1.02
132, 0.00, 25625.04, 0.00, 0.00, 0.00, 0.00, 0.00, 0.00, 0.01, -0.19, 1.02
133, 0.00, 25607.81, 0.00, 0.00, 0.00, 0.00, 0.00, 0.00, 0.01, -0.19, 1.02
134, 0.00, 25604.82, 0.00, 0.00, 0.00, 0.00, 0.00, 0.00, 0.01, -0.19, 1.02
135, 0.00, 25620.28, 0.00, 0.00, 0.00, 0.00, 0.00, 0.00, 0.01, -0.19, 1.02
136, 0.00, 25614.25, 0.00, 0.00, 0.00, 0.00, 0.00, 0.00, 0.01, -0.19, 1.02
137, 0.00, 25590.20, 0.00, 0.00, 0.00, 0.00, 0.00, 0.00, 0.01, -0.19, 1.02
138, 0.00, 25597.02, 0.00, 0.00, 0.00, 0.00, 0.00, 0.00, 0.01, -0.20, 1.02
139, 0.00, 25626.03, 0.00, 0.00, 0.00, 0.00, 0.00, 0.00, 0.01, -0.20, 1.02
140, 0.00, 25624.55, 0.00, 0.00, 0.00, 0.00, 0.00, 0.00, 0.01, -0.20, 1.02
141, 0.00, 25597.51, 0.00, 0.00, 0.00, 0.00, 0.00, 0.00, 0.01, -0.20, 1.02
142, 0.00, 25605.55, 0.00, 0.00, 0.00, 0.00, 0.00, 0.00, 0.01, -0.20, 1.02
143, 0.00, 25625.00, 0.00, 0.00, 0.00, 0.00, 0.00, 0.00, 0.01, -0.20, 1.02
144, 0.00, 25622.14, 0.00, 0.00, 0.00, 0.00, 0.00, 0.00, 0.01, -0.20, 1.02
145, 0.00, 25601.78, 0.00, 0.00, 0.00, 0.00, 0.00, 0.00, 0.01, -0.20, 1.02
146, 0.00, 25604.19, 0.00, 0.00, 0.00, 0.00, 0.00, 0.00, 0.01, -0.20, 1.02
147, 0.00, 25625.83, 0.00, 0.00, 0.00, 0.00, 0.00, 0.00, 0.01, -0.20, 1.02
148, 0.00, 25619.93, 0.00, 0.00, 0.00, 0.00, 0.00, 0.00, 0.01, -0.20, 1.01
149, 0.00, 25611.10, 0.00, 0.00, 0.00, 0.00, 0.00, 0.00, 0.01, -0.20, 1.01
150, 0.00, 25590.98, 0.00, 0.00, 0.00, 0.00, 0.00, 0.00, 0.01, -0.20, 1.01
151, 0.00, 25593.71, 0.00, 0.00, 0.00, 0.00, 0.00, 0.00, 0.01, -0.20, 1.01
152, 0.00, 25598.36, 0.00, 0.00, 0.00, 0.00, 0.00, 0.00, 0.01, -0.20, 1.01
153, 0.00, 25601.55, 0.00, 0.00, 0.00, 0.00, 0.00, 0.00, 0.01, -0.20, 1.02
154, 0.00, 25588.03, 0.00, 0.00, 0.00, 0.00, 0.00, 0.00, 0.01, -0.20, 1.02
155, 0.00, 25580.41, 0.00, 0.00, 0.00, 0.00, 0.00, 0.00, 0.01, -0.20, 1.02
156, 0.00, 25599.27, 0.00, 0.00, 0.00, 0.00, 0.00, 0.00, 0.01, -0.20, 1.02
157, 0.00, 25598.47, 0.00, 0.00, 0.00, 0.00, 0.00, 0.00, 0.01, -0.20, 1.02
158, 0.00, 25588.07, 0.00, 0.00, 0.00, 0.00, 0.00, 0.00, 0.01, -0.20, 1.01
159, 0.00, 25578.02, 0.00, 0.00, 0.00, 0.00, 0.00, 0.00, 0.01, -0.20, 1.01
160, 0.00, 25590.60, 0.00, 0.00, 0.00, 0.00, 0.00, 0.00, 0.01, -0.20, 1.01
161, 0.00, 25596.59, 0.00, 0.00, 0.00, 0.00, 0.00, 0.00, 0.01, -0.20, 1.01
162, 0.00, 25575.54, 0.00, 0.00, 0.00, 0.00, 0.00, 0.00, 0.01, -0.20, 1.01
163, 0.00, 25602.45, 0.00, 0.00, 0.00, 0.00, 0.00, 0.00, 0.01, -0.20, 1.01
164, 0.00, 25638.30, 0.00, 0.00, 0.00, 0.00, 0.00, 0.00, 0.01, -0.20, 1.01
165, 0.00, 25634.75, 0.00, 0.00, 0.00, 0.00, 0.00, 0.00, 0.01, -0.20, 1.01
166, 0.00, 25599.50, 0.00, 0.00, 0.00, 0.00, 0.00, 0.00, 0.01, -0.20, 1.01
167, 0.00, 25593.39, 0.00, 0.00, 0.00, 0.00, 0.00, 0.00, 0.01, -0.20, 1.01
168, 0.00, 25607.74, 0.00, 0.00, 0.00, 0.00, 0.00, 0.00, 0.00, -0.19, 1.01
169, 0.00, 25611.25, 0.00, 0.00, 0.00, 0.00, 0.00, 0.00, 0.00, -0.19, 1.01
170, 0.00, 25608.13, 0.00, 0.00, 0.00, 0.00, 0.00, 0.00, 0.00, -0.19, 1.01
171, 0.00, 25598.02, 0.00, 0.00, 0.00, 0.00, 0.00, 0.00, 0.00, -0.19, 1.01
172, 0.00, 25635.84, 0.00, 0.00, 0.00, 0.00, 0.00, 0.00, 0.00, -0.19, 1.01
173, 0.00, 25632.38, 0.00, 0.00, 0.00, 0.00, 0.00, 0.00, 0.01, -0.19, 1.01
174, 0.00, 25614.03, 0.00, 0.00, 0.00, 0.00, 0.00, 0.00, 0.01, -0.19, 1.01
175, 0.00, 25618.47, 0.00, 0.00, 0.00, 0.00, 0.00, 0.00, 0.01, -0.19, 1.01
176, 0.00, 25644.87, 0.00, 0.00, 0.00, 0.00, 0.00, 0.00, 0.01, -0.19, 1.01
177, 0.00, 25646.46, 0.00, 0.00, 0.00, 0.00, 0.00, 0.00, 0.01, -0.19, 1.01
178, 0.00, 25634.12, 0.00, 0.00, 0.00, 0.00, 0.00, 0.00, 0.01, -0.18, 1.02
179, 0.00, 25632.89, 0.00, 0.00, 0.00, 0.00, 0.00, 0.00, 0.01, -0.18, 1.02
180, 0.00, 25660.07, 0.00, 0.00, 0.00, 0.00, 0.00, 0.00, 0.01, -0.18, 1.02
181, 0.00, 25699.28, 0.00, 0.00, 0.00, 0.00, 0.00, 0.00, 0.01, -0.18, 1.02
182, 0.00, 25700.68, 0.00, 0.00, 0.00, 0.00, 0.00, 0.00, 0.01, -0.18, 1.02
183, 0.00, 25697.04, 0.00, 0.00, 0.00, 0.00, 0.00, 0.00, 0.01, -0.18, 1.02
184, 0.00, 25707.10, 0.00, 0.00, 0.00, 0.00, 0.00, 0.00, 0.01, -0.19, 1.02
185, 0.00, 25755.87, 0.00, 0.00, 0.00, 0.00, 0.00, 0.00, 0.01, -0.19, 1.02
186, 0.00, 25777.10, 0.00, 0.00, 0.00, 0.00, 0.00, 0.00, 0.01, -0.19, 1.02
187, 0.00, 25758.51, 0.00, 0.00, 0.00, 0.00, 0.00, 0.00, 0.01, -0.19, 1.02
188, 0.00, 25783.59, 0.00, 0.00, 0.00, 0.00, 0.00, 0.00, 0.01, -0.19, 1.02
189, 0.00, 25822.03, 0.00, 0.00, 0.00, 0.00, 0.00, 0.00, 0.00, -0.20, 1.01
190, 0.00, 25812.49, 0.00, 0.00, 0.00, 0.00, 0.00, 0.00, 0.00, -0.20, 1.01
191, 0.00, 25808.24, 0.00, 0.00, 0.00, 0.00, 0.00, 0.00, 0.00, -0.20, 1.01
192, 0.00, 25818.25, 0.00, 0.00, 0.00, 0.00, 0.00, 0.00, 0.00, -0.20, 1.01
193, 0.00, 25849.10, 0.00, 0.00, 0.00, 0.00, 0.00, 0.00, 0.00, -0.20, 1.01
194, 0.00, 25870.47, 0.00, 0.00, 0.00, 0.00, 0.00, 0.00, 0.01, -0.20, 1.02
195, 0.00, 25856.56, 0.00, 0.00, 0.00, 0.00, 0.00, 0.00, 0.01, -0.20, 1.02
196, 0.00, 25867.45, 0.00, 0.00, 0.00, 0.00, 0.00, 0.00, 0.01, -0.20, 1.02
197, 0.00, 25892.39, 0.00, 0.00, 0.00, 0.00, 0.00, 0.00, 0.01, -0.20, 1.02
198, 0.00, 25911.77, 0.00, 0.00, 0.00, 0.00, 0.00, 0.00, 0.01, -0.20, 1.02
199, 0.00, 25922.75, 0.00, 0.00, 0.00, 0.00, 0.00, 0.00, 0.01, -0.20, 1.02
200, 0.00, 25910.70, 0.00, 0.00, 0.00, 0.00, 0.00, 0.00, 0.01, -0.20, 1.02
201, 0.00, 25915.19, 0.00, 0.00, 0.00, 0.00, 0.00, 0.00, 0.01, -0.20, 1.02
202, 0.00, 25937.77, 0.00, 0.00, 0.00, 0.00, 0.00, 0.00, 0.01, -0.20, 1.02
203, 0.00, 25936.87, 0.00, 0.00, 0.00, 0.00, 0.00, 0.00, 0.01, -0.20, 1.02
204, 0.00, 25928.83, 0.00, 0.00, 0.00, 0.00, 0.00, 0.00, 0.00, -0.19, 1.02
205, 0.00, 25933.59, 0.00, 0.00, 0.00, 0.00, 0.00, 0.00, 0.00, -0.19, 1.02
206, 0.00, 25970.69, 0.00, 0.00, 0.00, 0.00, 0.00, 0.00, 0.00, -0.19, 1.02
207, 0.00, 25971.59, 0.00, 0.00, 0.00, 0.00, 0.00, 0.00, 0.00, -0.19, 1.02
208, 0.00, 25923.78, 0.00, 0.00, 0.00, 0.00, 0.00, 0.00, 0.00, -0.19, 1.02
209, 0.00, 25904.46, 0.00, 0.00, 0.00, 0.00, 0.00, 0.00, 0.01, -0.19, 1.02
210, 0.00, 25930.91, 0.00, 0.00, 0.00, 0.00, 0.00, 0.00, 0.01, -0.19, 1.02
211, 0.00, 25911.73, 0.00, 0.00, 0.00, 0.00, 0.00, 0.00, 0.01, -0.19, 1.02
212, 0.00, 25862.73, 0.00, 0.00, 0.00, 0.00, 0.00, 0.00, 0.01, -0.19, 1.02
213, 0.00, 25882.04, 0.00, 0.00, 0.00, 0.00, 0.00, 0.00, 0.01, -0.19, 1.02
214, 0.00, 25948.21, 0.00, 0.00, 0.00, 0.00, 0.00, 0.00, 0.00, -0.19, 1.01
215, 0.00, 25952.56, 0.00, 0.00, 0.00, 0.00, 0.00, 0.00, 0.00, -0.19, 1.01
216, 0.00, 25924.04, 0.00, 0.00, 0.00, 0.00, 0.00, 0.00, 0.00, -0.19, 1.01
217, 0.00, 25937.68, 0.00, 0.00, 0.00, 0.00, 0.00, 0.00, 0.00, -0.19, 1.01
218, 0.00, 25999.97, 0.00, 0.00, 0.00, 0.00, 0.00, 0.00, 0.00, -0.19, 1.01
219, 0.00, 26036.56, 0.00, 0.00, 0.00, 0.00, 0.00, 0.00, 0.01, -0.20, 1.00
220, 0.00, 26031.22, 0.00, 0.00, 0.00, 0.00, 0.00, 0.00, 0.01, -0.20, 1.00
221, 0.00, 26022.93, 0.00, 0.00, 0.00, 0.00, 0.00, 0.00, 0.01, -0.20, 1.00
222, 0.00, 26032.36, 0.00, 0.00, 0.00, 0.00, 0.00, 0.00, 0.01, -0.20, 1.00
223, 0.00, 26064.48, 0.00, 0.00, 0.00, 0.00, 0.00, 0.00, 0.01, -0.20, 1.00
224, 0.00, 26048.14, 0.00, 0.00, 0.00, 0.00, 0.00, 0.00, 0.01, -0.20, 1.01
225, 0.00, 26028.36, 0.00, 0.00, 0.00, 0.00, 0.00, 0.00, 0.01, -0.20, 1.01
226, 0.00, 26047.92, 0.00, 0.00, 0.00, 0.00, 0.00, 0.00, 0.01, -0.20, 1.01
227, 0.00, 26083.79, 0.00, 0.00, 0.00, 0.00, 0.00, 0.00, 0.01, -0.20, 1.01
228, 0.00, 26079.61, 0.00, 0.00, 0.00, 0.00, 0.00, 0.00, 0.01, -0.20, 1.01
229, 0.00, 26061.48, 0.00, 0.00, 0.00, 0.00, 0.00, 0.00, 0.01, -0.20, 1.02
230, 0.00, 26082.63, 0.00, 0.00, 0.00, 0.00, 0.00, 0.00, 0.01, -0.20, 1.02
231, 0.00, 26084.11, 0.00, 0.00, 0.00, 0.00, 0.00, 0.00, 0.01, -0.20, 1.02
232, 0.00, 26069.31, 0.00, 0.00, 0.00, 0.00, 0.00, 0.00, 0.01, -0.20, 1.02
233, 0.00, 26080.21, 0.00, 0.00, 0.00, 0.00, 0.00, 0.00, 0.01, -0.20, 1.02
234, 0.00, 26082.52, 0.00, 0.00, 0.00, 0.00, 0.00, 0.00, 0.01, -0.20, 1.02
235, 0.00, 26102.34, 0.00, 0.00, 0.00, 0.00, 0.00, 0.00, 0.01, -0.20, 1.02
236, 0.00, 26115.62, 0.00, 0.00, 0.00, 0.00, 0.00, 0.00, 0.01, -0.20, 1.02
237, 0.00, 26088.02, 0.00, 0.00, 0.00, 0.00, 0.00, 0.00, 0.01, -0.20, 1.02
238, 0.00, 26069.91, 0.00, 0.00, 0.00, 0.00, 0.00, 0.00, 0.01, -0.20, 1.02
239, 0.00, 26050.35, 0.00, 0.00, 0.00, 0.00, 0.00, 0.00, 0.00, -0.20, 1.02
240, 0.00, 26045.64, 0.00, 0.00, 0.00, 0.00, 0.00, 0.00, 0.00, -0.20, 1.02
241, 0.00, 25990.12, 0.00, 0.00, 0.00, 0.00, 0.00, 0.00, 0.00, -0.20, 1.02
242, 0.00, 26009.70, 0.00, 0.00, 0.00, 0.00, 0.00, 0.00, 0.00, -0.20, 1.02
243, 0.00, 26023.62, 0.00, 0.00, 0.00, 0.00, 0.00, 0.00, 0.00, -0.20, 1.02
244, 0.00, 26015.46, 0.00, 0.00, 0.00, 0.00, 0.00, 0.00, 0.00, -0.20, 1.02
245, 0.00, 26015.89, 0.00, 0.00, 0.00, 0.00, 0.00, 0.00, 0.00, -0.20, 1.02
246, 0.00, 26002.88, 0.00, 0.00, 0.00, 0.00, 0.00, 0.00, 0.00, -0.20, 1.02
247, 0.00, 26021.77, 0.00, 0.00, 0.00, 0.00, 0.00, 0.00, 0.00, -0.20, 1.02
248, 0.00, 26048.23, 0.00, 0.00, 0.00, 0.00, 0.00, 0.00, 0.00, -0.20, 1.02
249, 0.00, 26033.70, 0.00, 0.00, 0.00, 0.00, 0.00, 0.00, -0.00, -0.20, 1.01
250, 0.00, 26023.11, 0.00, 0.00, 0.00, 0.00, 0.00, 0.00, -0.00, -0.20, 1.01
251, 0.00, 26077.11, 0.00, 0.00, 0.00, 0.00, 0.00, 0.00, -0.00, -0.20, 1.01
252, 0.00, 26134.31, 0.00, 0.00, 0.00, 0.00, 0.00, 0.00, -0.00, -0.20, 1.01
253, 0.00, 26132.21, 0.00, 0.00, 0.00, 0.00, 0.00, 0.00, -0.00, -0.20, 1.01
254, 0.00, 26145.71, 0.00, 0.00, 0.00, 0.00, 0.00, 0.00, -0.00, -0.20, 1.02
255, 0.00, 26172.82, 0.00, 0.00, 0.00, 0.00, 0.00, 0.00, -0.00, -0.20, 1.02
0, 0.00, 26213.37, 0.00, 0.00, 0.00, 0.00, 0.00, 0.00, -0.00, -0.20, 1.02
1, 0.00, 26254.27, 0.00, 0.00, 0.00, 0.00, 0.00, 0.00, -0.00, -0.20, 1.02
2, 0.00, 26257.46, 0.00, 0.00, 0.00, 0.00, 0.00, 0.00, -0.00, -0.20, 1.02
3, 0.00, 26266.90, 0.00, 0.00, 0.00, 0.00, 0.00, 0.00, 0.00, -0.19, 1.02
4, 0.00, 26310.17, 0.00, 0.00, 0.00, 0.00, 0.00, 0.00, 0.00, -0.19, 1.02
5, 0.00, 26329.59, 0.00, 0.00, 0.00, 0.00, 0.00, 0.00, 0.00, -0.19, 1.02
6, 0.00, 26313.57, 0.00, 0.00, 0.00, 0.00, 0.00, 0.00, 0.00, -0.19, 1.02
7, 0.00, 26304.05, 0.00, 0.00, 0.00, 0.00, 0.00, 0.00, 0.00, -0.19, 1.02
8, 0.00, 26332.88, 0.00, 0.00, 0.00, 0.00, 0.00, 0.00, 0.00, -0.19, 1.02
9, 0.00, 26362.00, 0.00, 0.00, 0.00, 0.00, 0.00, 0.00, 0.00, -0.19, 1.02
10, 0.00, 26358.70, 0.00, 0.00, 0.00, 0.00, 0.00, 0.00, 0.00, -0.19, 1.02
11, 0.00, 26359.03, 0.00, 0.00, 0.00, 0.00, 0.00, 0.00, 0.00, -0.19, 1.02
12, 0.00, 26386.55, 0.00, 0.00, 0.00, 0.00, 0.00, 0.00, 0.00, -0.19, 1.02
13, 0.00, 26393.16, 0.00, 0.00, 0.00, 0.00, 0.00, 0.00, 0.00, -0.20, 1.01
14, 0.00, 26393.07, 0.00, 0.00, 0.00, 0.00, 0.00, 0.00, 0.00, -0.20, 1.01
15, 0.00, 26399.87, 0.00, 0.00, 0.00, 0.00, 0.00, 0.00, 0.00, -0.20, 1.01
16, 0.00, 26419.49, 0.00, 0.00, 0.00, 0.00, 0.00, 0.00, 0.00, -0.20, 1.01
17, 0.00, 26442.96, 0.00, 0.00, 0.00, 0.00, 0.00, 0.00, 0.00, -0.20, 1.01
18, 0.00, 26440.84, 0.00, 0.00, 0.00, 0.00, 0.00, 0.00, 0.01, -0.19, 1.01
19, 0.00, 26449.62, 0.00, 0.00, 0.00, 0.00, 0.00, 0.00, 0.01, -0.19, 1.01
20, 0.00, 26500.81, 0.00, 0.00, 0.00, 0.00, 0.00, 0.00, 0.01, -0.19, 1.01
21, 0.00, 26548.08, 0.00, 0.00, 0.00, 0.00, 0.00, 0.00, 0.01, -0.19, 1.01
22, 0.00, 26559.57, 0.00, 0.00, 0.00, 0.00, 0.00, 0.00, 0.01, -0.19, 1.01
23, 0.00, 26584.36, 0.00, 0.00, 0.00, 0.00, 0.00, 0.00, 0.01, -0.20, 1.01
24, 0.00, 26612.41, 0.00, 0.00, 0.00, 0.00, 0.00, 0.00, 0.01, -0.20, 1.01
25, 0.00, 26690.89, 0.00, 0.00, 0.00, 0.00, 0.00, 0.00, 0.01, -0.20, 1.01
26, 0.00, 26726.72, 0.00, 0.00, 0.00, 0.00, 0.00, 0.00, 0.01, -0.20, 1.01
27, 0.00, 26743.71, 0.00, 0.00, 0.00, 0.00, 0.00, 0.00, 0.01, -0.20, 1.01
28, 0.00, 26763.66, 0.00, 0.00, 0.00, 0.00, 0.00, 0.00, 0.01, -0.19, 1.01
29, 0.00, 26816.01, 0.00, 0.00, 0.00, 0.00, 0.00, 0.00, 0.01, -0.19, 1.01
30, 0.00, 26858.66, 0.00, 0.00, 0.00, 0.00, 0.00, 0.00, 0.01, -0.19, 1.01
31, 0.00, 26846.14, 0.00, 0.00, 0.00, 0.00, 0.00, 0.00, 0.01, -0.19, 1.01
32, 0.00, 26874.96, 0.00, 0.00, 0.00, 0.00, 0.00, 0.00, 0.01, -0.19, 1.01
33, 0.00, 26931.75, 0.00, 0.00, 0.00, 0.00, 0.00, 0.00, 0.01, -0.20, 1.01
34, 0.00, 26946.57, 0.00, 0.00, 0.00, 0.00, 0.00, 0.00, 0.01, -0.20, 1.01
35, 0.00, 26948.65, 0.00, 0.00, 0.00, 0.00, 0.00, 0.00, 0.01, -0.20, 1.01
36, 0.00, 26970.24, 0.00, 0.00, 0.00, 0.00, 0.00, 0.00, 0.01, -0.20, 1.01
37, 0.00, 27023.57, 0.00, 0.00, 0.00, 0.00, 0.00, 0.00, 0.01, -0.20, 1.01
38, 0.00, 27064.90, 0.00, 0.00, 0.00, 0.00, 0.00, 0.00, 0.00, -0.20, 1.01
39, 0.00, 27078.71, 0.00, 0.00, 0.00, 0.00, 0.00, 0.00, 0.00, -0.20, 1.01
40, 0.00, 27095.48, 0.00, 0.00, 0.00, 0.00, 0.00, 0.00, 0.00, -0.20, 1.01
41, 0.00, 27136.65, 0.00, 0.00, 0.00, 0.00, 0.00, 0.00, 0.00, -0.20, 1.01
42, 0.00, 27188.91, 0.00, 0.00, 0.00, 0.00, 0.00, 0.00, 0.00, -0.20, 1.01
43, 0.00, 27216.58, 0.00, 0.00, 0.00, 0.00, 0.00, 0.00, 0.01, -0.20, 1.02
44, 0.00, 27230.82, 0.00, 0.00, 0.00, 0.00, 0.00, 0.00, 0.01, -0.20, 1.02
45, 0.00, 27267.61, 0.00, 0.00, 0.00, 0.00, 0.00, 0.00, 0.01, -0.20, 1.02
46, 0.00, 27304.09, 0.00, 0.00, 0.00, 0.00, 0.00, 0.00, 0.01, -0.20, 1.02
47, 0.00, 27332.05, 0.00, 0.00, 0.00, 0.00, 0.00, 0.00, 0.01, -0.20, 1.02
48, 0.00, 27339.56, 0.00, 0.00, 0.00, 0.00, 0.00, 0.00, 0.00, -0.19, 1.01
49, 0.00, 27369.71, 0.00, 0.00, 0.00, 0.00, 0.00, 0.00, 0.00, -0.19, 1.01
50, 0.00, 27418.50, 0.00, 0.00, 0.00, 0.00, 0.00, 0.00, 0.00, -0.19, 1.01
51, 0.00, 27423.55, 0.00, 0.00, 0.00, 0.00, 0.00, 0.00, 0.00, -0.19, 1.01
52, 0.00, 27421.63, 0.00, 0.00, 0.00, 0.00, 0.00, 0.00, 0.00, -0.19, 1.01
53, 0.00, 27444.01, 0.00, 0.00, 0.00, 0.00, 0.00, 0.00, 0.00, -0.19, 1.01
54, 0.00, 27493.79, 0.00, 0.00, 0.00, 0.00, 0.00, 0.00, 0.00, -0.19, 1.01
55, 0.00, 27531.02, 0.00, 0.00, 0.00, 0.00, 0.00, 0.00, 0.00, -0.19, 1.01
56, 0.00, 27538.26, 0.00, 0.00, 0.00, 0.00, 0.00, 0.00, 0.00, -0.19, 1.01
57, 0.00, 27571.79, 0.00, 0.00, 0.00, 0.00, 0.00, 0.00, 0.00, -0.19, 1.01
58, 0.00, 27630.38, 0.00, 0.00, 0.00, 0.00, 0.00, 0.00, -0.00, -0.19, 1.01
59, 0.00, 27654.34, 0.00, 0.00, 0.00, 0.00, 0.00, 0.00, -0.00, -0.19, 1.01
60, 0.00, 27676.96, 0.00, 0.00, 0.00, 0.00, 0.00, 0.00, -0.00, -0.19, 1.01
61, 0.00, 27708.70, 0.00, 0.00, 0.00, 0.00, 0.00, 0.00, -0.00, -0.19, 1.01
62, 0.00, 27765.83, 0.00, 0.00, 0.00, 0.00, 0.00, 0.00, -0.00, -0.19, 1.01
63, 0.00, 27843.75, 0.00, 0.00, 0.00, 0.00, 0.00, 0.00, -0.00, -0.19, 1.02
64, 0.00, 27828.79, 0.00, 0.00, 0.00, 0.00, 0.00, 0.00, -0.00, -0.19, 1.02
65, 0.00, 27808.23, 0.00, 0.00, 0.00, 0.00, 0.00, 0.00, -0.00, -0.19, 1.02
66, 0.00, 27866.84, 0.00, 0.00, 0.00, 0.00, 0.00, 0.00, -0.00, -0.19, 1.02
67, 0.00, 27906.33, 0.00, 0.00, 0.00, 0.00, 0.00, 0.00, -0.00, -0.19, 1.02
68, 0.00, 27924.62, 0.00, 0.00, 0.00, 0.00, 0.00, 0.00, -0.00, -0.19, 1.01
69, 0.00, 27934.11, 0.00, 0.00, 0.00, 0.00, 0.00, 0.00, -0.00, -0.19, 1.01
70, 0.00, 27958.86, 0.00, 0.00, 0.00, 0.00, 0.00, 0.00, -0.00, -0.19, 1.01
71, 0.00, 28020.68, 0.00, 0.00, 0.00, 0.00, 0.00, 0.00, -0.00, -0.19, 1.01
72, 0.00, 28059.55, 0.00, 0.00, 0.00, 0.00, 0.00, 0.00, -0.00, -0.19, 1.01
73, 0.00, 28050.14, 0.00, 0.00, 0.00, 0.00, 0.00, 0.00, 0.00, -0.19, 1.01
74, 0.00, 28085.70, 0.00, 0.00, 0.00, 0.00, 0.00, 0.00, 0.00, -0.19, 1.01
75, 0.00, 28131.35, 0.00, 0.00, 0.00, 0.00, 0.00, 0.00, 0.00, -0.19, 1.01
76, 0.00, 28146.95, 0.00, 0.00, 0.00, 0.00, 0.00, 0.00, 0.00, -0.19, 1.01
77, 0.00, 28119.23, 0.00, 0.00, 0.00, 0.00, 0.00, 0.00, 0.00, -0.19, 1.01
78, 0.00, 28135.73, 0.00, 0.00, 0.00, 0.00, 0.00, 0.00, 0.01, -0.20, 1.02
79, 0.00, 28190.80, 0.00, 0.00, 0.00, 0.00, 0.00, 0.00, 0.01, -0.20, 1.02
80, 0.00, 28209.49, 0.00, 0.00, 0.00, 0.00, 0.00, 0.00, 0.01, -0.20, 1.02
81, 0.00, 28197.13, 0.00, 0.00, 0.00, 0.00, 0.00, 0.00, 0.01, -0.20, 1.02
82, 0.00, 28203.38, 0.00, 0.00, 0.00, 0.00, 0.00, 0.00, 0.01, -0.20, 1.02
83, 0.00, 28246.28, 0.00, 0.00, 0.00, 0.00, 0.00, 0.00, 0.01, -0.20, 1.01
84, 0.00, 28278.46, 0.00, 0.00, 0.00, 0.00, 0.00, 0.00, 0.01, -0.20, 1.01
85, 0.00, 28265.77, 0.00, 0.00, 0.00, 0.00, 0.00, 0.00, 0.01, -0.20, 1.01
86, 0.00, 28247.20, 0.00, 0.00, 0.00, 0.00, 0.00, 0.00, 0.01, -0.20, 1.01
87, 0.00, 28254.59, 0.00, 0.00, 0.00, 0.00, 0.00, 0.00, 0.01, -0.20, 1.01
88, 0.00, 28285.33, 0.00, 0.00, 0.00, 0.00, 0.00, 0.00, 0.01, -0.19, 1.01
89, 0.00, 28264.70, 0.00, 0.00, 0.00, 0.00, 0.00, 0.00, 0.01, -0.19, 1.01
90, 0.00, 28239.44, 0.00, 0.00, 0.00, 0.00, 0.00, 0.00, 0.01, -0.19, 1.01
91, 0.00, 28251.51, 0.00, 0.00, 0.00, 0.00, 0.00, 0.00, 0.01, -0.19, 1.01
92, 0.00, 28271.31, 0.00, 0.00, 0.00, 0.00, 0.00, 0.00, 0.01, -0.19, 1.01
93, 0.00, 28272.14, 0.00, 0.00, 0.00, 0.00, 0.00, 0.00, 0.01, -0.20, 1.01
94, 0.00, 28225.31, 0.00, 0.00, 0.00, 0.00, 0.00, 0.00, 0.01, -0.20, 1.01
95, 0.00, 28186.11, 0.00, 0.00, 0.00, 0.00, 0.00, 0.00, 0.01, -0.20, 1.01
96, 0.00, 28154.17, 0.00, 0.00, 0.00, 0.00, 0.00, 0.00, 0.01, -0.20, 1.01
97, 0.00, 28108.95, 0.00, 0.00, 0.00, 0.00, 0.00, 0.00, 0.01, -0.20, 1.01
98, 0.00, 28031.50, 0.00, 0.00, 0.00, 0.00, 0.00, 0.00, 0.01, -0.19, 1.01
99, 0.00, 27949.02, 0.00, 0.00, 0.00, 0.00, 0.00, 0.00, 0.01, -0.19, 1.01
100, 0.00, 27883.67, 0.00, 0.00, 0.00, 0.00, 0.00, 0.00, 0.01, -0.19, 1.01
101, 0.00, 27798.33, 0.00, 0.00, 0.00, 0.00, 0.00, 0.00, 0.01, -0.19, 1.01
102, 0.00, 27704.67, 0.00, 0.00, 0.00, 0.00, 0.00, 0.00, 0.01, -0.19, 1.01
103, 0.00, 27631.61, 0.00, 0.00, 0.00, 0.00, 0.00, 0.00, 0.01, -0.19, 1.02
104, 0.00, 27583.44, 0.00, 0.00, 0.00, 0.00, 0.00, 0.00, 0.01, -0.19, 1.02
105, 0.00, 27481.36, 0.00, 0.00, 0.00, 0.00, 0.00, 0.00, 0.01, -0.19, 1.02
106, 0.00, 27351.34, 0.00, 0.00, 0.00, 0.00, 0.00, 0.00, 0.01, -0.19, 1.02
107, 0.00, 27328.34, 0.00, 0.00, 0.00, 0.00, 0.00, 0.00, 0.01, -0.19, 1.02
108, 0.00, 27465.17, 0.00, 0.00, 0.00, 0.00, 0.00, 0.00, 0.01, -0.20, 1.01
109, 0.00, 27496.76, 0.00, 0.00, 0.00, 0.00, 0.00, 0.00, 0.01, -0.20, 1.01
110, 0.00, 27465.13, 0.00, 0.00, 0.00, 0.00, 0.00, 0.00, 0.01, -0.20, 1.01
111, 0.00, 27419.67, 0.00, 0.00, 0.00, 0.00, 0.00, 0.00, 0.01, -0.20, 1.01
112, 0.00, 27411.60, 0.00, 0.00, 0.00, 0.00, 0.00, 0.00, 0.01, -0.20, 1.01
113, 0.00, 27399.35, 0.00, 0.00, 0.00, 0.00, 0.00, 0.00, 0.01, -0.20, 1.01
114, 0.00, 27357.89, 0.00, 0.00, 0.00, 0.00, 0.00, 0.00, 0.01, -0.20, 1.02
115, 0.00, 27307.97, 0.00, 0.00, 0.00, 0.00, 0.00, 0.00, 0.01, -0.20, 1.02
116, 0.00, 27302.99, 0.00, 0.00, 0.00, 0.00, 0.00, 0.00, 0.01, -0.20, 1.02
117, 0.00, 27298.45, 0.00, 0.00, 0.00, 0.00, 0.00, 0.00, 0.01, -0.20, 1.02
118, 0.00, 27275.63, 0.00, 0.00, 0.00, 0.00, 0.00, 0.00, 0.01, -0.20, 1.02
119, 0.00, 27237.90, 0.00, 0.00, 0.00, 0.00, 0.00, 0.00, 0.01, -0.19, 1.02
120, 0.00, 27216.47, 0.00, 0.00, 0.00, 0.00, 0.00, 0.00, 0.01, -0.19, 1.02
121, 0.00, 27213.83, 0.00, 0.00, 0.00, 0.00, 0.00, 0.00, 0.01, -0.19, 1.02
122, 0.00, 27194.52, 0.00, 0.00, 0.00, 0.00, 0.00, 0.00, 0.01, -0.19, 1.02
123, 0.00, 27157.79, 0.00, 0.00, 0.00, 0.00, 0.00, 0.00, 0.01, -0.19, 1.02
124, 0.00, 27143.96, 0.00, 0.00, 0.00, 0.00, 0.00, 0.00, 0.00, -0.19, 1.01
125, 0.00, 27148.23, 0.00, 0.00, 0.00, 0.00, 0.00, 0.00, 0.00, -0.19, 1.01
126, 0.00, 27153.72, 0.00, 0.00, 0.00, 0.00, 0.00, 0.00, 0.00, -0.19, 1.01
127, 0.00, 27112.84, 0.00, 0.00, 0.00, 0.00, 0.00, 0.00, 0.00, -0.19, 1.01
128, 0.00, 27069.82, 0.00, 0.00, 0.00, 0.00, 0.00, 0.00, 0.00, -0.19, 1.01
129, 0.00, 27065.30, 0.00, 0.00, 0.00, 0.00, 0.00, 0.00, 0.01, -0.19, 1.02
130, 0.00, 27072.05, 0.00, 0.00, 0.00, 0.00, 0.00, 0.00, 0.01, -0.19, 1.02
131, 0.00, 27042.66, 0.00, 0.00, 0.00, 0.00, 0.00, 0.00, 0.01, -0.19, 1.02
132, 0.00, 27014.00, 0.00, 0.00, 0.00, 0.00, 0.00, 0.00, 0.01, -0.19, 1.02
133, 0.00, 27020.29, 0.00, 0.00, 0.00, 0.00, 0.00, 0.00, 0.01, -0.19, 1.02
134, 0.00, 27020.20, 0.00, 0.00, 0.00, 0.00, 0.00, 0.00, 0.00, -0.19, 1.01
135, 0.00, 26986.29, 0.00, 0.00, 0.00, 0.00, 0.00, 0.00, 0.00, -0.19, 1.01
136, 0.00, 26961.68, 0.00, 0.00, 0.00, 0.00, 0.00, 0.00, 0.00, -0.19, 1.01
137, 0.00, 26954.48, 0.00, 0.00, 0.00, 0.00, 0.00, 0.00, 0.00, -0.19, 1.01
138, 0.00, 26951.93, 0.00, 0.00, 0.00, 0.00, 0.00, 0.00, 0.00, -0.19, 1.01
139, 0.00, 26943.37, 0.00, 0.00, 0.00, 0.00, 0.00, 0.00, 0.00, -0.19, 1.02
140, 0.00, 26918.38, 0.00, 0.00, 0.00, 0.00, 0.00, 0.00, 0.00, -0.19, 1.02
141, 0.00, 26919.84, 0.00, 0.00, 0.00, 0.00, 0.00, 0.00, 0.00, -0.19, 1.02
142, 0.00, 26933.83, 0.00, 0.00, 0.00, 0.00, 0.00, 0.00, 0.00, -0.19, 1.02
143, 0.00, 26924.24, 0.00, 0.00, 0.00, 0.00, 0.00, 0.00, 0.00, -0.19, 1.02
144, 0.00, 26892.30, 0.00, 0.00, 0.00, 0.00, 0.00, 0.00, 0.00, -0.19, 1.02
145, 0.00, 26871.22, 0.00, 0.00, 0.00, 0.00, 0.00, 0.00, 0.00, -0.19, 1.02
146, 0.00, 26878.11, 0.00, 0.00, 0.00, 0.00, 0.00, 0.00, 0.00, -0.19, 1.02
147, 0.00, 26888.50, 0.00, 0.00, 0.00, 0.00, 0.00, 0.00, 0.00, -0.19, 1.02
148, 0.00, 26857.92, 0.00, 0.00, 0.00, 0.00, 0.00, 0.00, 0.00, -0.19, 1.02
149, 0.00, 26844.06, 0.00, 0.00, 0.00, 0.00, 0.00, 0.00, 0.00, -0.19, 1.02
150, 0.00, 26851.11, 0.00, 0.00, 0.00, 0.00, 0.00, 0.00, 0.00, -0.19, 1.02
151, 0.00, 26852.94, 0.00, 0.00, 0.00, 0.00, 0.00, 0.00, 0.00, -0.19, 1.02
152, 0.00, 26833.63, 0.00, 0.00, 0.00, 0.00, 0.00, 0.00, 0.00, -0.19, 1.02
153, 0.00, 26807.14, 0.00, 0.00, 0.00, 0.00, 0.00, 0.00, 0.00, -0.19, 1.02
154, 0.00, 26808.82, 0.00, 0.00, 0.00, 0.00, 0.00, 0.00, 0.00, -0.19, 1.01
155, 0.00, 26811.86, 0.00, 0.00, 0.00, 0.00, 0.00, 0.00, 0.00, -0.19, 1.01
156, 0.00, 26793.77, 0.00, 0.00, 0.00, 0.00, 0.00, 0.00, 0.00, -0.19, 1.01
157, 0.00, 26781.59, 0.00, 0.00, 0.00, 0.00, 0.00, 0.00, 0.00, -0.19, 1.01
158, 0.00, 26781.32, 0.00, 0.00, 0.00, 0.00, 0.00, 0.00, 0.00, -0.19, 1.01
159, 0.00, 26787.11, 0.00, 0.00, 0.00, 0.00, 0.00, 0.00, 0.00, -0.19, 1.01
160, 0.00, 26771.26, 0.00, 0.00, 0.00, 0.00, 0.00, 0.00, 0.00, -0.19, 1.01
161, 0.00, 26756.36, 0.00, 0.00, 0.00, 0.00, 0.00, 0.00, 0.00, -0.19, 1.01
162, 0.00, 26750.84, 0.00, 0.00, 0.00, 0.00, 0.00, 0.00, 0.00, -0.19, 1.01
163, 0.00, 26758.21, 0.00, 0.00, 0.00, 0.00, 0.00, 0.00, 0.00, -0.19, 1.01
164, 0.00, 26743.06, 0.00, 0.00, 0.00, 0.00, 0.00, 0.00, 0.01, -0.19, 1.01
165, 0.00, 26718.89, 0.00, 0.00, 0.00, 0.00, 0.00, 0.00, 0.01, -0.19, 1.01
166, 0.00, 26703.61, 0.00, 0.00, 0.00, 0.00, 0.00, 0.00, 0.01, -0.19, 1.01
167, 0.00, 26702.98, 0.00, 0.00, 0.00, 0.00, 0.00, 0.00, 0.01, -0.19, 1.01
168, 0.00, 26713.78, 0.00, 0.00, 0.00, 0.00, 0.00, 0.00, 0.01, -0.19, 1.01
169, 0.00, 26700.07, 0.00, 0.00, 0.00, 0.00, 0.00, 0.00, 0.01, -0.19, 1.01
170, 0.00, 26670.97, 0.00, 0.00, 0.00, 0.00, 0.00, 0.00, 0.01, -0.19, 1.01
171, 0.00, 26684.83, 0.00, 0.00, 0.00, 0.00, 0.00, 0.00, 0.01, -0.19, 1.01
172, 0.00, 26684.92, 0.00, 0.00, 0.00, 0.00, 0.00, 0.00, 0.01, -0.19, 1.01
173, 0.00, 26657.16, 0.00, 0.00, 0.00, 0.00, 0.00, 0.00, 0.01, -0.19, 1.01
174, 0.00, 26639.48, 0.00, 0.00, 0.00, 0.00, 0.00, 0.00, 0.01, -0.20, 1.02
175, 0.00, 26650.52, 0.00, 0.00, 0.00, 0.00, 0.00, 0.00, 0.01, -0.20, 1.02
176, 0.00, 26650.16, 0.00, 0.00, 0.00, 0.00, 0.00, 0.00, 0.01, -0.20, 1.02
177, 0.00, 26618.42, 0.00, 0.00, 0.00, 0.00, 0.00, 0.00, 0.01, -0.20, 1.02
178, 0.00, 26606.38, 0.00, 0.00, 0.00, 0.00, 0.00, 0.00, 0.01, -0.20, 1.02
179, 0.00, 26628.32, 0.00, 0.00, 0.00, 0.00, 0.00, 0.00, 0.01, -0.19, 1.01
180, 0.00, 26623.54, 0.00, 0.00, 0.00, 0.00, 0.00, 0.00, 0.01, -0.19, 1.01
181, 0.00, 26588.20, 0.00, 0.00, 0.00, 0.00, 0.00, 0.00, 0.01, -0.19, 1.01
182, 0.00, 26572.29, 0.00, 0.00, 0.00, 0.00, 0.00, 0.00, 0.01, -0.19, 1.01
183, 0.00, 26564.11, 0.00, 0.00, 0.00, 0.00, 0.00, 0.00, 0.01, -0.19, 1.01
184, 0.00, 26583.35, 0.00, 0.00, 0.00, 0.00, 0.00, 0.00, 0.00, -0.19, 1.01
185, 0.00, 26562.39, 0.00, 0.00, 0.00, 0.00, 0.00, 0.00, 0.00, -0.19, 1.01
186, 0.00, 26536.04, 0.00, 0.00, 0.00, 0.00, 0.00, 0.00, 0.00, -0.19, 1.01
187, 0.00, 26529.24, 0.00, 0.00, 0.00, 0.00, 0.00, 0.00, 0.00, -0.19, 1.01
188, 0.00, 26546.36, 0.00, 0.00, 0.00, 0.00, 0.00, 0.00, 0.00, -0.19, 1.01
189, 0.00, 26516.39, 0.00, 0.00, 0.00, 0.00, 0.00, 0.00, 0.01, -0.19, 1.01
190, 0.00, 26487.73, 0.00, 0.00, 0.00, 0.00, 0.00, 0.00, 0.01, -0.19, 1.01
191, 0.00, 26479.66, 0.00, 0.00, 0.00, 0.00, 0.00, 0.00, 0.01, -0.19, 1.01
192, 0.00, 26486.91, 0.00, 0.00, 0.00, 0.00, 0.00, 0.00, 0.01, -0.19, 1.01
193, 0.00, 26496.47, 0.00, 0.00, 0.00, 0.00, 0.00, 0.00, 0.01, -0.19, 1.01
194, 0.00, 26472.20, 0.00, 0.00, 0.00, 0.00, 0.00, 0.00, 0.00, -0.19, 1.00
195, 0.00, 26459.28, 0.00, 0.00, 0.00, 0.00, 0.00, 0.00, 0.00, -0.19, 1.00
196, 0.00, 26456.71, 0.00, 0.00, 0.00, 0.00, 0.00, 0.00, 0.00, -0.19, 1.00
197, 0.00, 26447.95, 0.00, 0.00, 0.00, 0.00, 0.00, 0.00, 0.00, -0.19, 1.00
198, 0.00, 26418.11, 0.00, 0.00, 0.00, 0.00, 0.00, 0.00, 0.00, -0.19, 1.00
199, 0.00, 26393.77, 0.00, 0.00, 0.00, 0.00, 0.00, 0.00, 0.01, -0.19, 1.01
200, 0.00, 26401.34, 0.00, 0.00, 0.00, 0.00, 0.00, 0.00, 0.01, -0.19, 1.01
201, 0.00, 26408.00, 0.00, 0.00, 0.00, 0.00, 0.00, 0.00, 0.01, -0.19, 1.01
202, 0.00, 26392.29, 0.00, 0.00, 0.00, 0.00, 0.00, 0.00, 0.01, -0.19, 1.01
203, 0.00, 26372.13, 0.00, 0.00, 0.00, 0.00, 0.00, 0.00, 0.01, -0.19, 1.01
204, 0.00, 26375.62, 0.00, 0.00, 0.00, 0.00, 0.00, 0.00, 0.00, -0.19, 1.01
205, 0.00, 26372.13, 0.00, 0.00, 0.00, 0.00, 0.00, 0.00, 0.00, -0.19, 1.01
206, 0.00, 26345.26, 0.00, 0.00, 0.00, 0.00, 0.00, 0.00, 0.00, -0.19, 1.01
207, 0.00, 26338.36, 0.00, 0.00, 0.00, 0.00, 0.00, 0.00, 0.00, -0.19, 1.01
208, 0.00, 26331.16, 0.00, 0.00, 0.00, 0.00, 0.00, 0.00, 0.00, -0.19, 1.01
209, 0.00, 26323.67, 0.00, 0.00, 0.00, 0.00, 0.00, 0.00, -0.00, -0.19, 1.01
210, 0.00, 26315.76, 0.00, 0.00, 0.00, 0.00, 0.00, 0.00, -0.00, -0.19, 1.01
211, 0.00, 26345.31, 0.00, 0.00, 0.00, 0.00, 0.00, 0.00, -0.00, -0.19, 1.01
212, 0.00, 26539.23, 0.00, 0.00, 0.00, 0.00, 0.00, 0.00, -0.00, -0.19, 1.01
213, 0.00, 26617.26, 0.00, 0.00, 0.00, 0.00, 0.00, 0.00, -0.00, -0.19, 1.01
214, 0.00, 26467.91, 0.00, 0.00, 0.00, 0.00, 0.00, 0.00, -0.00, -0.19, 1.01
215, 0.00, 26245.75, 0.00, 0.00, 0.00, 0.00, 0.00, 0.00, -0.00, -0.19, 1.01
216, 0.00, 26080.86, 0.00, 0.00, 0.00, 0.00, 0.00, 0.00, -0.00, -0.19, 1.01
217, 0.00, 26029.30, 0.00, 0.00, 0.00, 0.00, 0.00, 0.00, -0.00, -0.19, 1.01
218, 0.00, 26006.61, 0.00, 0.00, 0.00, 0.00, 0.00, 0.00, -0.00, -0.19, 1.01
219, 0.00, 25955.00, 0.00, 0.00, 0.00, 0.00, 0.00, 0.00, 0.00, -0.19, 1.02
220, 0.00, 25919.95, 0.00, 0.00, 0.00, 0.00, 0.00, 0.00, 0.00, -0.19, 1.02
221, 0.00, 25903.17, 0.00, 0.00, 0.00, 0.00, 0.00, 0.00, 0.00, -0.19, 1.02
222, 0.00, 25855.25, 0.00, 0.00, 0.00, 0.00, 0.00, 0.00, 0.00, -0.19, 1.02
223, 0.00, 25689.84, 0.00, 0.00, 0.00, 0.00, 0.00, 0.00, 0.00, -0.19, 1.02
224, 0.00, 25499.41, 0.00, 0.00, 0.00, 0.00, 0.00, 0.00, 0.00, -0.19, 1.01
225, 0.00, 25342.16, 0.00, 0.00, 0.00, 0.00, 0.00, 0.00, 0.00, -0.19, 1.01
226, 0.00, 25239.32, 0.00, 0.00, 0.00, 0.00, 0.00, 0.00, 0.00, -0.19, 1.01
227, 0.00, 25143.79, 0.00, 0.00, 0.00, 0.00, 0.00, 0.00, 0.00, -0.19, 1.01
228, 0.00, 25049.11, 0.00, 0.00, 0.00, 0.00, 0.00, 0.00, 0.00, -0.19, 1.01
229, 0.00, 24968.08, 0.00, 0.00, 0.00, 0.00, 0.00, 0.00, 0.00, -0.19, 1.01
230, 0.00, 24881.25, 0.00, 0.00, 0.00, 0.00, 0.00, 0.00, 0.00, -0.19, 1.01
231, 0.00, 24702.54, 0.00, 0.00, 0.00, 0.00, 0.00, 0.00, 0.00, -0.19, 1.01
232, 0.00, 24419.30, 0.00, 0.00, 0.00, 0.00, 0.00, 0.00, 0.00, -0.19, 1.01
233, 0.00, 24100.28, 0.00, 0.00, 0.00, 0.00, 0.00, 0.00, 0.00, -0.19, 1.01
234, 0.00, 23703.46, 0.00, 0.00, 0.00, 0.00, 0.00, 0.00, 0.00, -0.19, 1.01
235, 0.00, 23311.06, 0.00, 0.00, 0.00, 0.00, 0.00, 0.00, 0.00, -0.19, 1.01
236, 0.00, 22987.56, 0.00, 0.00, 0.00, 0.00, 0.00, 0.00, 0.00, -0.19, 1.01
237, 0.00, 22745.63, 0.00, 0.00, 0.00, 0.00, 0.00, 0.00, 0.00, -0.19, 1.01
238, 0.00, 22562.43, 0.00, 0.00, 0.00, 0.00, 0.00, 0.00, 0.00, -0.19, 1.01
239, 0.00, 22379.82, 0.00, 0.00, 0.00, 0.00, 0.00, 0.00, 0.01, -0.19, 1.01
240, 0.00, 22206.05, 0.00, 0.00, 0.00, 0.00, 0.00, 0.00, 0.01, -0.19, 1.01
241, 0.00, 22090.54, 0.00, 0.00, 0.00, 0.00, 0.00, 0.00, 0.01, -0.19, 1.01
242, 0.00, 21985.69, 0.00, 0.00, 0.00, 0.00, 0.00, 0.00, 0.01, -0.19, 1.01
243, 0.00, 21916.58, 0.00, 0.00, 0.00, 0.00, 0.00, 0.00, 0.01, -0.19, 1.01
244, 0.00, 21875.54, 0.00, 0.00, 0.00, 0.00, 0.00, 0.00, 0.01, -0.19, 1.01
245, 0.00, 21837.72, 0.00, 0.00, 0.00, 0.00, 0.00, 0.00, 0.01, -0.19, 1.01
246, 0.00, 21831.15, 0.00, 0.00, 0.00, 0.00, 0.00, 0.00, 0.01, -0.19, 1.01
247, 0.00, 21845.66, 0.00, 0.00, 0.00, 0.00, 0.00, 0.00, 0.01, -0.19, 1.01
248, 0.00, 21842.04, 0.00, 0.00, 0.00, 0.00, 0.00, 0.00, 0.01, -0.19, 1.01
249, 0.00, 21855.22, 0.00, 0.00, 0.00, 0.00, 0.00, 0.00, 0.01, -0.20, 1.01
250, 0.00, 21903.08, 0.00, 0.00, 0.00, 0.00, 0.00, 0.00, 0.01, -0.20, 1.01
251, 0.00, 21941.12, 0.00, 0.00, 0.00, 0.00, 0.00, 0.00, 0.01, -0.20, 1.01
252, 0.00, 21997.13, 0.00, 0.00, 0.00, 0.00, 0.00, 0.00, 0.01, -0.20, 1.01
253, 0.00, 22086.61, 0.00, 0.00, 0.00, 0.00, 0.00, 0.00, 0.01, -0.20, 1.01
254, 0.00, 22232.03, 0.00, 0.00, 0.00, 0.00, 0.00, 0.00, 0.01, -0.20, 1.01
255, 0.00, 22433.46, 0.00, 0.00, 0.00, 0.00, 0.00, 0.00, 0.01, -0.20, 1.01
0, 0.00, 22693.57, 0.00, 0.00, 0.00, 0.00, 0.00, 0.00, 0.01, -0.20, 1.01
1, 0.00, 23075.85, 0.00, 0.00, 0.00, 0.00, 0.00, 0.00, 0.01, -0.20, 1.01
2, 0.00, 23380.13, 0.00, 0.00, 0.00, 0.00, 0.00, 0.00, 0.01, -0.20, 1.01
3, 0.00, 23585.96, 0.00, 0.00, 0.00, 0.00, 0.00, 0.00, 0.00, -0.20, 1.01
4, 0.00, 23734.78, 0.00, 0.00, 0.00, 0.00, 0.00, 0.00, 0.00, -0.20, 1.01
5, 0.00, 23847.19, 0.00, 0.00, 0.00, 0.00, 0.00, 0.00, 0.00, -0.20, 1.01
6, 0.00, 23936.35, 0.00, 0.00, 0.00, 0.00, 0.00, 0.00, 0.00, -0.20, 1.01
7, 0.00, 24009.04, 0.00, 0.00, 0.00, 0.00, 0.00, 0.00, 0.00, -0.20, 1.01
8, 0.00, 24078.97, 0.00, 0.00, 0.00, 0.00, 0.00, 0.00, 0.01, -0.19, 1.01
9, 0.00, 24104.25, 0.00, 0.00, 0.00, 0.00, 0.00, 0.00, 0.01, -0.19, 1.01
10, 0.00, 24168.78, 0.00, 0.00, 0.00, 0.00, 0.00, 0.00, 0.01, -0.19, 1.01
11, 0.00, 24250.44, 0.00, 0.00, 0.00, 0.00, 0.00, 0.00, 0.01, -0.19, 1.01
12, 0.00, 24307.97, 0.00, 0.00, 0.00, 0.00, 0.00, 0.00, 0.01, -0.19, 1.01
13, 0.00, 24338.50, 0.00, 0.00, 0.00, 0.00, 0.00, 0.00, 0.01, -0.19, 1.01
14, 0.00, 24352.40, 0.00, 0.00, 0.00, 0.00, 0.00, 0.00, 0.01, -0.19, 1.01
15, 0.00, 24375.29, 0.00, 0.00, 0.00, 0.00, 0.00, 0.00, 0.01, -0.19, 1.01
16, 0.00, 24437.03, 0.00, 0.00, 0.00, 0.00, 0.00, 0.00, 0.01, -0.19, 1.01
17, 0.00, 24431.64, 0.00, 0.00, 0.00, 0.00, 0.00, 0.00, 0.01, -0.19, 1.01
18, 0.00, 24460.47, 0.00, 0.00, 0.00, 0.00, 0.00, 0.00, 0.01, -0.19, 1.01
19, 0.00, 24469.84, 0.00, 0.00, 0.00, 0.00, 0.00, 0.00, 0.01, -0.19, 1.01
20, 0.00, 24496.17, 0.00, 0.00, 0.00, 0.00, 0.00, 0.00, 0.01, -0.19, 1.01
21, 0.00, 24498.90, 0.00, 0.00, 0.00, 0.00, 0.00, 0.00, 0.01, -0.19, 1.01
22, 0.00, 24516.24, 0.00, 0.00, 0.00, 0.00, 0.00, 0.00, 0.01, -0.19, 1.01
23, 0.00, 24547.60, 0.00, 0.00, 0.00, 0.00, 0.00, 0.00, 0.01, -0.19, 1.02
24, 0.00, 24584.17, 0.00, 0.00, 0.00, 0.00, 0.00, 0.00, 0.01, -0.19, 1.02
25, 0.00, 24608.38, 0.00, 0.00, 0.00, 0.00, 0.00, 0.00, 0.01, -0.19, 1.02
26, 0.00, 24616.18, 0.00, 0.00, 0.00, 0.00, 0.00, 0.00, 0.01, -0.19, 1.02
27, 0.00, 24677.64, 0.00, 0.00, 0.00, 0.00, 0.00, 0.00, 0.01, -0.19, 1.02
28, 0.00, 24711.28, 0.00, 0.00, 0.00, 0.00, 0.00, 0.00, 0.01, -0.19, 1.01
29, 0.00, 24735.47, 0.00, 0.00, 0.00, 0.00, 0.00, 0.00, 0.01, -0.19, 1.01
30, 0.00, 24737.55, 0.00, 0.00, 0.00, 0.00, 0.00, 0.00, 0.01, -0.19, 1.01
31, 0.00, 24753.84, 0.00, 0.00, 0.00, 0.00, 0.00, 0.00, 0.01, -0.19, 1.01
32, 0.00, 24786.65, 0.00, 0.00, 0.00, 0.00, 0.00, 0.00, 0.01, -0.19, 1.01
33, 0.00, 24796.60, 0.00, 0.00, 0.00, 0.00, 0.00, 0.00, 0.00, -0.18, 1.01
34, 0.00, 24813.61, 0.00, 0.00, 0.00, 0.00, 0.00, 0.00, 0.00, -0.18, 1.01
35, 0.00, 24826.08, 0.00, 0.00, 0.00, 0.00, 0.00, 0.00, 0.00, -0.18, 1.01
36, 0.00, 24867.83, 0.00, 0.00, 0.00, 0.00, 0.00, 0.00, 0.00, -0.18, 1.01
37, 0.00, 24871.34, 0.00, 0.00, 0.00, 0.00, 0.00, 0.00, 0.00, -0.18, 1.01
38, 0.00, 24840.74, 0.00, 0.00, 0.00, 0.00, 0.00, 0.00, 0.00, -0.19, 1.01
39, 0.00, 24865.55, 0.00, 0.00, 0.00, 0.00, 0.00, 0.00, 0.00, -0.19, 1.01
40, 0.00, 24865.91, 0.00, 0.00, 0.00, 0.00, 0.00, 0.00, 0.00, -0.19, 1.01
41, 0.00, 24897.72, 0.00, 0.00, 0.00, 0.00, 0.00, 0.00, 0.00, -0.19, 1.01
42, 0.00, 24894.03, 0.00, 0.00, 0.00, 0.00, 0.00, 0.00, 0.00, -0.19, 1.01
43, 0.00, 24899.87, 0.00, 0.00, 0.00, 0.00, 0.00, 0.00, 0.00, -0.19, 1.01
44, 0.00, 24912.49, 0.00, 0.00, 0.00, 0.00, 0.00, 0.00, -0.00, -0.19, 1.02
45, 0.00, 24932.50, 0.00, 0.00, 0.00, 0.00, 0.00, 0.00, -0.00, -0.19, 1.02
46, 0.00, 24922.02, 0.00, 0.00, 0.00, 0.00, 0.00, 0.00, -0.00, -0.19, 1.02
47, 0.00, 24925.37, 0.00, 0.00, 0.00, 0.00, 0.00, 0.00, -0.00, -0.19, 1.02
48, 0.00, 24931.27, 0.00, 0.00, 0.00, 0.00, 0.00, 0.00, -0.00, -0.19, 1.02
49, 0.00, 24945.02, 0.00, 0.00, 0.00, 0.00, 0.00, 0.00, 0.01, -0.19, 1.02
50, 0.00, 24940.84, 0.00, 0.00, 0.00, 0.00, 0.00, 0.00, 0.01, -0.19, 1.02
51, 0.00, 24923.78, 0.00, 0.00, 0.00, 0.00, 0.00, 0.00, 0.01, -0.19, 1.02
52, 0.00, 24943.90, 0.00, 0.00, 0.00, 0.00, 0.00, 0.00, 0.01, -0.19, 1.02
53, 0.00, 24960.86, 0.00, 0.00, 0.00, 0.00, 0.00, 0.00, 0.01, -0.19, 1.02
54, 0.00, 24939.92, 0.00, 0.00, 0.00, 0.00, 0.00, 0.00, 0.00, -0.20, 1.02
55, 0.00, 24144.53, 0.00, 0.00, 0.00, 0.00, 0.00, 0.00, 0.00, -0.20, 1.02
56, 0.00, 22751.28, 0.00, 0.00, 0.00, 0.00, 0.00, 0.00, 0.00, -0.20, 1.02
57, 0.00, 21883.77, 0.00, 0.00, 0.00, 0.00, 0.00, 0.00, 0.00, -0.20, 1.02
58, 0.00, 21211.89, 0.00, 0.00, 0.00, 0.00, 0.00, 0.00, 0.00, -0.20, 1.02
59, 0.00, 20798.61, 0.00, 0.00, 0.00, 0.00, 0.00, 0.00, 0.01, -0.20, 1.02
60, 0.00, 20610.30, 0.00, 0.00, 0.00, 0.00, 0.00, 0.00, 0.01, -0.20, 1.02
61, 0.00, 20515.08, 0.00, 0.00, 0.00, 0.00, 0.00, 0.00, 0.01, -0.20, 1.02
62, 0.00, 20429.36, 0.00, 0.00, 0.00, 0.00, 0.00, 0.00, 0.01, -0.20, 1.02
63, 0.00, 20224.10, 0.00, 0.00, 0.00, 0.00, 0.00, 0.00, 0.01, -0.20, 1.02
64, 0.00, 19981.59, 0.00, 0.00, 0.00, 0.00, 0.00, 0.00, 0.00, -0.20, 1.01
65, 0.00, 19754.45, 0.00, 0.00, 0.00, 0.00, 0.00, 0.00, 0.00, -0.20, 1.01
66, 0.00, 19544.52, 0.00, 0.00, 0.00, 0.00, 0.00, 0.00, 0.00, -0.20, 1.01
67, 0.00, 19317.45, 0.00, 0.00, 0.00, 0.00, 0.00, 0.00, 0.00, -0.20, 1.01
68, 0.00, 19161.21, 0.00, 0.00, 0.00, 0.00, 0.00, 0.00, 0.00, -0.20, 1.01
69, 0.00, 19064.61, 0.00, 0.00, 0.00, 0.00, 0.00, 0.00, 0.00, -0.19, 1.01
70, 0.00, 18937.96, 0.00, 0.00, 0.00, 0.00, 0.00, 0.00, 0.00, -0.19, 1.01
71, 0.00, 18741.42, 0.00, 0.00, 0.00, 0.00, 0.00, 0.00, 0.00, -0.19, 1.01
72, 0.00, 18592.56, 0.00, 0.00, 0.00, 0.00, 0.00, 0.00, 0.00, -0.19, 1.01
73, 0.00, 18505.93, 0.00, 0.00, 0.00, 0.00, 0.00, 0.00, 0.00, -0.19, 1.01
74, 0.00, 18442.07, 0.00, 0.00, 0.00, 0.00, 0.00, 0.00, -0.01, -0.18, 1.00
75, 0.00, 18360.19, 0.00, 0.00, 0.00, 0.00, 0.00, 0.00, -0.01, -0.18, 1.00
76, 0.00, 18241.79, 0.00, 0.00, 0.00, 0.00, 0.00, 0.00, -0.01, -0.18, 1.00
77, 0.00, 18135.71, 0.00, 0.00, 0.00, 0.00, 0.00, 0.00, -0.01, -0.18, 1.00
78, 0.00, 18006.10, 0.00, 0.00, 0.00, 0.00, 0.00, 0.00, -0.01, -0.18, 1.00
79, 0.00, 17830.12, 0.00, 0.00, 0.00, 0.00, 0.00, 0.00, 0.00, -0.19, 1.01
80, 0.00, 17660.40, 0.00, 0.00, 0.00, 0.00, 0.00, 0.00, 0.00, -0.19, 1.01
81, 0.00, 17524.37, 0.00, 0.00, 0.00, 0.00, 0.00, 0.00, 0.00, -0.19, 1.01
82, 0.00, 17404.19, 0.00, 0.00, 0.00, 0.00, 0.00, 0.00, 0.00, -0.19, 1.01
83, 0.00, 17276.09, 0.00, 0.00, 0.00, 0.00, 0.00, 0.00, 0.00, -0.19, 1.01
84, 0.00, 17140.79, 0.00, 0.00, 0.00, 0.00, 0.00, 0.00, 0.00, -0.19, 1.01
85, 0.00, 17022.44, 0.00, 0.00, 0.00, 0.00, 0.00, 0.00, 0.00, -0.19, 1.01
86, 0.00, 16915.33, 0.00, 0.00, 0.00, 0.00, 0.00, 0.00, 0.00, -0.19, 1.01
87, 0.00, 16805.20, 0.00, 0.00, 0.00, 0.00, 0.00, 0.00, 0.00, -0.19, 1.01
88, 0.00, 16701.18, 0.00, 0.00, 0.00, 0.00, 0.00, 0.00, 0.00, -0.19, 1.01
89, 0.00, 16622.41, 0.00, 0.00, 0.00, 0.00, 0.00, 0.00, 0.01, -0.19, 1.01
90, 0.00, 16525.27, 0.00, 0.00, 0.00, 0.00, 0.00, 0.00, 0.01, -0.19, 1.01
91, 0.00, 16417.33, 0.00, 0.00, 0.00, 0.00, 0.00, 0.00, 0.01, -0.19, 1.01
92, 0.00, 16334.83, 0.00, 0.00, 0.00, 0.00, 0.00, 0.00, 0.01, -0.19, 1.01
93, 0.00, 16267.89, 0.00, 0.00, 0.00, 0.00, 0.00, 0.00, 0.01, -0.19, 1.01
94, 0.00, 16176.47, 0.00, 0.00, 0.00, 0.00, 0.00, 0.00, 0.01, -0.20, 1.00
95, 0.00, 16050.76, 0.00, 0.00, 0.00, 0.00, 0.00, 0.00, 0.01, -0.20, 1.00
96, 0.00, 15920.95, 0.00, 0.00, 0.00, 0.00, 0.00, 0.00, 0.01, -0.20, 1.00
97, 0.00, 15743.25, 0.00, 0.00, 0.00, 0.00, 0.00, 0.00, 0.01, -0.20, 1.00
98, 0.00, 15620.20, 0.00, 0.00, 0.00, 0.00, 0.00, 0.00, 0.01, -0.20, 1.00
99, 0.00, 15516.78, 0.00, 0.00, 0.00, 0.00, 0.00, 0.00, 0.00, -0.20, 1.01
100, 0.00, 15402.77, 0.00, 0.00, 0.00, 0.00, 0.00, 0.00, 0.00, -0.20, 1.01
101, 0.00, 15280.66, 0.00, 0.00, 0.00, 0.00, 0.00, 0.00, 0.00, -0.20, 1.01
102, 0.00, 15136.71, 0.00, 0.00, 0.00, 0.00, 0.00, 0.00, 0.00, -0.20, 1.01
103, 0.00, 14996.66, 0.00, 0.00, 0.00, 0.00, 0.00, 0.00, 0.00, -0.20, 1.01
104, 0.00, 14858.28, 0.00, 0.00, 0.00, 0.00, 0.00, 0.00, 0.00, -0.19, 1.01
105, 0.00, 14740.19, 0.00, 0.00, 0.00, 0.00, 0.00, 0.00, 0.00, -0.19, 1.01
106, 0.00, 14612.09, 0.00, 0.00, 0.00, 0.00, 0.00, 0.00, 0.00, -0.19, 1.01
107, 0.00, 14523.25, 0.00, 0.00, 0.00, 0.00, 0.00, 0.00, 0.00, -0.19, 1.01
108, 0.00, 14422.82, 0.00, 0.00, 0.00, 0.00, 0.00, 0.00, 0.00, -0.19, 1.01
109, 0.00, 14286.21, 0.00, 0.00, 0.00, 0.00, 0.00, 0.00, 0.01, -0.19, 1.02
110, 0.00, 14155.49, 0.00, 0.00, 0.00, 0.00, 0.00, 0.00, 0.01, -0.19, 1.02
111, 0.00, 14020.94, 0.00, 0.00, 0.00, 0.00, 0.00, 0.00, 0.01, -0.19, 1.02
112, 0.00, 13869.12, 0.00, 0.00, 0.00, 0.00, 0.00, 0.00, 0.01, -0.19, 1.02
113, 0.00, 13672.74, 0.00, 0.00, 0.00, 0.00, 0.00, 0.00, 0.01, -0.19, 1.02
114, 0.00, 13513.51, 0.00, 0.00, 0.00, 0.00, 0.00, 0.00, 0.01, -0.19, 1.02
115, 0.00, 13373.90, 0.00, 0.00, 0.00, 0.00, 0.00, 0.00, 0.01, -0.19, 1.02
116, 0.00, 13215.96, 0.00, 0.00, 0.00, 0.00, 0.00, 0.00, 0.01, -0.19, 1.02
117, 0.00, 13035.38, 0.00, 0.00, 0.00, 0.00, 0.00, 0.00, 0.01, -0.19, 1.02
118, 0.00, 12867.34, 0.00, 0.00, 0.00, 0.00, 0.00, 0.00, 0.01, -0.19, 1.02
119, 0.00, 12715.55, 0.00, 0.00, 0.00, 0.00, 0.00, 0.00, 0.01, -0.19, 1.01
120, 0.00, 12587.67, 0.00, 0.00, 0.00, 0.00, 0.00, 0.00, 0.01, -0.19, 1.01
121, 0.00, 12464.96, 0.00, 0.00, 0.00, 0.00, 0.00, 0.00, 0.01, -0.19, 1.01
122, 0.00, 12324.30, 0.00, 0.00, 0.00, 0.00, 0.00, 0.00, 0.01, -0.19, 1.01
123, 0.00, 12213.69, 0.00, 0.00, 0.00, 0.00, 0.00, 0.00, 0.01, -0.19, 1.01
124, 0.00, 12077.16, 0.00, 0.00, 0.00, 0.00, 0.00, 0.00, 0.01, -0.19, 1.01
125, 0.00, 11933.06, 0.00, 0.00, 0.00, 0.00, 0.00, 0.00, 0.01, -0.19, 1.01
126, 0.00, 11781.78, 0.00, 0.00, 0.00, 0.00, 0.00, 0.00, 0.01, -0.19, 1.01
127, 0.00, 11611.46, 0.00, 0.00, 0.00, 0.00, 0.00, 0.00, 0.01, -0.19, 1.01
128, 0.00, 11467.96, 0.00, 0.00, 0.00, 0.00, 0.00, 0.00, 0.01, -0.19, 1.01
129, 0.00, 11274.91, 0.00, 0.00, 0.00, 0.00, 0.00, 0.00, 0.01, -0.20, 1.01
130, 0.00, 11046.39, 0.00, 0.00, 0.00, 0.00, 0.00, 0.00, 0.01, -0.20, 1.01
131, 0.00, 10787.82, 0.00, 0.00, 0.00, 0.00, 0.00, 0.00, 0.01, -0.20, 1.01
132, 0.00, 10573.45, 0.00, 0.00, 0.00, 0.00, 0.00, 0.00, 0.01, -0.20, 1.01
133, 0.00, 10382.12, 0.00, 0.00, 0.00, 0.00, 0.00, 0.00, 0.01, -0.20, 1.01
134, 0.00, 10178.60, 0.00, 0.00, 0.00, 0.00, 0.00, 0.00, 0.01, -0.20, 1.01
135, 0.00, 9992.93, 0.00, 0.00, 0.00, 0.00, 0.00, 0.00, 0.01, -0.20, 1.01
136, 0.00, 9808.21, 0.00, 0.00, 0.00, 0.00, 0.00, 0.00, 0.01, -0.20, 1.01
137, 0.00, 9635.68, 0.00, 0.00, 0.00, 0.00, 0.00, 0.00, 0.01, -0.20, 1.01
138, 0.00, 9486.42, 0.00, 0.00, 0.00, 0.00, 0.00, 0.00, 0.01, -0.20, 1.01
139, 0.00, 9330.85, 0.00, 0.00, 0.00, 0.00, 0.00, 0.00, 0.01, -0.20, 1.01
140, 0.00, 9198.95, 0.00, 0.00, 0.00, 0.00, 0.00, 0.00, 0.01, -0.20, 1.01
141, 0.00, 9083.91, 0.00, 0.00, 0.00, 0.00, 0.00, 0.00, 0.01, -0.20, 1.01
142, 0.00, 8980.91, 0.00, 0.00, 0.00, 0.00, 0.00, 0.00, 0.01, -0.20, 1.01
143, 0.00, 8863.49, 0.00, 0.00, 0.00, 0.00, 0.00, 0.00, 0.01, -0.20, 1.01
144, 0.00, 8764.45, 0.00, 0.00, 0.00, 0.00, 0.00, 0.00, 0.01, -0.19, 1.01
145, 0.00, 8684.61, 0.00, 0.00, 0.00, 0.00, 0.00, 0.00, 0.01, -0.19, 1.01
146, 0.00, 8578.29, 0.00, 0.00, 0.00, 0.00, 0.00, 0.00, 0.01, -0.19, 1.01
147, 0.00, 8486.31, 0.00, 0.00, 0.00, 0.00, 0.00, 0.00, 0.01, -0.19, 1.01
148, 0.00, 8379.58, 0.00, 0.00, 0.00, 0.00, 0.00, 0.00, 0.01, -0.19, 1.01
149, 0.00, 8258.61, 0.00, 0.00, 0.00, 0.00, 0.00, 0.00, 0.01, -0.19, 1.02
150, 0.00, 8081.92, 0.00, 0.00, 0.00, 0.00, 0.00, 0.00, 0.01, -0.19, 1.02
151, 0.00, 7881.65, 0.00, 0.00, 0.00, 0.00, 0.00, 0.00, 0.01, -0.19, 1.02
152, 0.00, 7727.53, 0.00, 0.00, 0.00, 0.00, 0.00, 0.00, 0.01, -0.19, 1.02
153, 0.00, 7594.81, 0.00, 0.00, 0.00, 0.00, 0.00, 0.00, 0.01, -0.19, 1.02
154, 0.00, 7463.27, 0.00, 0.00, 0.00, 0.00, 0.00, 0.00, 0.01, -0.20, 1.01
155, 0.00, 7294.33, 0.00, 0.00, 0.00, 0.00, 0.00, 0.00, 0.01, -0.20, 1.01
156, 0.00, 7150.93, 0.00, 0.00, 0.00, 0.00, 0.00, 0.00, 0.01, -0.20, 1.01
157, 0.00, 7022.05, 0.00, 0.00, 0.00, 0.00, 0.00, 0.00, 0.01, -0.20, 1.01
158, 0.00, 6903.27, 0.00, 0.00, 0.00, 0.00, 0.00, 0.00, 0.01, -0.20, 1.01
159, 0.00, 6801.70, 0.00, 0.00, 0.00, 0.00, 0.00, 0.00, 0.01, -0.19, 1.01
160, 0.00, 6700.52, 0.00, 0.00, 0.00, 0.00, 0.00, 0.00, 0.01, -0.19, 1.01
161, 0.00, 6628.36, 0.00, 0.00, 0.00, 0.00, 0.00, 0.00, 0.01, -0.19, 1.01
162, 0.00, 6562.27, 0.00, 0.00, 0.00, 0.00, 0.00, 0.00, 0.01, -0.19, 1.01
163, 0.00, 6492.09, 0.00, 0.00, 0.00, 0.00, 0.00, 0.00, 0.01, -0.19, 1.01
164, 0.00, 6422.51, 0.00, 0.00, 0.00, 0.00, 0.00, 0.00, 0.01, -0.20, 1.00
165, 0.00, 6310.43, 0.00, 0.00, 0.00, 0.00, 0.00, 0.00, 0.01, -0.20, 1.00
166, 0.00, 6195.37, 0.00, 0.00, 0.00, 0.00, 0.00, 0.00, 0.01, -0.20, 1.00
167, 0.00, 6085.28, 0.00, 0.00, 0.00, 0.00, 0.00, 0.00, 0.01, -0.20, 1.00
168, 0.00, 5983.99, 0.00, 0.00, 0.00, 0.00, 0.00, 0.00, 0.01, -0.20, 1.00
169, 0.00, 5901.75, 0.00, 0.00, 0.00, 0.00, 0.00, 0.00, 0.01, -0.19, 1.01
170, 0.00, 5833.11, 0.00, 0.00, 0.00, 0.00, 0.00, 0.00, 0.01, -0.19, 1.01
171, 0.00, 5746.99, 0.00, 0.00, 0.00, 0.00, 0.00, 0.00, 0.01, -0.19, 1.01
172, 0.00, 5648.49, 0.00, 0.00, 0.00, 0.00, 0.00, 0.00, 0.01, -0.19, 1.01
173, 0.00, 5573.77, 0.00, 0.00, 0.00, 0.00, 0.00, 0.00, 0.01, -0.19, 1.01
174, 0.00, 5537.56, 0.00, 0.00, 0.00, 0.00, 0.00, 0.00, 0.01, -0.20, 1.01
175, 0.00, 5514.04, 0.00, 0.00, 0.00, 0.00, 0.00, 0.00, 0.01, -0.20, 1.01
176, 0.00, 5465.09, 0.00, 0.00, 0.00, 0.00, 0.00, 0.00, 0.01, -0.20, 1.01
177, 0.00, 5425.19, 0.00, 0.00, 0.00, 0.00, 0.00, 0.00, 0.01, -0.20, 1.01
178, 0.00, 5395.96, 0.00, 0.00, 0.00, 0.00, 0.00, 0.00, 0.01, -0.20, 1.01
179, 0.00, 5360.57, 0.00, 0.00, 0.00, 0.00, 0.00, 0.00, 0.01, -0.19, 1.01
180, 0.00, 5305.63, 0.00, 0.00, 0.00, 0.00, 0.00, 0.00, 0.01, -0.19, 1.01
181, 0.00, 5265.42, 0.00, 0.00, 0.00, 0.00, 0.00, 0.00, 0.01, -0.19, 1.01
182, 0.00, 5233.57, 0.00, 0.00, 0.00, 0.00, 0.00, 0.00, 0.01, -0.19, 1.01
183, 0.00, 5168.17, 0.00, 0.00, 0.00, 0.00, 0.00, 0.00, 0.01, -0.19, 1.01
184, 0.00, 5082.09, 0.00, 0.00, 0.00, 0.00, 0.00, 0.00, 0.01, -0.19, 1.01
185, 0.00, 4944.18, 0.00, 0.00, 0.00, 0.00, 0.00, 0.00, 0.01, -0.19, 1.01
186, 0.00, 4806.90, 0.00, 0.00, 0.00, 0.00, 0.00, 0.00, 0.01, -0.19, 1.01
187, 0.00, 4660.74, 0.00, 0.00, 0.00, 0.00, 0.00, 0.00, 0.01, -0.19, 1.01
188, 0.00, 4530.72, 0.00, 0.00, 0.00, 0.00, 0.00, 0.00, 0.01, -0.19, 1.01
189, 0.00, 4379.15, 0.00, 0.00, 0.00, 0.00, 0.00, 0.00, 0.00, -0.19, 1.01
190, 0.00, 4231.05, 0.00, 0.00, 0.00, 0.00, 0.00, 0.00, 0.00, -0.19, 1.01
191, 0.00, 4053.65, 0.00, 0.00, 0.00, 0.00, 0.00, 0.00, 0.00, -0.19, 1.01
192, 0.00, 3869.56, 0.00, 0.00, 0.00, 0.00, 0.00, 0.00, 0.00, -0.19, 1.01
193, 0.00, 3683.41, 0.00, 0.00, 0.00, 0.00, 0.00, 0.00, 0.00, -0.19, 1.01
194, 0.00, 3481.57, 0.00, 0.00, 0.00, 0.00, 0.00, 0.00, 0.01, -0.20, 1.01
195, 0.00, 3286.85, 0.00, 0.00, 0.00, 0.00, 0.00, 0.00, 0.01, -0.20, 1.01
196, 0.00, 3076.85, 0.00, 0.00, 0.00, 0.00, 0.00, 0.00, 0.01, -0.20, 1.01
197, 0.00, 2881.99, 0.00, 0.00, 0.00, 0.00, 0.00, 0.00, 0.01, -0.20, 1.01
198, 0.00, 2663.95, 0.00, 0.00, 0.00, 0.00, 0.00, 0.00, 0.01, -0.20, 1.01
199, 0.00, 2443.83, 0.00, 0.00, 0.00, 0.00, 0.00, 0.00, 0.00, -0.20, 1.02
200, 0.00, 2240.78, 0.00, 0.00, 0.00, 0.00, 0.00, 0.00, 0.00, -0.20, 1.02
201, 0.00, 2070.26, 0.00, 0.00, 0.00, 0.00, 0.00, 0.00, 0.00, -0.20, 1.02
202, 0.00, 1900.08, 0.00, 0.00, 0.00, 0.00, 0.00, 0.00, 0.00, -0.20, 1.02
203, 0.00, 1738.83, 0.00, 0.00, 0.00, 0.00, 0.00, 0.00, 0.00, -0.20, 1.02
204, 0.00, 1622.92, 0.00, 0.00, 0.00, 0.00, 0.00, 0.00, 0.00, -0.20, 1.01
205, 0.00, 1489.59, 0.00, 0.00, 0.00, 0.00, 0.00, 0.00, 0.00, -0.20, 1.01
206, 0.00, 1366.27, 0.00, 0.00, 0.00, 0.00, 0.00, 0.00, 0.00, -0.20, 1.01
207, 0.00, 1249.42, 0.00, 0.00, 0.00, 0.00, 0.00, 0.00, 0.00, -0.20, 1.01
208, 0.00, 1157.11, 0.00, 0.00, 0.00, 0.00, 0.00, 0.00, 0.00, -0.20, 1.01
209, 0.00, 1066.76, 0.00, 0.00, 0.00, 0.00, 0.00, 0.00, 0.00, -0.20, 1.02
210, 0.00, 981.26, 0.00, 0.00, 0.00, 0.00, 0.00, 0.00, 0.00, -0.20, 1.02
211, 0.00, 901.69, 0.00, 0.00, 0.00, 0.00, 0.00, 0.00, 0.00, -0.20, 1.02
212, 0.00, 828.38, 0.00, 0.00, 0.00, 0.00, 0.00, 0.00, 0.00, -0.20, 1.02
213, 0.00, 787.03, 0.00, 0.00, 0.00, 0.00, 0.00, 0.00, 0.00, -0.20, 1.02
214, 0.00, 722.88, 0.00, 0.00, 0.00, 0.00, 0.00, 0.00, 0.00, -0.20, 1.01
215, 0.00, 669.52, 0.00, 0.00, 0.00, 0.00, 0.00, 0.00, 0.00, -0.20, 1.01
216, 0.00, 620.46, 0.00, 0.00, 0.00, 0.00, 0.00, 0.00, 0.00, -0.20, 1.01
217, 0.00, 585.64, 0.00, 0.00, 0.00, 0.00, 0.00, 0.00, 0.00, -0.20, 1.01
218, 0.00, 557.18, 0.00, 0.00, 0.00, 0.00, 0.00, 0.00, 0.00, -0.20, 1.01
219, 0.00, 529.33, 0.00, 0.00, 0.00, 0.00, 0.00, 0.00, 0.01, -0.19, 1.01
220, 0.00, 537.94, 0.00, 0.00, 0.00, 0.00, 0.00, 0.00, 0.01, -0.19, 1.01
221, 0.00, 524.77, 0.00, 0.00, 0.00, 0.00, 0.00, 0.00, 0.01, -0.19, 1.01
222, 0.00, 530.05, 0.00, 0.00, 0.00, 0.00, 0.00, 0.00, 0.01, -0.19, 1.01
223, 0.00, 547.08, 0.00, 0.00, 0.00, 0.00, 0.00, 0.00, 0.01, -0.19, 1.01
224, 0.00, 581.86, 0.00, 0.00, 0.00, 0.00, 0.00, 0.00, 0.01, -0.19, 1.01
225, 0.00, 630.88, 0.00, 0.00, 0.00, 0.00, 0.00, 0.00, 0.01, -0.19, 1.01
226, 0.00, 677.39, 0.00, 0.00, 0.00, 0.00, 0.00, 0.00, 0.01, -0.19, 1.01
227, 0.00, 740.04, 0.00, 0.00, 0.00, 0.00, 0.00, 0.00, 0.01, -0.19, 1.01
228, 0.00, 819.73, 0.00, 0.00, 0.00, 0.00, 0.00, 0.00, 0.01, -0.19, 1.01
229, 0.00, 899.10, 0.00, 0.00, 0.00, 0.00, 0.00, 0.00, 0.01, -0.19, 1.01
230, 0.00, 1025.52, 0.00, 0.00, 0.00, 0.00, 0.00, 0.00, 0.01, -0.19, 1.01
231, 0.00, 1196.53, 0.00, 0.00, 0.00, 0.00, 0.00, 0.00, 0.01, -0.19, 1.01
232, 0.00, 1354.38, 0.00, 0.00, 0.00, 0.00, 0.00, 0.00, 0.01, -0.19, 1.01
233, 0.00, 1514.06, 0.00, 0.00, 0.00, 0.00, 0.00, 0.00, 0.01, -0.19, 1.01
234, 0.00, 1656.53, 0.00, 0.00, 0.00, 0.00, 0.00, 0.00, 0.01, -0.19, 1.01
235, 0.00, 1763.13, 0.00, 0.00, 0.00, 0.00, 0.00, 0.00, 0.01, -0.19, 1.02
236, 0.00, 1898.58, 0.00, 0.00, 0.00, 0.00, 0.00, 0.00, 0.01, -0.19, 1.02
237, 0.00, 2045.25, 0.00, 0.00, 0.00, 0.00, 0.00, 0.00, 0.01, -0.19, 1.02
238, 0.00, 2039.02, 0.00, 0.00, 0.00, 0.00, 0.00, 0.00, 0.01, -0.19, 1.02
239, 0.00, 1989.77, 0.00, 0.00, 0.00, 0.00, 0.00, 0.00, 0.01, -0.19, 1.02
240, 0.00, 1935.39, 0.00, 0.00, 0.00, 0.00, 0.00, 0.00, 0.01, -0.19, 1.02
241, 0.00, 1909.64, 0.00, 0.00, 0.00, 0.00, 0.00, 0.00, 0.01, -0.19, 1.02
242, 0.00, 1909.64, 0.00, 0.00, 0.00, 0.00, 0.00, 0.00, 0.01, -0.19, 1.02
243, 0.00, 1920.62, 0.00, 0.00, 0.00, 0.00, 0.00, 0.00, 0.01, -0.19, 1.02
244, 0.00, 1994.62, 0.00, 0.00, 0.00, 0.00, 0.00, 0.00, 0.01, -0.19, 1.02
245, 0.00, 2104.39, 0.00, 0.00, 0.00, 0.00, 0.00, 0.00, 0.01, -0.19, 1.02
246, 0.00, 2214.25, 0.00, 0.00, 0.00, 0.00, 0.00, 0.00, 0.01, -0.19, 1.02
247, 0.00, 2336.43, 0.00, 0.00, 0.00, 0.00, 0.00, 0.00, 0.01, -0.19, 1.02
248, 0.00, 2453.77, 0.00, 0.00, 0.00, 0.00, 0.00, 0.00, 0.01, -0.19, 1.02
249, 0.00, 2595.17, 0.00, 0.00, 0.00, 0.00, 0.00, 0.00, 0.01, -0.19, 1.02
250, 0.00, 2758.14, 0.00, 0.00, 0.00, 0.00, 0.00, 0.00, 0.00, -0.19, 1.01
251, 0.00, 2907.20, 0.00, 0.00, 0.00, 0.00, 0.00, 0.00, 0.00, -0.19, 1.01
252, 0.00, 3036.17, 0.00, 0.00, 0.00, 0.00, 0.00, 0.00, 0.00, -0.19, 1.01
253, 0.00, 3188.66, 0.00, 0.00, 0.00, 0.00, 0.00, 0.00, 0.00, -0.19, 1.01
254, 0.00, 3384.86, 0.00, 0.00, 0.00, 0.00, 0.00, 0.00, 0.00, -0.19, 1.01
255, 0.00, 3565.08, 0.00, 0.00, 0.00, 0.00, 0.00, 0.00, 0.00, -0.19, 1.01
0, 0.00, 3753.15, 0.00, 0.00, 0.00, 0.00, 0.00, 0.00, 0.00, -0.19, 1.01
1, 0.00, 3913.66, 0.00, 0.00, 0.00, 0.00, 0.00, 0.00, 0.00, -0.19, 1.01
2, 0.00, 4091.22, 0.00, 0.00, 0.00, 0.00, 0.00, 0.00, 0.00, -0.19, 1.01
3, 0.00, 4695.59, 0.00, 0.00, 0.00, 0.00, 0.00, 0.00, 0.00, -0.19, 1.01
4, 0.00, 5632.48, 0.00, 0.00, 0.00, 0.00, 0.00, 0.00, 0.00, -0.19, 1.01
5, 0.00, 6218.01, 0.00, 0.00, 0.00, 0.00, 0.00, 0.00, 0.00, -0.19, 1.01
6, 0.00, 6585.83, 0.00, 0.00, 0.00, 0.00, 0.00, 0.00, 0.00, -0.19, 1.01
7, 0.00, 6816.72, 0.00, 0.00, 0.00, 0.00, 0.00, 0.00, 0.00, -0.19, 1.01
8, 0.00, 7002.51, 0.00, 0.00, 0.00, 0.00, 0.00, 0.00, 0.00, -0.19, 1.01
9, 0.00, 7156.60, 0.00, 0.00, 0.00, 0.00, 0.00, 0.00, 0.01, -0.19, 1.01
10, 0.00, 7301.31, 0.00, 0.00, 0.00, 0.00, 0.00, 0.00, 0.01, -0.19, 1.01
11, 0.00, 7427.33, 0.00, 0.00, 0.00, 0.00, 0.00, 0.00, 0.01, -0.19, 1.01
12, 0.00, 7563.52, 0.00, 0.00, 0.00, 0.00, 0.00, 0.00, 0.01, -0.19, 1.01
13, 0.00, 7667.72, 0.00, 0.00, 0.00, 0.00, 0.00, 0.00, 0.01, -0.19, 1.01
14, 0.00, 7771.59, 0.00, 0.00, 0.00, 0.00, 0.00, 0.00, 0.01, -0.18, 1.01
15, 0.00, 7869.47, 0.00, 0.00, 0.00, 0.00, 0.00, 0.00, 0.01, -0.18, 1.01
16, 0.00, 7975.01, 0.00, 0.00, 0.00, 0.00, 0.00, 0.00, 0.01, -0.18, 1.01
17, 0.00, 8074.75, 0.00, 0.00, 0.00, 0.00, 0.00, 0.00, 0.01, -0.18, 1.01
18, 0.00, 8158.14, 0.00, 0.00, 0.00, 0.00, 0.00, 0.00, 0.01, -0.18, 1.01
19, 0.00, 8259.71, 0.00, 0.00, 0.00, 0.00, 0.00, 0.00, 0.00, -0.19, 1.01
20, 0.00, 8340.51, 0.00, 0.00, 0.00, 0.00, 0.00, 0.00, 0.00, -0.19, 1.01
21, 0.00, 8430.38, 0.00, 0.00, 0.00, 0.00, 0.00, 0.00, 0.00, -0.19, 1.01
22, 0.00, 8512.35, 0.00, 0.00, 0.00, 0.00, 0.00, 0.00, 0.00, -0.19, 1.01
23, 0.00, 8578.26, 0.00, 0.00, 0.00, 0.00, 0.00, 0.00, 0.00, -0.19, 1.01
24, 0.00, 8670.53, 0.00, 0.00, 0.00, 0.00, 0.00, 0.00, -0.00, -0.19, 1.02
25, 0.00, 8748.43, 0.00, 0.00, 0.00, 0.00, 0.00, 0.00, -0.00, -0.19, 1.02
26, 0.00, 8826.99, 0.00, 0.00, 0.00, 0.00, 0.00, 0.00, -0.00, -0.19, 1.02
27, 0.00, 8902.14, 0.00, 0.00, 0.00, 0.00, 0.00, 0.00, -0.00, -0.19, 1.02
28, 0.00, 8983.93, 0.00, 0.00, 0.00, 0.00, 0.00, 0.00, -0.00, -0.19, 1.02
29, 0.00, 9041.91, 0.00, 0.00, 0.00, 0.00, 0.00, 0.00, 0.00, -0.19, 1.02
30, 0.00, 9122.71, 0.00, 0.00, 0.00, 0.00, 0.00, 0.00, 0.00, -0.19, 1.02
31, 0.00, 9203.62, 0.00, 0.00, 0.00, 0.00, 0.00, 0.00, 0.00, -0.19, 1.02
32, 0.00, 9257.18, 0.00, 0.00, 0.00, 0.00, 0.00, 0.00, 0.00, -0.19, 1.02
33, 0.00, 9323.81, 0.00, 0.00, 0.00, 0.00, 0.00, 0.00, 0.00, -0.19, 1.02
34, 0.00, 9394.19, 0.00, 0.00, 0.00, 0.00, 0.00, 0.00, 0.00, -0.20, 1.01
35, 0.00, 9481.10, 0.00, 0.00, 0.00, 0.00, 0.00, 0.00, 0.00, -0.20, 1.01
36, 0.00, 9561.09, 0.00, 0.00, 0.00, 0.00, 0.00, 0.00, 0.00, -0.20, 1.01
37, 0.00, 9598.91, 0.00, 0.00, 0.00, 0.00, 0.00, 0.00, 0.00, -0.20, 1.01
38, 0.00, 9662.32, 0.00, 0.00, 0.00, 0.00, 0.00, 0.00, 0.00, -0.20, 1.01
39, 0.00, 9742.75, 0.00, 0.00, 0.00, 0.00, 0.00, 0.00, 0.00, -0.19, 1.02
40, 0.00, 9805.75, 0.00, 0.00, 0.00, 0.00, 0.00, 0.00, 0.00, -0.19, 1.02
41, 0.00, 9878.17, 0.00, 0.00, 0.00, 0.00, 0.00, 0.00, 0.00, -0.19, 1.02
42, 0.00, 9934.14, 0.00, 0.00, 0.00, 0.00, 0.00, 0.00, 0.00, -0.19, 1.02
43, 0.00, 9991.43, 0.00, 0.00, 0.00, 0.00, 0.00, 0.00, 0.00, -0.19, 1.02
44, 0.00, 10056.23, 0.00, 0.00, 0.00, 0.00, 0.00, 0.00, 0.00, -0.20, 1.01
45, 0.00, 10107.77, 0.00, 0.00, 0.00, 0.00, 0.00, 0.00, 0.00, -0.20, 1.01
46, 0.00, 10167.41, 0.00, 0.00, 0.00, 0.00, 0.00, 0.00, 0.00, -0.20, 1.01
47, 0.00, 10235.91, 0.00, 0.00, 0.00, 0.00, 0.00, 0.00, 0.00, -0.20, 1.01
48, 0.00, 10283.46, 0.00, 0.00, 0.00, 0.00, 0.00, 0.00, 0.00, -0.20, 1.01
49, 0.00, 10333.14, 0.00, 0.00, 0.00, 0.00, 0.00, 0.00, 0.01, -0.19, 1.01
50, 0.00, 10403.51, 0.00, 0.00, 0.00, 0.00, 0.00, 0.00, 0.01, -0.19, 1.01
51, 0.00, 10474.05, 0.00, 0.00, 0.00, 0.00, 0.00, 0.00, 0.01, -0.19, 1.01
52, 0.00, 10545.42, 0.00, 0.00, 0.00, 0.00, 0.00, 0.00, 0.01, -0.19, 1.01
53, 0.00, 10591.51, 0.00, 0.00, 0.00, 0.00, 0.00, 0.00, 0.01, -0.19, 1.01
54, 0.00, 10634.49, 0.00, 0.00, 0.00, 0.00, 0.00, 0.00, 0.01, -0.20, 1.01
55, 0.00, 10683.26, 0.00, 0.00, 0.00, 0.00, 0.00, 0.00, 0.01, -0.20, 1.01
56, 0.00, 10747.14, 0.00, 0.00, 0.00, 0.00, 0.00, 0.00, 0.01, -0.20, 1.01
57, 0.00, 10796.76, 0.00, 0.00, 0.00, 0.00, 0.00, 0.00, 0.01, -0.20, 1.01
58, 0.00, 10835.21, 0.00, 0.00, 0.00, 0.00, 0.00, 0.00, 0.01, -0.20, 1.01
59, 0.00, 10877.88, 0.00, 0.00, 0.00, 0.00, 0.00, 0.00, 0.00, -0.19, 1.02
60, 0.00, 10954.79, 0.00, 0.00, 0.00, 0.00, 0.00, 0.00, 0.00, -0.19, 1.02
61, 0.00, 11001.37, 0.00, 0.00, 0.00, 0.00, 0.00, 0.00, 0.00, -0.19, 1.02
62, 0.00, 11036.62, 0.00, 0.00, 0.00, 0.00, 0.00, 0.00, 0.00, -0.19, 1.02
63, 0.00, 11087.96, 0.00, 0.00, 0.00, 0.00, 0.00, 0.00, 0.00, -0.19, 1.02
64, 0.00, 11142.41, 0.00, 0.00, 0.00, 0.00, 0.00, 0.00, 0.01, -0.19, 1.01
65, 0.00, 11186.47, 0.00, 0.00, 0.00, 0.00, 0.00, 0.00, 0.01, -0.19, 1.01
66, 0.00, 11228.87, 0.00, 0.00, 0.00, 0.00, 0.00, 0.00, 0.01, -0.19, 1.01
67, 0.00, 11270.26, 0.00, 0.00, 0.00, 0.00, 0.00, 0.00, 0.01, -0.19, 1.01
68, 0.00, 11334.32, 0.00, 0.00, 0.00, 0.00, 0.00, 0.00, 0.01, -0.19, 1.01
69, 0.00, 11386.47, 0.00, 0.00, 0.00, 0.00, 0.00, 0.00, 0.01, -0.19, 1.01
70, 0.00, 11425.88, 0.00, 0.00, 0.00, 0.00, 0.00, 0.00, 0.01, -0.19, 1.01
71, 0.00, 11457.62, 0.00, 0.00, 0.00, 0.00, 0.00, 0.00, 0.01, -0.19, 1.01
72, 0.00, 11509.07, 0.00, 0.00, 0.00, 0.00, 0.00, 0.00, 0.01, -0.19, 1.01
73, 0.00, 11584.86, 0.00, 0.00, 0.00, 0.00, 0.00, 0.00, 0.01, -0.19, 1.01
74, 0.00, 11624.56, 0.00, 0.00, 0.00, 0.00, 0.00, 0.00, 0.00, -0.19, 1.01
75, 0.00, 11663.05, 0.00, 0.00, 0.00, 0.00, 0.00, 0.00, 0.00, -0.19, 1.01
76, 0.00, 11716.81, 0.00, 0.00, 0.00, 0.00, 0.00, 0.00, 0.00, -0.19, 1.01
77, 0.00, 11775.30, 0.00, 0.00, 0.00, 0.00, 0.00, 0.00, 0.00, -0.19, 1.01
78, 0.00, 11834.49, 0.00, 0.00, 0.00, 0.00, 0.00, 0.00, 0.00, -0.19, 1.01
79, 0.00, 11886.72, 0.00, 0.00, 0.00, 0.00, 0.00, 0.00, 0.00, -0.19, 1.02
80, 0.00, 11917.46, 0.00, 0.00, 0.00, 0.00, 0.00, 0.00, 0.00, -0.19, 1.02
81, 0.00, 11964.84, 0.00, 0.00, 0.00, 0.00, 0.00, 0.00, 0.00, -0.19, 1.02
82, 0.00, 12010.24, 0.00, 0.00, 0.00, 0.00, 0.00, 0.00, 0.00, -0.19, 1.02
83, 0.00, 12045.06, 0.00, 0.00, 0.00, 0.00, 0.00, 0.00, 0.00, -0.19, 1.02
84, 0.00, 12071.62, 0.00, 0.00, 0.00, 0.00, 0.00, 0.00, 0.01, -0.19, 1.01
85, 0.00, 12107.00, 0.00, 0.00, 0.00, 0.00, 0.00, 0.00, 0.01, -0.19, 1.01
86, 0.00, 12159.86, 0.00, 0.00, 0.00, 0.00, 0.00, 0.00, 0.01, -0.19, 1.01
87, 0.00, 12199.04, 0.00, 0.00, 0.00, 0.00, 0.00, 0.00, 0.01, -0.19, 1.01
88, 0.00, 12228.44, 0.00, 0.00, 0.00, 0.00, 0.00, 0.00, 0.01, -0.19, 1.01
89, 0.00, 12270.53, 0.00, 0.00, 0.00, 0.00, 0.00, 0.00, 0.00, -0.19, 1.02
90, 0.00, 12307.96, 0.00, 0.00, 0.00, 0.00, 0.00, 0.00, 0.00, -0.19, 1.02
91, 0.00, 12332.98, 0.00, 0.00, 0.00, 0.00, 0.00, 0.00, 0.00, -0.19, 1.02
92, 0.00, 12357.05, 0.00, 0.00, 0.00, 0.00, 0.00, 0.00, 0.00, -0.19, 1.02
93, 0.00, 12400.23, 0.00, 0.00, 0.00, 0.00, 0.00, 0.00, 0.00, -0.19, 1.02
94, 0.00, 12450.77, 0.00, 0.00, 0.00, 0.00, 0.00, 0.00, 0.00, -0.19, 1.01
95, 0.00, 12472.92, 0.00, 0.00, 0.00, 0.00, 0.00, 0.00, 0.00, -0.19, 1.01
96, 0.00, 12512.46, 0.00, 0.00, 0.00, 0.00, 0.00, 0.00, 0.00, -0.19, 1.01
97, 0.00, 12563.11, 0.00, 0.00, 0.00, 0.00, 0.00, 0.00, 0.00, -0.19, 1.01
98, 0.00, 12601.04, 0.00, 0.00, 0.00, 0.00, 0.00, 0.00, 0.00, -0.19, 1.01
99, 0.00, 12615.86, 0.00, 0.00, 0.00, 0.00, 0.00, 0.00, 0.00, -0.19, 1.01
100, 0.00, 12648.16, 0.00, 0.00, 0.00, 0.00, 0.00, 0.00, 0.00, -0.19, 1.01
101, 0.00, 12677.31, 0.00, 0.00, 0.00, 0.00, 0.00, 0.00, 0.00, -0.19, 1.01
102, 0.00, 12735.73, 0.00, 0.00, 0.00, 0.00, 0.00, 0.00, 0.00, -0.19, 1.01
103, 0.00, 12758.31, 0.00, 0.00, 0.00, 0.00, 0.00, 0.00, 0.00, -0.19, 1.01
104, 0.00, 12784.21, 0.00, 0.00, 0.00, 0.00, 0.00, 0.00, 0.00, -0.19, 1.02
105, 0.00, 12828.25, 0.00, 0.00, 0.00, 0.00, 0.00, 0.00, 0.00, -0.19, 1.02
106, 0.00, 12864.23, 0.00, 0.00, 0.00, 0.00, 0.00, 0.00, 0.00, -0.19, 1.02
107, 0.00, 12907.04, 0.00, 0.00, 0.00, 0.00, 0.00, 0.00, 0.00, -0.19, 1.02
108, 0.00, 12922.57, 0.00, 0.00, 0.00, 0.00, 0.00, 0.00, 0.00, -0.19, 1.02
109, 0.00, 12953.93, 0.00, 0.00, 0.00, 0.00, 0.00, 0.00, 0.00, -0.20, 1.01
110, 0.00, 12974.36, 0.00, 0.00, 0.00, 0.00, 0.00, 0.00, 0.00, -0.20, 1.01
111, 0.00, 13004.27, 0.00, 0.00, 0.00, 0.00, 0.00, 0.00, 0.00, -0.20, 1.01
112, 0.00, 13029.97, 0.00, 0.00, 0.00, 0.00, 0.00, 0.00, 0.00, -0.20, 1.01
113, 0.00, 13075.19, 0.00, 0.00, 0.00, 0.00, 0.00, 0.00, 0.00, -0.20, 1.01
114, 0.00, 13099.31, 0.00, 0.00, 0.00, 0.00, 0.00, 0.00, 0.01, -0.19, 1.01
115, 0.00, 13132.63, 0.00, 0.00, 0.00, 0.00, 0.00, 0.00, 0.01, -0.19, 1.01
116, 0.00, 13168.78, 0.00, 0.00, 0.00, 0.00, 0.00, 0.00, 0.01, -0.19, 1.01
117, 0.00, 13192.96, 0.00, 0.00, 0.00, 0.00, 0.00, 0.00, 0.01, -0.19, 1.01
118, 0.00, 13241.82, 0.00, 0.00, 0.00, 0.00, 0.00, 0.00, 0.01, -0.19, 1.01
119, 0.00, 13280.49, 0.00, 0.00, 0.00, 0.00, 0.00, 0.00, 0.00, -0.19, 1.01
120, 0.00, 13294.33, 0.00, 0.00, 0.00, 0.00, 0.00, 0.00, 0.00, -0.19, 1.01
121, 0.00, 13347.75, 0.00, 0.00, 0.00, 0.00, 0.00, 0.00, 0.00, -0.19, 1.01
122, 0.00, 13394.33, 0.00, 0.00, 0.00, 0.00, 0.00, 0.00, 0.00, -0.19, 1.01
123, 0.00, 13421.35, 0.00, 0.00, 0.00, 0.00, 0.00, 0.00, 0.00, -0.19, 1.01
124, 0.00, 13438.61, 0.00, 0.00, 0.00, 0.00, 0.00, 0.00, 0.00, -0.19, 1.01
125, 0.00, 13497.12, 0.00, 0.00, 0.00, 0.00, 0.00, 0.00, 0.00, -0.19, 1.01
126, 0.00, 13527.63, 0.00, 0.00, 0.00, 0.00, 0.00, 0.00, 0.00, -0.19, 1.01
127, 0.00, 13569.36, 0.00, 0.00, 0.00, 0.00, 0.00, 0.00, 0.00, -0.19, 1.01
128, 0.00, 13613.04, 0.00, 0.00, 0.00, 0.00, 0.00, 0.00, 0.00, -0.19, 1.01
129, 0.00, 13634.63, 0.00, 0.00, 0.00, 0.00, 0.00, 0.00, 0.00, -0.20, 1.01
130, 0.00, 13659.73, 0.00, 0.00, 0.00, 0.00, 0.00, 0.00, 0.00, -0.20, 1.01
131, 0.00, 13697.60, 0.00, 0.00, 0.00, 0.00, 0.00, 0.00, 0.00, -0.20, 1.01
132, 0.00, 13736.67, 0.00, 0.00, 0.00, 0.00, 0.00, 0.00, 0.00, -0.20, 1.01
133, 0.00, 13753.30, 0.00, 0.00, 0.00, 0.00, 0.00, 0.00, 0.00, -0.20, 1.01
134, 0.00, 13774.13, 0.00, 0.00, 0.00, 0.00, 0.00, 0.00, -0.00, -0.20, 1.01
135, 0.00, 13809.15, 0.00, 0.00, 0.00, 0.00, 0.00, 0.00, -0.00, -0.20, 1.01
136, 0.00, 13843.91, 0.00, 0.00, 0.00, 0.00, 0.00, 0.00, -0.00, -0.20, 1.01
137, 0.00, 13862.08, 0.00, 0.00, 0.00, 0.00, 0.00, 0.00, -0.00, -0.20, 1.01
138, 0.00, 13879.67, 0.00, 0.00, 0.00, 0.00, 0.00, 0.00, -0.00, -0.20, 1.01
139, 0.00, 13937.52, 0.00, 0.00, 0.00, 0.00, 0.00, 0.00, 0.00, -0.20, 1.01
140, 0.00, 13970.71, 0.00, 0.00, 0.00, 0.00, 0.00, 0.00, 0.00, -0.20, 1.01
141, 0.00, 13971.20, 0.00, 0.00, 0.00, 0.00, 0.00, 0.00, 0.00, -0.20, 1.01
142, 0.00, 13997.60, 0.00, 0.00, 0.00, 0.00, 0.00, 0.00, 0.00, -0.20, 1.01
143, 0.00, 14043.44, 0.00, 0.00, 0.00, 0.00, 0.00, 0.00, 0.00, -0.20, 1.01
144, 0.00, 14081.55, 0.00, 0.00, 0.00, 0.00, 0.00, 0.00, 0.01, -0.19, 1.01
145, 0.00, 14121.21, 0.00, 0.00, 0.00, 0.00, 0.00, 0.00, 0.01, -0.19, 1.01
146, 0.00, 14128.78, 0.00, 0.00, 0.00, 0.00, 0.00, 0.00, 0.01, -0.19, 1.01
147, 0.00, 14159.56, 0.00, 0.00, 0.00, 0.00, 0.00, 0.00, 0.01, -0.19, 1.01
148, 0.00, 14208.09, 0.00, 0.00, 0.00, 0.00, 0.00, 0.00, 0.01, -0.19, 1.01
149, 0.00, 14218.70, 0.00, 0.00, 0.00, 0.00, 0.00, 0.00, 0.01, -0.19, 1.02
150, 0.00, 14221.61, 0.00, 0.00, 0.00, 0.00, 0.00, 0.00, 0.01, -0.19, 1.02
151, 0.00, 14271.81, 0.00, 0.00, 0.00, 0.00, 0.00, 0.00, 0.01, -0.19, 1.02
152, 0.00, 14307.78, 0.00, 0.00, 0.00, 0.00, 0.00, 0.00, 0.01, -0.19, 1.02
153, 0.00, 14321.57, 0.00, 0.00, 0.00, 0.00, 0.00, 0.00, 0.01, -0.19, 1.02
154, 0.00, 14331.47, 0.00, 0.00, 0.00, 0.00, 0.00, 0.00, 0.01, -0.19, 1.02
155, 0.00, 14355.38, 0.00, 0.00, 0.00, 0.00, 0.00, 0.00, 0.01, -0.19, 1.02
156, 0.00, 14406.62, 0.00, 0.00, 0.00, 0.00, 0.00, 0.00, 0.01, -0.19, 1.02
157, 0.00, 14439.25, 0.00, 0.00, 0.00, 0.00, 0.00, 0.00, 0.01, -0.19, 1.02
158, 0.00, 14442.62, 0.00, 0.00, 0.00, 0.00, 0.00, 0.00, 0.01, -0.19, 1.02
159, 0.00, 14468.78, 0.00, 0.00, 0.00, 0.00, 0.00, 0.00, 0.01, -0.19, 1.02
160, 0.00, 14520.23, 0.00, 0.00, 0.00, 0.00, 0.00, 0.00, 0.00, -0.19, 1.02
161, 0.00, 14546.67, 0.00, 0.00, 0.00, 0.00, 0.00, 0.00, 0.00, -0.19, 1.02
162, 0.00, 14553.20, 0.00, 0.00, 0.00, 0.00, 0.00, 0.00, 0.00, -0.19, 1.02
163, 0.00, 14574.19, 0.00, 0.00, 0.00, 0.00, 0.00, 0.00, 0.00, -0.19, 1.02
164, 0.00, 14605.88, 0.00, 0.00, 0.00, 0.00, 0.00, 0.00, 0.00, -0.19, 1.02
165, 0.00, 14629.01, 0.00, 0.00, 0.00, 0.00, 0.00, 0.00, 0.00, -0.20, 1.01
166, 0.00, 14652.89, 0.00, 0.00, 0.00, 0.00, 0.00, 0.00, 0.00, -0.20, 1.01
167, 0.00, 14677.09, 0.00, 0.00, 0.00, 0.00, 0.00, 0.00, 0.00, -0.20, 1.01
168, 0.00, 14710.89, 0.00, 0.00, 0.00, 0.00, 0.00, 0.00, 0.00, -0.20, 1.01
169, 0.00, 14744.24, 0.00, 0.00, 0.00, 0.00, 0.00, 0.00, 0.00, -0.20, 1.01
170, 0.00, 14734.96, 0.00, 0.00, 0.00, 0.00, 0.00, 0.00, 0.00, -0.19, 1.02
171, 0.00, 14766.41, 0.00, 0.00, 0.00, 0.00, 0.00, 0.00, 0.00, -0.19, 1.02
172, 0.00, 14819.00, 0.00, 0.00, 0.00, 0.00, 0.00, 0.00, 0.00, -0.19, 1.02
173, 0.00, 14845.04, 0.00, 0.00, 0.00, 0.00, 0.00, 0.00, 0.00, -0.19, 1.02
174, 0.00, 14864.92, 0.00, 0.00, 0.00, 0.00, 0.00, 0.00, 0.00, -0.19, 1.02
175, 0.00, 14879.20, 0.00, 0.00, 0.00, 0.00, 0.00, 0.00, 0.00, -0.20, 1.02
176, 0.00, 14905.60, 0.00, 0.00, 0.00, 0.00, 0.00, 0.00, 0.00, -0.20, 1.02
177, 0.00, 14934.63, 0.00, 0.00, 0.00, 0.00, 0.00, 0.00, 0.00, -0.20, 1.02
178, 0.00, 14961.18, 0.00, 0.00, 0.00, 0.00, 0.00, 0.00, 0.00, -0.20, 1.02
179, 0.00, 14967.60, 0.00, 0.00, 0.00, 0.00, 0.00, 0.00, 0.00, -0.20, 1.02
180, 0.00, 14998.42, 0.00, 0.00, 0.00, 0.00, 0.00, 0.00, 0.01, -0.20, 1.02
181, 0.00, 15039.77, 0.00, 0.00, 0.00, 0.00, 0.00, 0.00, 0.01, -0.20, 1.02
182, 0.00, 15060.69, 0.00, 0.00, 0.00, 0.00, 0.00, 0.00, 0.01, -0.20, 1.02
183, 0.00, 15061.14, 0.00, 0.00, 0.00, 0.00, 0.00, 0.00, 0.01, -0.20, 1.02
184, 0.00, 15076.68, 0.00, 0.00, 0.00, 0.00, 0.00, 0.00, 0.01, -0.20, 1.02
185, 0.00, 15123.01, 0.00, 0.00, 0.00, 0.00, 0.00, 0.00, 0.01, -0.20, 1.01
186, 0.00, 15144.69, 0.00, 0.00, 0.00, 0.00, 0.00, 0.00, 0.01, -0.20, 1.01
187, 0.00, 15148.25, 0.00, 0.00, 0.00, 0.00, 0.00, 0.00, 0.01, -0.20, 1.01
188, 0.00, 15164.61, 0.00, 0.00, 0.00, 0.00, 0.00, 0.00, 0.01, -0.20, 1.01
189, 0.00, 15208.86, 0.00, 0.00, 0.00, 0.00, 0.00, 0.00, 0.01, -0.20, 1.01
190, 0.00, 15230.17, 0.00, 0.00, 0.00, 0.00, 0.00, 0.00, 0.01, -0.19, 1.02
191, 0.00, 15234.66, 0.00, 0.00, 0.00, 0.00, 0.00, 0.00, 0.01, -0.19, 1.02
192, 0.00, 15238.21, 0.00, 0.00, 0.00, 0.00, 0.00, 0.00, 0.01, -0.19, 1.02
193, 0.00, 15273.97, 0.00, 0.00, 0.00, 0.00, 0.00, 0.00, 0.01, -0.19, 1.02
194, 0.00, 15311.28, 0.00, 0.00, 0.00, 0.00, 0.00, 0.00, 0.01, -0.19, 1.02
195, 0.00, 15314.77, 0.00, 0.00, 0.00, 0.00, 0.00, 0.00, 0.01, -0.19, 1.02
196, 0.00, 15318.63, 0.00, 0.00, 0.00, 0.00, 0.00, 0.00, 0.01, -0.19, 1.02
197, 0.00, 15353.28, 0.00, 0.00, 0.00, 0.00, 0.00, 0.00, 0.01, -0.19, 1.02
198, 0.00, 15377.62, 0.00, 0.00, 0.00, 0.00, 0.00, 0.00, 0.01, -0.19, 1.02
199, 0.00, 15396.17, 0.00, 0.00, 0.00, 0.00, 0.00, 0.00, 0.01, -0.19, 1.02
200, 0.00, 15408.11, 0.00, 0.00, 0.00, 0.00, 0.00, 0.00, 0.00, -0.19, 1.02
201, 0.00, 15427.11, 0.00, 0.00, 0.00, 0.00, 0.00, 0.00, 0.00, -0.19, 1.02
202, 0.00, 15453.21, 0.00, 0.00, 0.00, 0.00, 0.00, 0.00, 0.00, -0.19, 1.02
203, 0.00, 15471.18, 0.00, 0.00, 0.00, 0.00, 0.00, 0.00, 0.00, -0.19, 1.02
204, 0.00, 15469.42, 0.00, 0.00, 0.00, 0.00, 0.00, 0.00, 0.00, -0.19, 1.02
205, 0.00, 15485.91, 0.00, 0.00, 0.00, 0.00, 0.00, 0.00, 0.01, -0.19, 1.01
206, 0.00, 15521.03, 0.00, 0.00, 0.00, 0.00, 0.00, 0.00, 0.01, -0.19, 1.01
207, 0.00, 15535.98, 0.00, 0.00, 0.00, 0.00, 0.00, 0.00, 0.01, -0.19, 1.01
208, 0.00, 15543.31, 0.00, 0.00, 0.00, 0.00, 0.00, 0.00, 0.01, -0.19, 1.01
209, 0.00, 15556.70, 0.00, 0.00, 0.00, 0.00, 0.00, 0.00, 0.01, -0.19, 1.01
210, 0.00, 15586.68, 0.00, 0.00, 0.00, 0.00, 0.00, 0.00, 0.01, -0.19, 1.01
211, 0.00, 15610.52, 0.00, 0.00, 0.00, 0.00, 0.00, 0.00, 0.01, -0.19, 1.01
212, 0.00, 15623.04, 0.00, 0.00, 0.00, 0.00, 0.00, 0.00, 0.01, -0.19, 1.01
213, 0.00, 15628.72, 0.00, 0.00, 0.00, 0.00, 0.00, 0.00, 0.01, -0.19, 1.01
214, 0.00, 15657.02, 0.00, 0.00, 0.00, 0.00, 0.00, 0.00, 0.01, -0.19, 1.01
215, 0.00, 15680.55, 0.00, 0.00, 0.00, 0.00, 0.00, 0.00, 0.01, -0.19, 1.01
216, 0.00, 15687.08, 0.00, 0.00, 0.00, 0.00, 0.00, 0.00, 0.01, -0.19, 1.01
217, 0.00, 15688.00, 0.00, 0.00, 0.00, 0.00, 0.00, 0.00, 0.01, -0.19, 1.01
218, 0.00, 15719.06, 0.00, 0.00, 0.00, 0.00, 0.00, 0.00, 0.01, -0.19, 1.01
219, 0.00, 15740.08, 0.00, 0.00, 0.00, 0.00, 0.00, 0.00, 0.01, -0.19, 1.01
220, 0.00, 15743.70, 0.00, 0.00, 0.00, 0.00, 0.00, 0.00, 0.01, -0.19, 1.01
221, 0.00, 15744.64, 0.00, 0.00, 0.00, 0.00, 0.00, 0.00, 0.01, -0.19, 1.01
222, 0.00, 15770.63, 0.00, 0.00, 0.00, 0.00, 0.00, 0.00, 0.01, -0.19, 1.01
223, 0.00, 15794.84, 0.00, 0.00, 0.00, 0.00, 0.00, 0.00, 0.01, -0.19, 1.01
224, 0.00, 15797.45, 0.00, 0.00, 0.00, 0.00, 0.00, 0.00, 0.01, -0.19, 1.01
225, 0.00, 15800.76, 0.00, 0.00, 0.00, 0.00, 0.00, 0.00, 0.01, -0.19, 1.01
226, 0.00, 15820.21, 0.00, 0.00, 0.00, 0.00, 0.00, 0.00, 0.01, -0.19, 1.01
227, 0.00, 15849.62, 0.00, 0.00, 0.00, 0.00, 0.00, 0.00, 0.01, -0.19, 1.01
228, 0.00, 15872.02, 0.00, 0.00, 0.00, 0.00, 0.00, 0.00, 0.01, -0.19, 1.01
229, 0.00, 15867.37, 0.00, 0.00, 0.00, 0.00, 0.00, 0.00, 0.01, -0.19, 1.01
230, 0.00, 15878.90, 0.00, 0.00, 0.00, 0.00, 0.00, 0.00, 0.00, -0.19, 1.01
231, 0.00, 15910.33, 0.00, 0.00, 0.00, 0.00, 0.00, 0.00, 0.00, -0.19, 1.01
232, 0.00, 15919.78, 0.00, 0.00, 0.00, 0.00, 0.00, 0.00, 0.00, -0.19, 1.01
233, 0.00, 15919.67, 0.00, 0.00, 0.00, 0.00, 0.00, 0.00, 0.00, -0.19, 1.01
234, 0.00, 15927.52, 0.00, 0.00, 0.00, 0.00, 0.00, 0.00, 0.00, -0.19, 1.01
235, 0.00, 15944.50, 0.00, 0.00, 0.00, 0.00, 0.00, 0.00, 0.00, -0.19, 1.01
236, 0.00, 15969.87, 0.00, 0.00, 0.00, 0.00, 0.00, 0.00, 0.00, -0.19, 1.01
237, 0.00, 15971.24, 0.00, 0.00, 0.00, 0.00, 0.00, 0.00, 0.00, -0.19, 1.01
238, 0.00, 15981.63, 0.00, 0.00, 0.00, 0.00, 0.00, 0.00, 0.00, -0.19, 1.01
239, 0.00, 16002.75, 0.00, 0.00, 0.00, 0.00, 0.00, 0.00, 0.00, -0.19, 1.01
240, 0.00, 16026.29, 0.00, 0.00, 0.00, 0.00, 0.00, 0.00, 0.00, -0.19, 1.01
241, 0.00, 16028.99, 0.00, 0.00, 0.00, 0.00, 0.00, 0.00, 0.00, -0.19, 1.01
242, 0.00, 16028.03, 0.00, 0.00, 0.00, 0.00, 0.00, 0.00, 0.00, -0.19, 1.01
243, 0.00, 16053.49, 0.00, 0.00, 0.00, 0.00, 0.00, 0.00, 0.00, -0.19, 1.01
244, 0.00, 16084.47, 0.00, 0.00, 0.00, 0.00, 0.00, 0.00, 0.00, -0.19, 1.01
245, 0.00, 16105.15, 0.00, 0.00, 0.00, 0.00, 0.00, 0.00, 0.01, -0.19, 1.01
246, 0.00, 16091.67, 0.00, 0.00, 0.00, 0.00, 0.00, 0.00, 0.01, -0.19, 1.01
247, 0.00, 16107.47, 0.00, 0.00, 0.00, 0.00, 0.00, 0.00, 0.01, -0.19, 1.01
248, 0.00, 16139.77, 0.00, 0.00, 0.00, 0.00, 0.00, 0.00, 0.01, -0.19, 1.01
249, 0.00, 16152.29, 0.00, 0.00, 0.00, 0.00, 0.00, 0.00, 0.01, -0.19, 1.01
250, 0.00, 16151.50, 0.00, 0.00, 0.00, 0.00, 0.00, 0.00, -0.00, -0.19, 1.01
251, 0.00, 16162.08, 0.00, 0.00, 0.00, 0.00, 0.00, 0.00, -0.00, -0.19, 1.01
252, 0.00, 16194.31, 0.00, 0.00, 0.00, 0.00, 0.00, 0.00, -0.00, -0.19, 1.01
253, 0.00, 16213.11, 0.00, 0.00, 0.00, 0.00, 0.00, 0.00, -0.00, -0.19, 1.01
254, 0.00, 16204.77, 0.00, 0.00, 0.00, 0.00, 0.00, 0.00, -0.00, -0.19, 1.01
255, 0.00, 16211.18, 0.00, 0.00, 0.00, 0.00, 0.00, 0.00, 0.00, -0.19, 1.01
0, 0.00, 16241.76, 0.00, 0.00, 0.00, 0.00, 0.00, 0.00, 0.00, -0.19, 1.01
1, 0.00, 16260.29, 0.00, 0.00, 0.00, 0.00, 0.00, 0.00, 0.00, -0.19, 1.01
2, 0.00, 16259.11, 0.00, 0.00, 0.00, 0.00, 0.00, 0.00, 0.00, -0.19, 1.01
3, 0.00, 16263.24, 0.00, 0.00, 0.00, 0.00, 0.00, 0.00, 0.00, -0.19, 1.01
4, 0.00, 16297.46, 0.00, 0.00, 0.00, 0.00, 0.00, 0.00, 0.01, -0.19, 1.01
5, 0.00, 16323.14, 0.00, 0.00, 0.00, 0.00, 0.00, 0.00, 0.01, -0.19, 1.01
6, 0.00, 16324.64, 0.00, 0.00, 0.00, 0.00, 0.00, 0.00, 0.01, -0.19, 1.01
7, 0.00, 16319.88, 0.00, 0.00, 0.00, 0.00, 0.00, 0.00, 0.01, -0.19, 1.01
8, 0.00, 16349.61, 0.00, 0.00, 0.00, 0.00, 0.00, 0.00, 0.01, -0.19, 1.01
9, 0.00, 16377.26, 0.00, 0.00, 0.00, 0.00, 0.00, 0.00, 0.00, -0.19, 1.02
10, 0.00, 16388.10, 0.00, 0.00, 0.00, 0.00, 0.00, 0.00, 0.00, -0.19, 1.02
11, 0.00, 16382.80, 0.00, 0.00, 0.00, 0.00, 0.00, 0.00, 0.00, -0.19, 1.02
12, 0.00, 16407.12, 0.00, 0.00, 0.00, 0.00, 0.00, 0.00, 0.00, -0.19, 1.02
13, 0.00, 16438.75, 0.00, 0.00, 0.00, 0.00, 0.00, 0.00, 0.00, -0.19, 1.02
14, 0.00, 16452.13, 0.00, 0.00, 0.00, 0.00, 0.00, 0.00, 0.01, -0.19, 1.01
15, 0.00, 16438.50, 0.00, 0.00, 0.00, 0.00, 0.00, 0.00, 0.01, -0.19, 1.01
16, 0.00, 16445.27, 0.00, 0.00, 0.00, 0.00, 0.00, 0.00, 0.01, -0.19, 1.01
17, 0.00, 16470.73, 0.00, 0.00, 0.00, 0.00, 0.00, 0.00, 0.01, -0.19, 1.01
18, 0.00, 16483.83, 0.00, 0.00, 0.00, 0.00, 0.00, 0.00, 0.01, -0.19, 1.01
19, 0.00, 16475.29, 0.00, 0.00, 0.00, 0.00, 0.00, 0.00, 0.01, -0.20, 1.01
20, 0.00, 16477.88, 0.00, 0.00, 0.00, 0.00, 0.00, 0.00, 0.01, -0.20, 1.01
21, 0.00, 16490.09, 0.00, 0.00, 0.00, 0.00, 0.00, 0.00, 0.01, -0.20, 1.01
22, 0.00, 16504.44, 0.00, 0.00, 0.00, 0.00, 0.00, 0.00, 0.01, -0.20, 1.01
23, 0.00, 16499.90, 0.00, 0.00, 0.00, 0.00, 0.00, 0.00, 0.01, -0.20, 1.01
24, 0.00, 16517.20, 0.00, 0.00, 0.00, 0.00, 0.00, 0.00, 0.01, -0.19, 1.01
25, 0.00, 16539.42, 0.00, 0.00, 0.00, 0.00, 0.00, 0.00, 0.01, -0.19, 1.01
26, 0.00, 16561.44, 0.00, 0.00, 0.00, 0.00, 0.00, 0.00, 0.01, -0.19, 1.01
27, 0.00, 16550.82, 0.00, 0.00, 0.00, 0.00, 0.00, 0.00, 0.01, -0.19, 1.01
28, 0.00, 16542.37, 0.00, 0.00, 0.00, 0.00, 0.00, 0.00, 0.01, -0.19, 1.01
29, 0.00, 16571.61, 0.00, 0.00, 0.00, 0.00, 0.00, 0.00, 0.01, -0.19, 1.01
30, 0.00, 16592.48, 0.00, 0.00, 0.00, 0.00, 0.00, 0.00, 0.01, -0.19, 1.01
31, 0.00, 16583.96, 0.00, 0.00, 0.00, 0.00, 0.00, 0.00, 0.01, -0.19, 1.01
32, 0.00, 16586.80, 0.00, 0.00, 0.00, 0.00, 0.00, 0.00, 0.01, -0.19, 1.01
33, 0.00, 16608.98, 0.00, 0.00, 0.00, 0.00, 0.00, 0.00, 0.01, -0.19, 1.01
34, 0.00, 16627.37, 0.00, 0.00, 0.00, 0.00, 0.00, 0.00, 0.00, -0.19, 1.01
35, 0.00, 16638.06, 0.00, 0.00, 0.00, 0.00, 0.00, 0.00, 0.00, -0.19, 1.01
36, 0.00, 16618.41, 0.00, 0.00, 0.00, 0.00, 0.00, 0.00, 0.00, -0.19, 1.01
37, 0.00, 16634.82, 0.00, 0.00, 0.00, 0.00, 0.00, 0.00, 0.00, -0.19, 1.01
38, 0.00, 16658.40, 0.00, 0.00, 0.00, 0.00, 0.00, 0.00, 0.00, -0.19, 1.01
39, 0.00, 16674.49, 0.00, 0.00, 0.00, 0.00, 0.00, 0.00, 0.01, -0.19, 1.02
40, 0.00, 16671.45, 0.00, 0.00, 0.00, 0.00, 0.00, 0.00, 0.01, -0.19, 1.02
41, 0.00, 16680.53, 0.00, 0.00, 0.00, 0.00, 0.00, 0.00, 0.01, -0.19, 1.02
42, 0.00, 16678.20, 0.00, 0.00, 0.00, 0.00, 0.00, 0.00, 0.01, -0.19, 1.02
43, 0.00, 16695.17, 0.00, 0.00, 0.00, 0.00, 0.00, 0.00, 0.01, -0.19, 1.02
44, 0.00, 16701.80, 0.00, 0.00, 0.00, 0.00, 0.00, 0.00, 0.01, -0.19, 1.01
45, 0.00, 16706.07, 0.00, 0.00, 0.00, 0.00, 0.00, 0.00, 0.01, -0.19, 1.01
46, 0.00, 16730.15, 0.00, 0.00, 0.00, 0.00, 0.00, 0.00, 0.01, -0.19, 1.01
47, 0.00, 16732.67, 0.00, 0.00, 0.00, 0.00, 0.00, 0.00, 0.01, -0.19, 1.01
48, 0.00, 16730.10, 0.00, 0.00, 0.00, 0.00, 0.00, 0.00, 0.01, -0.19, 1.01
49, 0.00, 16738.62, 0.00, 0.00, 0.00, 0.00, 0.00, 0.00, 0.01, -0.19, 1.01
50, 0.00, 16751.98, 0.00, 0.00, 0.00, 0.00, 0.00, 0.00, 0.01, -0.19, 1.01
51, 0.00, 16770.00, 0.00, 0.00, 0.00, 0.00, 0.00, 0.00, 0.01, -0.19, 1.01
52, 0.00, 16759.14, 0.00, 0.00, 0.00, 0.00, 0.00, 0.00, 0.01, -0.19, 1.01
53, 0.00, 16759.31, 0.00, 0.00, 0.00, 0.00, 0.00, 0.00, 0.01, -0.19, 1.01
54, 0.00, 16780.17, 0.00, 0.00, 0.00, 0.00, 0.00, 0.00, 0.01, -0.19, 1.01
55, 0.00, 16780.86, 0.00, 0.00, 0.00, 0.00, 0.00, 0.00, 0.01, -0.19, 1.01
56, 0.00, 16792.89, 0.00, 0.00, 0.00, 0.00, 0.00, 0.00, 0.01, -0.19, 1.01
57, 0.00, 16776.59, 0.00, 0.00, 0.00, 0.00, 0.00, 0.00, 0.01, -0.19, 1.01
58, 0.00, 16775.16, 0.00, 0.00, 0.00, 0.00, 0.00, 0.00, 0.01, -0.19, 1.01
59, 0.00, 16784.10, 0.00, 0.00, 0.00, 0.00, 0.00, 0.00, 0.00, -0.20, 1.01
60, 0.00, 16806.14, 0.00, 0.00, 0.00, 0.00, 0.00, 0.00, 0.00, -0.20, 1.01
61, 0.00, 16805.70, 0.00, 0.00, 0.00, 0.00, 0.00, 0.00, 0.00, -0.20, 1.01
62, 0.00, 16795.66, 0.00, 0.00, 0.00, 0.00, 0.00, 0.00, 0.00, -0.20, 1.01
63, 0.00, 16824.58, 0.00, 0.00, 0.00, 0.00, 0.00, 0.00, 0.00, -0.20, 1.01
64, 0.00, 16802.68, 0.00, 0.00, 0.00, 0.00, 0.00, 0.00, 0.01, -0.19, 1.02
65, 0.00, 16782.76, 0.00, 0.00, 0.00, 0.00, 0.00, 0.00, 0.01, -0.19, 1.02
66, 0.00, 16802.23, 0.00, 0.00, 0.00, 0.00, 0.00, 0.00, 0.01, -0.19, 1.02
67, 0.00, 16830.19, 0.00, 0.00, 0.00, 0.00, 0.00, 0.00, 0.01, -0.19, 1.02
68, 0.00, 16835.13, 0.00, 0.00, 0.00, 0.00, 0.00, 0.00, 0.01, -0.19, 1.02
69, 0.00, 16830.15, 0.00, 0.00, 0.00, 0.00, 0.00, 0.00, 0.01, -0.20, 1.01
70, 0.00, 16839.67, 0.00, 0.00, 0.00, 0.00, 0.00, 0.00, 0.01, -0.20, 1.01
71, 0.00, 16854.85, 0.00, 0.00, 0.00, 0.00, 0.00, 0.00, 0.01, -0.20, 1.01
