%OpenBCI Raw EEG Data
%
%Sample Rate = 250.0 Hz
%First Column = SampleIndex
%Other Columns = EEG data in microvolts followed by Accel Data (in G) interleaved with Aux Data
0, -187500.02, 48843.59, 0.00, 0.00, 0.00, 0.00, 0.00, 0.00, 0.00, 0.01, 0.51
1, -187500.02, 48813.57, 0.00, 0.00, 0.00, 0.00, 0.00, 0.00, 0.00, 0.01, 0.51
2, -187500.02, 48803.94, 0.00, 0.00, 0.00, 0.00, 0.00, 0.00, 0.01, 0.02, 1.00
3, -187500.02, 48825.89, 0.00, 0.00, 0.00, 0.00, 0.00, 0.00, 0.01, 0.02, 1.00
4, -187500.02, 48834.52, 0.00, 0.00, 0.00, 0.00, 0.00, 0.00, 0.01, 0.02, 1.00
5, -187500.02, 48813.62, 0.00, 0.00, 0.00, 0.00, 0.00, 0.00, 0.01, 0.02, 1.00
6, -187500.02, 48800.16, 0.00, 0.00, 0.00, 0.00, 0.00, 0.00, 0.01, 0.02, 1.00
7, -187500.02, 48826.33, 0.00, 0.00, 0.00, 0.00, 0.00, 0.00, 0.01, 0.01, 1.01
8, -187500.02, 48840.30, 0.00, 0.00, 0.00, 0.00, 0.00, 0.00, 0.01, 0.01, 1.01
9, -187500.02, 48815.23, 0.00, 0.00, 0.00, 0.00, 0.00, 0.00, 0.01, 0.01, 1.01
10, -187500.02, 48796.45, 0.00, 0.00, 0.00, 0.00, 0.00, 0.00, 0.01, 0.01, 1.01
11, -187500.02, 48815.43, 0.00, 0.00, 0.00, 0.00, 0.00, 0.00, 0.01, 0.01, 1.01
12, -187500.02, 48838.92, 0.00, 0.00, 0.00, 0.00, 0.00, 0.00, 0.01, 0.01, 1.01
13, -187500.02, 48825.48, 0.00, 0.00, 0.00, 0.00, 0.00, 0.00, 0.01, 0.01, 1.01
14, -187500.02, 48799.42, 0.00, 0.00, 0.00, 0.00, 0.00, 0.00, 0.01, 0.01, 1.01
15, -187500.02, 48811.94, 0.00, 0.00, 0.00, 0.00, 0.00, 0.00, 0.01, 0.01, 1.01
16, -187500.02, 48841.31, 0.00, 0.00, 0.00, 0.00, 0.00, 0.00, 0.01, 0.01, 1.01
17, -187500.02, 48826.36, 0.00, 0.00, 0.00, 0.00, 0.00, 0.00, 0.01, 0.01, 1.02
18, -187500.02, 48804.12, 0.00, 0.00, 0.00, 0.00, 0.00, 0.00, 0.01, 0.01, 1.02
19, -187500.02, 48811.36, 0.00, 0.00, 0.00, 0.00, 0.00, 0.00, 0.01, 0.01, 1.02
20, -187500.02, 48839.21, 0.00, 0.00, 0.00, 0.00, 0.00, 0.00, 0.01, 0.01, 1.02
21, -187500.02, 48834.92, 0.00, 0.00, 0.00, 0.00, 0.00, 0.00, 0.01, 0.01, 1.02
22, -187500.02, 48810.55, 0.00, 0.00, 0.00, 0.00, 0.00, 0.00, 0.01, 0.01, 1.02
23, -187500.02, 48810.73, 0.00, 0.00, 0.00, 0.00, 0.00, 0.00, 0.01, 0.01, 1.02
24, -187500.02, 48837.55, 0.00, 0.00, 0.00, 0.00, 0.00, 0.00, 0.01, 0.01, 1.02
25, -187500.02, 48842.29, 0.00, 0.00, 0.00, 0.00, 0.00, 0.00, 0.01, 0.01, 1.02
26, -187500.02, 48814.96, 0.00, 0.00, 0.00, 0.00, 0.00, 0.00, 0.01, 0.01, 1.02
27, -187500.02, 48805.57, 0.00, 0.00, 0.00, 0.00, 0.00, 0.00, 0.01, 0.01, 1.02
28, -187500.02, 48829.95, 0.00, 0.00, 0.00, 0.00, 0.00, 0.00, 0.01, 0.01, 1.02
29, -187500.02, 48838.11, 0.00, 0.00, 0.00, 0.00, 0.00, 0.00, 0.01, 0.01, 1.02
30, -187500.02, 48807.83, 0.00, 0.00, 0.00, 0.00, 0.00, 0.00, 0.01, 0.01, 1.02
31, -187500.02, 48789.95, 0.00, 0.00, 0.00, 0.00, 0.00, 0.00, 0.01, 0.01, 1.02
32, -187500.02, 48822.02, 0.00, 0.00, 0.00, 0.00, 0.00, 0.00, 0.01, 0.01, 1.01
33, -187500.02, 48838.96, 0.00, 0.00, 0.00, 0.00, 0.00, 0.00, 0.01, 0.01, 1.01
34, -187500.02, 48816.59, 0.00, 0.00, 0.00, 0.00, 0.00, 0.00, 0.01, 0.01, 1.01
35, -187500.02, 48797.72, 0.00, 0.00, 0.00, 0.00, 0.00, 0.00, 0.01, 0.01, 1.01
36, -187500.02, 48810.62, 0.00, 0.00, 0.00, 0.00, 0.00, 0.00, 0.01, 0.01, 1.01
37, -187500.02, 48835.90, 0.00, 0.00, 0.00, 0.00, 0.00, 0.00, 0.01, 0.01, 1.01
38, -187500.02, 48823.16, 0.00, 0.00, 0.00, 0.00, 0.00, 0.00, 0.01, 0.01, 1.01
39, -187500.02, 48801.43, 0.00, 0.00, 0.00, 0.00, 0.00, 0.00, 0.01, 0.01, 1.01
40, -187500.02, 48807.43, 0.00, 0.00, 0.00, 0.00, 0.00, 0.00, 0.01, 0.01, 1.01
41, -187500.02, 48828.37, 0.00, 0.00, 0.00, 0.00, 0.00, 0.00, 0.01, 0.01, 1.01
42, -187500.02, 48812.88, 0.00, 0.00, 0.00, 0.00, 0.00, 0.00, 0.01, 0.01, 1.02
43, -187500.02, 48795.96, 0.00, 0.00, 0.00, 0.00, 0.00, 0.00, 0.01, 0.01, 1.02
44, -187500.02, 48797.97, 0.00, 0.00, 0.00, 0.00, 0.00, 0.00, 0.01, 0.01, 1.02
45, -187500.02, 48826.13, 0.00, 0.00, 0.00, 0.00, 0.00, 0.00, 0.01, 0.01, 1.02
46, -187500.02, 48829.53, 0.00, 0.00, 0.00, 0.00, 0.00, 0.00, 0.01, 0.01, 1.02
47, -187500.02, 48803.96, 0.00, 0.00, 0.00, 0.00, 0.00, 0.00, 0.02, 0.01, 1.02
48, -187500.02, 48799.73, 0.00, 0.00, 0.00, 0.00, 0.00, 0.00, 0.02, 0.01, 1.02
49, -187500.02, 48824.68, 0.00, 0.00, 0.00, 0.00, 0.00, 0.00, 0.02, 0.01, 1.02
50, -187500.02, 48829.15, 0.00, 0.00, 0.00, 0.00, 0.00, 0.00, 0.02, 0.01, 1.02
51, -187500.02, 48804.65, 0.00, 0.00, 0.00, 0.00, 0.00, 0.00, 0.02, 0.01, 1.02
52, -187500.02, 48797.45, 0.00, 0.00, 0.00, 0.00, 0.00, 0.00, 0.01, 0.01, 1.02
53, -187500.02, 48821.19, 0.00, 0.00, 0.00, 0.00, 0.00, 0.00, 0.01, 0.01, 1.02
54, -187500.02, 48830.20, 0.00, 0.00, 0.00, 0.00, 0.00, 0.00, 0.01, 0.01, 1.02
55, -187500.02, 48808.18, 0.00, 0.00, 0.00, 0.00, 0.00, 0.00, 0.01, 0.01, 1.02
56, -187500.02, 48793.72, 0.00, 0.00, 0.00, 0.00, 0.00, 0.00, 0.01, 0.01, 1.02
57, -187500.02, 48808.65, 0.00, 0.00, 0.00, 0.00, 0.00, 0.00, 0.02, 0.01, 1.02
58, -187500.02, 48828.25, 0.00, 0.00, 0.00, 0.00, 0.00, 0.00, 0.02, 0.01, 1.02
59, -187500.02, 48814.44, 0.00, 0.00, 0.00, 0.00, 0.00, 0.00, 0.02, 0.01, 1.02
60, -187500.02, 48797.19, 0.00, 0.00, 0.00, 0.00, 0.00, 0.00, 0.02, 0.01, 1.02
61, -187500.02, 48812.61, 0.00, 0.00, 0.00, 0.00, 0.00, 0.00, 0.02, 0.01, 1.02
62, -187500.02, 48836.32, 0.00, 0.00, 0.00, 0.00, 0.00, 0.00, 0.01, 0.02, 1.02
63, -187500.02, 48823.94, 0.00, 0.00, 0.00, 0.00, 0.00, 0.00, 0.01, 0.02, 1.02
64, -187500.02, 48803.04, 0.00, 0.00, 0.00, 0.00, 0.00, 0.00, 0.01, 0.02, 1.02
65, -187500.02, 48809.55, 0.00, 0.00, 0.00, 0.00, 0.00, 0.00, 0.01, 0.02, 1.02
66, -187500.02, 48841.98, 0.00, 0.00, 0.00, 0.00, 0.00, 0.00, 0.01, 0.02, 1.02
67, -187500.02, 48838.49, 0.00, 0.00, 0.00, 0.00, 0.00, 0.00, 0.01, 0.01, 1.02
68, -187500.02, 48808.34, 0.00, 0.00, 0.00, 0.00, 0.00, 0.00, 0.01, 0.01, 1.02
69, -187500.02, 48810.08, 0.00, 0.00, 0.00, 0.00, 0.00, 0.00, 0.01, 0.01, 1.02
70, -187500.02, 48831.83, 0.00, 0.00, 0.00, 0.00, 0.00, 0.00, 0.01, 0.01, 1.02
71, -187500.02, 48824.10, 0.00, 0.00, 0.00, 0.00, 0.00, 0.00, 0.01, 0.01, 1.02
72, -187500.02, 48803.20, 0.00, 0.00, 0.00, 0.00, 0.00, 0.00, 0.00, 0.01, 1.03
73, -187500.02, 48799.36, 0.00, 0.00, 0.00, 0.00, 0.00, 0.00, 0.00, 0.01, 1.03
74, -187500.02, 48824.70, 0.00, 0.00, 0.00, 0.00, 0.00, 0.00, 0.00, 0.01, 1.03
75, -187500.02, 48829.93, 0.00, 0.00, 0.00, 0.00, 0.00, 0.00, 0.00, 0.01, 1.03
76, -187500.02, 48806.73, 0.00, 0.00, 0.00, 0.00, 0.00, 0.00, 0.00, 0.01, 1.03
77, -187500.02, 48793.72, 0.00, 0.00, 0.00, 0.00, 0.00, 0.00, 0.01, 0.01, 1.02
78, -187500.02, 48814.98, 0.00, 0.00, 0.00, 0.00, 0.00, 0.00, 0.01, 0.01, 1.02
79, -187500.02, 48830.02, 0.00, 0.00, 0.00, 0.00, 0.00, 0.00, 0.01, 0.01, 1.02
80, -187500.02, 48807.91, 0.00, 0.00, 0.00, 0.00, 0.00, 0.00, 0.01, 0.01, 1.02
81, -187500.02, 48788.40, 0.00, 0.00, 0.00, 0.00, 0.00, 0.00, 0.01, 0.01, 1.02
82, -187500.02, 48816.81, 0.00, 0.00, 0.00, 0.00, 0.00, 0.00, 0.01, 0.01, 1.02
83, -187500.02, 48839.30, 0.00, 0.00, 0.00, 0.00, 0.00, 0.00, 0.01, 0.01, 1.02
84, -187500.02, 48819.61, 0.00, 0.00, 0.00, 0.00, 0.00, 0.00, 0.01, 0.01, 1.02
85, -187500.02, 48803.80, 0.00, 0.00, 0.00, 0.00, 0.00, 0.00, 0.01, 0.01, 1.02
86, -187500.02, 48819.36, 0.00, 0.00, 0.00, 0.00, 0.00, 0.00, 0.01, 0.01, 1.02
87, -187500.02, 48841.55, 0.00, 0.00, 0.00, 0.00, 0.00, 0.00, 0.01, 0.01, 1.02
88, -187500.02, 48831.25, 0.00, 0.00, 0.00, 0.00, 0.00, 0.00, 0.01, 0.01, 1.02
89, -187500.02, 48807.91, 0.00, 0.00, 0.00, 0.00, 0.00, 0.00, 0.01, 0.01, 1.02
90, -187500.02, 48820.43, 0.00, 0.00, 0.00, 0.00, 0.00, 0.00, 0.01, 0.01, 1.02
91, -187500.02, 48848.60, 0.00, 0.00, 0.00, 0.00, 0.00, 0.00, 0.01, 0.01, 1.02
92, -187500.02, 48840.41, 0.00, 0.00, 0.00, 0.00, 0.00, 0.00, 0.01, 0.01, 1.02
93, -187500.02, 48811.13, 0.00, 0.00, 0.00, 0.00, 0.00, 0.00, 0.01, 0.01, 1.02
94, -187500.02, 48809.64, 0.00, 0.00, 0.00, 0.00, 0.00, 0.00, 0.01, 0.01, 1.02
95, -187500.02, 48836.75, 0.00, 0.00, 0.00, 0.00, 0.00, 0.00, 0.01, 0.01, 1.02
96, -187500.02, 48836.46, 0.00, 0.00, 0.00, 0.00, 0.00, 0.00, 0.01, 0.01, 1.02
97, -187500.02, 48809.14, 0.00, 0.00, 0.00, 0.00, 0.00, 0.00, 0.01, 0.01, 1.02
98, -187500.02, 48808.45, 0.00, 0.00, 0.00, 0.00, 0.00, 0.00, 0.01, 0.01, 1.02
99, -187500.02, 48835.01, 0.00, 0.00, 0.00, 0.00, 0.00, 0.00, 0.01, 0.01, 1.02
100, -187500.02, 48849.60, 0.00, 0.00, 0.00, 0.00, 0.00, 0.00, 0.01, 0.01, 1.02
101, -187500.02, 48823.43, 0.00, 0.00, 0.00, 0.00, 0.00, 0.00, 0.01, 0.01, 1.02
102, -187500.02, 48810.26, 0.00, 0.00, 0.00, 0.00, 0.00, 0.00, 0.01, 0.02, 1.01
103, -187500.02, 48832.21, 0.00, 0.00, 0.00, 0.00, 0.00, 0.00, 0.01, 0.02, 1.01
104, -187500.02, 48845.69, 0.00, 0.00, 0.00, 0.00, 0.00, 0.00, 0.01, 0.02, 1.01
105, -187500.02, 48825.71, 0.00, 0.00, 0.00, 0.00, 0.00, 0.00, 0.01, 0.02, 1.01
106, -187500.02, 48806.51, 0.00, 0.00, 0.00, 0.00, 0.00, 0.00, 0.01, 0.02, 1.01
107, -187500.02, 48819.81, 0.00, 0.00, 0.00, 0.00, 0.00, 0.00, 0.01, 0.02, 1.01
108, -187500.02, 48844.17, 0.00, 0.00, 0.00, 0.00, 0.00, 0.00, 0.01, 0.02, 1.01
109, -187500.02, 48825.91, 0.00, 0.00, 0.00, 0.00, 0.00, 0.00, 0.01, 0.02, 1.01
110, -187500.02, 48800.94, 0.00, 0.00, 0.00, 0.00, 0.00, 0.00, 0.01, 0.02, 1.01
111, -187500.02, 48813.10, 0.00, 0.00, 0.00, 0.00, 0.00, 0.00, 0.01, 0.02, 1.01
112, -187500.02, 48842.89, 0.00, 0.00, 0.00, 0.00, 0.00, 0.00, 0.01, 0.02, 1.01
113, -187500.02, 48831.41, 0.00, 0.00, 0.00, 0.00, 0.00, 0.00, 0.01, 0.02, 1.01
114, -187500.02, 48803.42, 0.00, 0.00, 0.00, 0.00, 0.00, 0.00, 0.01, 0.02, 1.01
115, -187500.02, 48809.26, 0.00, 0.00, 0.00, 0.00, 0.00, 0.00, 0.01, 0.02, 1.01
116, -187500.02, 48840.80, 0.00, 0.00, 0.00, 0.00, 0.00, 0.00, 0.01, 0.02, 1.01
117, -187500.02, 48837.62, 0.00, 0.00, 0.00, 0.00, 0.00, 0.00, 0.02, 0.01, 1.01
118, -187500.02, 48803.78, 0.00, 0.00, 0.00, 0.00, 0.00, 0.00, 0.02, 0.01, 1.01
119, -187500.02, 48809.14, 0.00, 0.00, 0.00, 0.00, 0.00, 0.00, 0.02, 0.01, 1.01
120, -187500.02, 48839.03, 0.00, 0.00, 0.00, 0.00, 0.00, 0.00, 0.02, 0.01, 1.01
121, -187500.02, 48840.32, 0.00, 0.00, 0.00, 0.00, 0.00, 0.00, 0.02, 0.01, 1.01
122, -187500.02, 48805.66, 0.00, 0.00, 0.00, 0.00, 0.00, 0.00, 0.01, 0.01, 1.02
123, -187500.02, 48795.13, 0.00, 0.00, 0.00, 0.00, 0.00, 0.00, 0.01, 0.01, 1.02
124, -187500.02, 48828.79, 0.00, 0.00, 0.00, 0.00, 0.00, 0.00, 0.01, 0.01, 1.02
125, -187500.02, 48838.56, 0.00, 0.00, 0.00, 0.00, 0.00, 0.00, 0.01, 0.01, 1.02
126, -187500.02, 48811.76, 0.00, 0.00, 0.00, 0.00, 0.00, 0.00, 0.01, 0.01, 1.02
127, -187500.02, 48797.39, 0.00, 0.00, 0.00, 0.00, 0.00, 0.00, 0.01, 0.01, 1.03
128, -187500.02, 48823.36, 0.00, 0.00, 0.00, 0.00, 0.00, 0.00, 0.01, 0.01, 1.03
129, -187500.02, 48837.44, 0.00, 0.00, 0.00, 0.00, 0.00, 0.00, 0.01, 0.01, 1.03
130, -187500.02, 48816.39, 0.00, 0.00, 0.00, 0.00, 0.00, 0.00, 0.01, 0.01, 1.03
131, -187500.02, 48801.28, 0.00, 0.00, 0.00, 0.00, 0.00, 0.00, 0.01, 0.01, 1.03
132, -187500.02, 48820.23, 0.00, 0.00, 0.00, 0.00, 0.00, 0.00, 0.01, 0.01, 1.02
133, -187500.02, 48843.01, 0.00, 0.00, 0.00, 0.00, 0.00, 0.00, 0.01, 0.01, 1.02
134, -187500.02, 48821.44, 0.00, 0.00, 0.00, 0.00, 0.00, 0.00, 0.01, 0.01, 1.02
135, -187500.02, 48794.91, 0.00, 0.00, 0.00, 0.00, 0.00, 0.00, 0.01, 0.01, 1.02
136, -187500.02, 48806.29, 0.00, 0.00, 0.00, 0.00, 0.00, 0.00, 0.01, 0.01, 1.02
137, -187500.02, 48836.28, 0.00, 0.00, 0.00, 0.00, 0.00, 0.00, 0.01, 0.01, 1.02
138, -187500.02, 48828.19, 0.00, 0.00, 0.00, 0.00, 0.00, 0.00, 0.01, 0.01, 1.02
139, -187500.02, 48799.87, 0.00, 0.00, 0.00, 0.00, 0.00, 0.00, 0.01, 0.01, 1.02
140, -187500.02, 48802.95, 0.00, 0.00, 0.00, 0.00, 0.00, 0.00, 0.01, 0.01, 1.02
141, -187500.02, 48833.00, 0.00, 0.00, 0.00, 0.00, 0.00, 0.00, 0.01, 0.01, 1.02
142, -187500.02, 48830.54, 0.00, 0.00, 0.00, 0.00, 0.00, 0.00, 0.01, 0.01, 1.02
143, -187500.02, 48808.41, 0.00, 0.00, 0.00, 0.00, 0.00, 0.00, 0.01, 0.01, 1.02
144, -187500.02, 48806.13, 0.00, 0.00, 0.00, 0.00, 0.00, 0.00, 0.01, 0.01, 1.02
145, -187500.02, 48833.84, 0.00, 0.00, 0.00, 0.00, 0.00, 0.00, 0.01, 0.01, 1.02
146, -187500.02, 48841.02, 0.00, 0.00, 0.00, 0.00, 0.00, 0.00, 0.01, 0.01, 1.02
147, -187500.02, 48815.00, 0.00, 0.00, 0.00, 0.00, 0.00, 0.00, 0.01, 0.01, 1.02
148, -187500.02, 48807.91, 0.00, 0.00, 0.00, 0.00, 0.00, 0.00, 0.01, 0.01, 1.02
149, -187500.02, 48832.30, 0.00, 0.00, 0.00, 0.00, 0.00, 0.00, 0.01, 0.01, 1.02
150, -187500.02, 48840.26, 0.00, 0.00, 0.00, 0.00, 0.00, 0.00, 0.01, 0.01, 1.02
151, -187500.02, 48816.03, 0.00, 0.00, 0.00, 0.00, 0.00, 0.00, 0.01, 0.01, 1.02
152, -187500.02, 48795.84, 0.00, 0.00, 0.00, 0.00, 0.00, 0.00, 0.00, 0.00, 1.02
153, -187500.02, 48825.02, 0.00, 0.00, 0.00, 0.00, 0.00, 0.00, 0.00, 0.00, 1.02
154, -187500.02, 48840.93, 0.00, 0.00, 0.00, 0.00, 0.00, 0.00, 0.00, 0.00, 1.02
155, -187500.02, 48819.18, 0.00, 0.00, 0.00, 0.00, 0.00, 0.00, 0.00, 0.00, 1.02
156, -187500.02, 48802.37, 0.00, 0.00, 0.00, 0.00, 0.00, 0.00, 0.00, 0.00, 1.02
157, -187500.02, 48815.05, 0.00, 0.00, 0.00, 0.00, 0.00, 0.00, 0.00, 0.01, 1.01
158, -187500.02, 48842.88, 0.00, 0.00, 0.00, 0.00, 0.00, 0.00, 0.00, 0.01, 1.01
159, -187500.02, 48821.66, 0.00, 0.00, 0.00, 0.00, 0.00, 0.00, 0.00, 0.01, 1.01
160, -187500.02, 48796.34, 0.00, 0.00, 0.00, 0.00, 0.00, 0.00, 0.00, 0.01, 1.01
161, -187500.02, 48812.39, 0.00, 0.00, 0.00, 0.00, 0.00, 0.00, 0.00, 0.01, 1.01
162, -187500.02, 48834.67, 0.00, 0.00, 0.00, 0.00, 0.00, 0.00, 0.01, 0.00, 1.02
163, -187500.02, 48825.21, 0.00, 0.00, 0.00, 0.00, 0.00, 0.00, 0.01, 0.00, 1.02
164, -187500.02, 48798.62, 0.00, 0.00, 0.00, 0.00, 0.00, 0.00, 0.01, 0.00, 1.02
165, -187500.02, 48806.33, 0.00, 0.00, 0.00, 0.00, 0.00, 0.00, 0.01, 0.00, 1.02
166, -187500.02, 48835.57, 0.00, 0.00, 0.00, 0.00, 0.00, 0.00, 0.01, 0.00, 1.02
167, -187500.02, 48834.04, 0.00, 0.00, 0.00, 0.00, 0.00, 0.00, 0.00, 0.00, 1.01
168, -187500.02, 48809.37, 0.00, 0.00, 0.00, 0.00, 0.00, 0.00, 0.00, 0.00, 1.01
169, -187500.02, 48813.14, 0.00, 0.00, 0.00, 0.00, 0.00, 0.00, 0.00, 0.00, 1.01
170, -187500.02, 48839.92, 0.00, 0.00, 0.00, 0.00, 0.00, 0.00, 0.00, 0.00, 1.01
171, -187500.02, 48841.15, 0.00, 0.00, 0.00, 0.00, 0.00, 0.00, 0.00, 0.00, 1.01
172, -187500.02, 48815.83, 0.00, 0.00, 0.00, 0.00, 0.00, 0.00, 0.01, 0.00, 1.01
173, -187500.02, 48806.08, 0.00, 0.00, 0.00, 0.00, 0.00, 0.00, 0.01, 0.00, 1.01
174, -187500.02, 48831.39, 0.00, 0.00, 0.00, 0.00, 0.00, 0.00, 0.01, 0.00, 1.01
175, -187500.02, 48837.64, 0.00, 0.00, 0.00, 0.00, 0.00, 0.00, 0.01, 0.00, 1.01
176, -187500.02, 48811.38, 0.00, 0.00, 0.00, 0.00, 0.00, 0.00, 0.01, 0.00, 1.01
177, -187500.02, 48802.44, 0.00, 0.00, 0.00, 0.00, 0.00, 0.00, 0.01, 0.00, 1.01
178, -187500.02, 48815.29, 0.00, 0.00, 0.00, 0.00, 0.00, 0.00, 0.01, 0.00, 1.01
179, -187500.02, 48833.71, 0.00, 0.00, 0.00, 0.00, 0.00, 0.00, 0.01, 0.00, 1.01
180, -187500.02, 48818.36, 0.00, 0.00, 0.00, 0.00, 0.00, 0.00, 0.01, 0.00, 1.01
181, -187500.02, 48797.52, 0.00, 0.00, 0.00, 0.00, 0.00, 0.00, 0.01, 0.00, 1.01
182, -187500.02, 48814.00, 0.00, 0.00, 0.00, 0.00, 0.00, 0.00, 0.01, 0.00, 1.01
183, -187500.02, 48834.45, 0.00, 0.00, 0.00, 0.00, 0.00, 0.00, 0.01, 0.01, 1.01
184, -187500.02, 48819.38, 0.00, 0.00, 0.00, 0.00, 0.00, 0.00, 0.01, 0.01, 1.01
185, -187500.02, 48796.18, 0.00, 0.00, 0.00, 0.00, 0.00, 0.00, 0.01, 0.01, 1.01
186, -187500.02, 48801.50, 0.00, 0.00, 0.00, 0.00, 0.00, 0.00, 0.01, 0.01, 1.01
187, -187500.02, 48830.71, 0.00, 0.00, 0.00, 0.00, 0.00, 0.00, 0.01, 0.01, 1.01
188, -187500.02, 48822.11, 0.00, 0.00, 0.00, 0.00, 0.00, 0.00, 0.02, 0.01, 1.02
189, -187500.02, 48797.88, 0.00, 0.00, 0.00, 0.00, 0.00, 0.00, 0.02, 0.01, 1.02
190, -187500.02, 48801.21, 0.00, 0.00, 0.00, 0.00, 0.00, 0.00, 0.02, 0.01, 1.02
191, -187500.02, 48825.91, 0.00, 0.00, 0.00, 0.00, 0.00, 0.00, 0.02, 0.01, 1.02
192, -187500.02, 48821.75, 0.00, 0.00, 0.00, 0.00, 0.00, 0.00, 0.02, 0.01, 1.02
193, -187500.02, 48802.15, 0.00, 0.00, 0.00, 0.00, 0.00, 0.00, 0.01, 0.01, 1.02
194, -187500.02, 48800.96, 0.00, 0.00, 0.00, 0.00, 0.00, 0.00, 0.01, 0.01, 1.02
195, -187500.02, 48822.67, 0.00, 0.00, 0.00, 0.00, 0.00, 0.00, 0.01, 0.01, 1.02
196, -187500.02, 48826.78, 0.00, 0.00, 0.00, 0.00, 0.00, 0.00, 0.01, 0.01, 1.02
197, -187500.02, 48806.02, 0.00, 0.00, 0.00, 0.00, 0.00, 0.00, 0.01, 0.01, 1.02
198, -187500.02, 48797.75, 0.00, 0.00, 0.00, 0.00, 0.00, 0.00, 0.02, 0.01, 1.02
199, -187500.02, 48822.82, 0.00, 0.00, 0.00, 0.00, 0.00, 0.00, 0.02, 0.01, 1.02
200, -187500.02, 48832.39, 0.00, 0.00, 0.00, 0.00, 0.00, 0.00, 0.02, 0.01, 1.02
201, -187500.02, 48814.51, 0.00, 0.00, 0.00, 0.00, 0.00, 0.00, 0.02, 0.01, 1.02
202, -187500.02, 48810.53, 0.00, 0.00, 0.00, 0.00, 0.00, 0.00, 0.02, 0.01, 1.02
203, -187500.02, 48831.16, 0.00, 0.00, 0.00, 0.00, 0.00, 0.00, 0.01, 0.01, 1.02
204, -187500.02, 48847.41, 0.00, 0.00, 0.00, 0.00, 0.00, 0.00, 0.01, 0.01, 1.02
205, -187500.02, 48826.78, 0.00, 0.00, 0.00, 0.00, 0.00, 0.00, 0.01, 0.01, 1.02
206, -187500.02, 48801.07, 0.00, 0.00, 0.00, 0.00, 0.00, 0.00, 0.01, 0.01, 1.02
207, -187500.02, 48819.54, 0.00, 0.00, 0.00, 0.00, 0.00, 0.00, 0.01, 0.01, 1.02
208, -187500.02, 48839.68, 0.00, 0.00, 0.00, 0.00, 0.00, 0.00, 0.01, 0.01, 1.02
209, -187500.02, 48826.24, 0.00, 0.00, 0.00, 0.00, 0.00, 0.00, 0.01, 0.01, 1.02
210, -187500.02, 48805.93, 0.00, 0.00, 0.00, 0.00, 0.00, 0.00, 0.01, 0.01, 1.02
211, -187500.02, 48819.29, 0.00, 0.00, 0.00, 0.00, 0.00, 0.00, 0.01, 0.01, 1.02
212, -187500.02, 48846.81, 0.00, 0.00, 0.00, 0.00, 0.00, 0.00, 0.01, 0.01, 1.02
213, -187500.02, 48838.74, 0.00, 0.00, 0.00, 0.00, 0.00, 0.00, 0.01, 0.00, 1.02
214, -187500.02, 48808.90, 0.00, 0.00, 0.00, 0.00, 0.00, 0.00, 0.01, 0.00, 1.02
215, -187500.02, 48810.46, 0.00, 0.00, 0.00, 0.00, 0.00, 0.00, 0.01, 0.00, 1.02
216, -187500.02, 48838.18, 0.00, 0.00, 0.00, 0.00, 0.00, 0.00, 0.01, 0.00, 1.02
217, -187500.02, 48833.44, 0.00, 0.00, 0.00, 0.00, 0.00, 0.00, 0.01, 0.00, 1.02
218, -187500.02, 48802.53, 0.00, 0.00, 0.00, 0.00, 0.00, 0.00, 0.01, 0.00, 1.02
219, -187500.02, 48791.40, 0.00, 0.00, 0.00, 0.00, 0.00, 0.00, 0.01, 0.00, 1.02
220, -187500.02, 48816.95, 0.00, 0.00, 0.00, 0.00, 0.00, 0.00, 0.01, 0.00, 1.02
221, -187500.02, 48825.17, 0.00, 0.00, 0.00, 0.00, 0.00, 0.00, 0.01, 0.00, 1.02
222, -187500.02, 48802.64, 0.00, 0.00, 0.00, 0.00, 0.00, 0.00, 0.01, 0.00, 1.02
223, -187500.02, 48790.19, 0.00, 0.00, 0.00, 0.00, 0.00, 0.00, 0.01, 0.01, 1.02
224, -187500.02, 48810.98, 0.00, 0.00, 0.00, 0.00, 0.00, 0.00, 0.01, 0.01, 1.02
225, -187500.02, 48826.02, 0.00, 0.00, 0.00, 0.00, 0.00, 0.00, 0.01, 0.01, 1.02
226, -187500.02, 48806.33, 0.00, 0.00, 0.00, 0.00, 0.00, 0.00, 0.01, 0.01, 1.02
227, -187500.02, 48794.19, 0.00, 0.00, 0.00, 0.00, 0.00, 0.00, 0.01, 0.01, 1.02
228, -187500.02, 48818.42, 0.00, 0.00, 0.00, 0.00, 0.00, 0.00, 0.01, 0.00, 1.02
229, -187500.02, 48846.99, 0.00, 0.00, 0.00, 0.00, 0.00, 0.00, 0.01, 0.00, 1.02
230, -187500.02, 48841.44, 0.00, 0.00, 0.00, 0.00, 0.00, 0.00, 0.01, 0.00, 1.02
231, -187500.02, 48804.54, 0.00, 0.00, 0.00, 0.00, 0.00, 0.00, 0.01, 0.00, 1.02
232, -187500.02, 48797.50, 0.00, 0.00, 0.00, 0.00, 0.00, 0.00, 0.01, 0.00, 1.02
233, -187500.02, 48841.60, 0.00, 0.00, 0.00, 0.00, 0.00, 0.00, 0.01, 0.00, 1.02
234, -187500.02, 48839.75, 0.00, 0.00, 0.00, 0.00, 0.00, 0.00, 0.01, 0.00, 1.02
235, -187500.02, 48821.21, 0.00, 0.00, 0.00, 0.00, 0.00, 0.00, 0.01, 0.00, 1.02
236, -187500.02, 48829.64, 0.00, 0.00, 0.00, 0.00, 0.00, 0.00, 0.01, 0.00, 1.02
237, -187500.02, 48855.39, 0.00, 0.00, 0.00, 0.00, 0.00, 0.00, 0.01, 0.00, 1.02
238, -187500.02, 48854.54, 0.00, 0.00, 0.00, 0.00, 0.00, 0.00, 0.00, 0.01, 1.02
239, -187500.02, 48823.76, 0.00, 0.00, 0.00, 0.00, 0.00, 0.00, 0.00, 0.01, 1.02
240, -187500.02, 48827.92, 0.00, 0.00, 0.00, 0.00, 0.00, 0.00, 0.00, 0.01, 1.02
241, -187500.02, 48860.71, 0.00, 0.00, 0.00, 0.00, 0.00, 0.00, 0.00, 0.01, 1.02
242, -187500.02, 48867.59, 0.00, 0.00, 0.00, 0.00, 0.00, 0.00, 0.00, 0.01, 1.02
243, -187500.02, 48835.18, 0.00, 0.00, 0.00, 0.00, 0.00, 0.00, 0.00, 0.00, 1.02
244, -187500.02, 48833.15, 0.00, 0.00, 0.00, 0.00, 0.00, 0.00, 0.00, 0.00, 1.02
245, -187500.02, 48870.32, 0.00, 0.00, 0.00, 0.00, 0.00, 0.00, 0.00, 0.00, 1.02
246, -187500.02, 48882.08, 0.00, 0.00, 0.00, 0.00, 0.00, 0.00, 0.00, 0.00, 1.02
247, -187500.02, 48862.07, 0.00, 0.00, 0.00, 0.00, 0.00, 0.00, 0.00, 0.00, 1.02
248, -187500.02, 48850.96, 0.00, 0.00, 0.00, 0.00, 0.00, 0.00, 0.00, 0.01, 1.02
249, -187500.02, 48876.20, 0.00, 0.00, 0.00, 0.00, 0.00, 0.00, 0.00, 0.01, 1.02
250, -187500.02, 48890.66, 0.00, 0.00, 0.00, 0.00, 0.00, 0.00, 0.00, 0.01, 1.02
251, -187500.02, 48867.64, 0.00, 0.00, 0.00, 0.00, 0.00, 0.00, 0.00, 0.01, 1.02
252, -187500.02, 48849.40, 0.00, 0.00, 0.00, 0.00, 0.00, 0.00, 0.00, 0.01, 1.02
253, -187500.02, 48868.09, 0.00, 0.00, 0.00, 0.00, 0.00, 0.00, 0.01, 0.01, 1.02
254, -187500.02, 48886.23, 0.00, 0.00, 0.00, 0.00, 0.00, 0.00, 0.01, 0.01, 1.02
255, -187500.02, 48879.91, 0.00, 0.00, 0.00, 0.00, 0.00, 0.00, 0.01, 0.01, 1.02
0, -187500.02, 48862.10, 0.00, 0.00, 0.00, 0.00, 0.00, 0.00, 0.01, 0.01, 1.02
1, -187500.02, 48874.84, 0.00, 0.00, 0.00, 0.00, 0.00, 0.00, 0.01, 0.01, 1.02
2, -187500.02, 48902.73, 0.00, 0.00, 0.00, 0.00, 0.00, 0.00, 0.01, 0.00, 1.02
3, -187500.02, 48894.42, 0.00, 0.00, 0.00, 0.00, 0.00, 0.00, 0.01, 0.00, 1.02
4, -187500.02, 48867.80, 0.00, 0.00, 0.00, 0.00, 0.00, 0.00, 0.01, 0.00, 1.02
5, -187500.02, 48876.09, 0.00, 0.00, 0.00, 0.00, 0.00, 0.00, 0.01, 0.00, 1.02
6, -187500.02, 48901.26, 0.00, 0.00, 0.00, 0.00, 0.00, 0.00, 0.01, 0.00, 1.02
7, -187500.02, 48899.87, 0.00, 0.00, 0.00, 0.00, 0.00, 0.00, 0.01, 0.01, 1.02
8, -187500.02, 48878.61, 0.00, 0.00, 0.00, 0.00, 0.00, 0.00, 0.01, 0.01, 1.02
9, -187500.02, 48882.64, 0.00, 0.00, 0.00, 0.00, 0.00, 0.00, 0.01, 0.01, 1.02
10, -187500.02, 48909.08, 0.00, 0.00, 0.00, 0.00, 0.00, 0.00, 0.01, 0.01, 1.02
11, -187500.02, 48909.15, 0.00, 0.00, 0.00, 0.00, 0.00, 0.00, 0.01, 0.01, 1.02
12, -187500.02, 48879.82, 0.00, 0.00, 0.00, 0.00, 0.00, 0.00, 0.01, 0.01, 1.01
13, -187500.02, 48871.71, 0.00, 0.00, 0.00, 0.00, 0.00, 0.00, 0.01, 0.01, 1.01
14, -187500.02, 48898.30, 0.00, 0.00, 0.00, 0.00, 0.00, 0.00, 0.01, 0.01, 1.01
15, -187500.02, 48910.76, 0.00, 0.00, 0.00, 0.00, 0.00, 0.00, 0.01, 0.01, 1.01
16, -187500.02, 48881.61, 0.00, 0.00, 0.00, 0.00, 0.00, 0.00, 0.01, 0.01, 1.01
17, -187500.02, 48865.85, 0.00, 0.00, 0.00, 0.00, 0.00, 0.00, 0.01, 0.01, 1.01
18, -187500.02, 48891.55, 0.00, 0.00, 0.00, 0.00, 0.00, 0.00, 0.01, 0.01, 1.01
19, -187500.02, 48903.34, 0.00, 0.00, 0.00, 0.00, 0.00, 0.00, 0.01, 0.01, 1.01
20, -187500.02, 48887.11, 0.00, 0.00, 0.00, 0.00, 0.00, 0.00, 0.01, 0.01, 1.01
21, -187500.02, 48871.62, 0.00, 0.00, 0.00, 0.00, 0.00, 0.00, 0.01, 0.01, 1.01
22, -187500.02, 48885.68, 0.00, 0.00, 0.00, 0.00, 0.00, 0.00, 0.01, 0.00, 1.02
23, -187500.02, 48902.08, 0.00, 0.00, 0.00, 0.00, 0.00, 0.00, 0.01, 0.00, 1.02
24, -187500.02, 48882.55, 0.00, 0.00, 0.00, 0.00, 0.00, 0.00, 0.01, 0.00, 1.02
25, -187500.02, 48860.38, 0.00, 0.00, 0.00, 0.00, 0.00, 0.00, 0.01, 0.00, 1.02
26, -187500.02, 48874.01, 0.00, 0.00, 0.00, 0.00, 0.00, 0.00, 0.01, 0.00, 1.02
27, -187500.02, 48896.52, 0.00, 0.00, 0.00, 0.00, 0.00, 0.00, 0.01, 0.01, 1.02
28, -187500.02, 48885.32, 0.00, 0.00, 0.00, 0.00, 0.00, 0.00, 0.01, 0.01, 1.02
29, -187500.02, 48863.13, 0.00, 0.00, 0.00, 0.00, 0.00, 0.00, 0.01, 0.01, 1.02
30, -187500.02, 48869.16, 0.00, 0.00, 0.00, 0.00, 0.00, 0.00, 0.01, 0.01, 1.02
31, -187500.02, 48897.08, 0.00, 0.00, 0.00, 0.00, 0.00, 0.00, 0.01, 0.01, 1.02
32, -187500.02, 48894.46, 0.00, 0.00, 0.00, 0.00, 0.00, 0.00, 0.01, 0.01, 1.02
33, -187500.02, 48865.49, 0.00, 0.00, 0.00, 0.00, 0.00, 0.00, 0.01, 0.01, 1.02
34, -187500.02, 48864.98, 0.00, 0.00, 0.00, 0.00, 0.00, 0.00, 0.01, 0.01, 1.02
35, -187500.02, 48899.54, 0.00, 0.00, 0.00, 0.00, 0.00, 0.00, 0.01, 0.01, 1.02
36, -187500.02, 48905.82, 0.00, 0.00, 0.00, 0.00, 0.00, 0.00, 0.01, 0.01, 1.02
37, -187500.02, 48881.09, 0.00, 0.00, 0.00, 0.00, 0.00, 0.00, 0.02, 0.01, 1.02
38, -187500.02, 48872.18, 0.00, 0.00, 0.00, 0.00, 0.00, 0.00, 0.02, 0.01, 1.02
39, -187500.02, 48901.95, 0.00, 0.00, 0.00, 0.00, 0.00, 0.00, 0.02, 0.01, 1.02
40, -187500.02, 48914.46, 0.00, 0.00, 0.00, 0.00, 0.00, 0.00, 0.02, 0.01, 1.02
41, -187500.02, 48891.94, 0.00, 0.00, 0.00, 0.00, 0.00, 0.00, 0.02, 0.01, 1.02
42, -187500.02, 48879.33, 0.00, 0.00, 0.00, 0.00, 0.00, 0.00, 0.01, 0.01, 1.02
43, -187500.02, 48893.95, 0.00, 0.00, 0.00, 0.00, 0.00, 0.00, 0.01, 0.01, 1.02
44, -187500.02, 48919.18, 0.00, 0.00, 0.00, 0.00, 0.00, 0.00, 0.01, 0.01, 1.02
45, -187500.02, 48899.56, 0.00, 0.00, 0.00, 0.00, 0.00, 0.00, 0.01, 0.01, 1.02
46, -187500.02, 48883.40, 0.00, 0.00, 0.00, 0.00, 0.00, 0.00, 0.01, 0.01, 1.02
47, -187500.02, 48898.24, 0.00, 0.00, 0.00, 0.00, 0.00, 0.00, 0.02, 0.01, 1.02
48, -187500.02, 48919.20, 0.00, 0.00, 0.00, 0.00, 0.00, 0.00, 0.02, 0.01, 1.02
49, -187500.02, 48900.63, 0.00, 0.00, 0.00, 0.00, 0.00, 0.00, 0.02, 0.01, 1.02
50, -187500.02, 48871.82, 0.00, 0.00, 0.00, 0.00, 0.00, 0.00, 0.02, 0.01, 1.02
51, -187500.02, 48879.71, 0.00, 0.00, 0.00, 0.00, 0.00, 0.00, 0.02, 0.01, 1.02
52, -187500.02, 48908.61, 0.00, 0.00, 0.00, 0.00, 0.00, 0.00, 0.01, 0.01, 1.02
53, -187500.02, 48895.98, 0.00, 0.00, 0.00, 0.00, 0.00, 0.00, 0.01, 0.01, 1.02
54, -187500.02, 48868.94, 0.00, 0.00, 0.00, 0.00, 0.00, 0.00, 0.01, 0.01, 1.02
55, -187500.02, 48875.08, 0.00, 0.00, 0.00, 0.00, 0.00, 0.00, 0.01, 0.01, 1.02
56, -187500.02, 48898.11, 0.00, 0.00, 0.00, 0.00, 0.00, 0.00, 0.01, 0.01, 1.02
57, -187500.02, 48887.98, 0.00, 0.00, 0.00, 0.00, 0.00, 0.00, 0.01, 0.01, 1.01
58, -187500.02, 48865.34, 0.00, 0.00, 0.00, 0.00, 0.00, 0.00, 0.01, 0.01, 1.01
59, -187500.02, 48864.15, 0.00, 0.00, 0.00, 0.00, 0.00, 0.00, 0.01, 0.01, 1.01
60, -187500.02, 48892.59, 0.00, 0.00, 0.00, 0.00, 0.00, 0.00, 0.01, 0.01, 1.01
61, -187500.02, 48899.65, 0.00, 0.00, 0.00, 0.00, 0.00, 0.00, 0.01, 0.01, 1.01
62, -187500.02, 48879.96, 0.00, 0.00, 0.00, 0.00, 0.00, 0.00, 0.01, 0.01, 1.01
63, -187500.02, 48866.75, 0.00, 0.00, 0.00, 0.00, 0.00, 0.00, 0.01, 0.01, 1.01
64, -187500.02, 48892.74, 0.00, 0.00, 0.00, 0.00, 0.00, 0.00, 0.01, 0.01, 1.01
65, -187500.02, 48900.92, 0.00, 0.00, 0.00, 0.00, 0.00, 0.00, 0.01, 0.01, 1.01
66, -187500.02, 48876.09, 0.00, 0.00, 0.00, 0.00, 0.00, 0.00, 0.01, 0.01, 1.01
67, -187500.02, 48860.26, 0.00, 0.00, 0.00, 0.00, 0.00, 0.00, 0.01, 0.01, 1.02
68, -187500.02, 48877.74, 0.00, 0.00, 0.00, 0.00, 0.00, 0.00, 0.01, 0.01, 1.02
69, -187500.02, 48891.71, 0.00, 0.00, 0.00, 0.00, 0.00, 0.00, 0.01, 0.01, 1.02
70, -187500.02, 48870.95, 0.00, 0.00, 0.00, 0.00, 0.00, 0.00, 0.01, 0.01, 1.02
71, -187500.02, 48848.26, 0.00, 0.00, 0.00, 0.00, 0.00, 0.00, 0.01, 0.01, 1.02
72, -187500.02, 48867.08, 0.00, 0.00, 0.00, 0.00, 0.00, 0.00, 0.01, 0.01, 1.02
73, -187500.02, 48891.27, 0.00, 0.00, 0.00, 0.00, 0.00, 0.00, 0.01, 0.01, 1.02
74, -187500.02, 48881.92, 0.00, 0.00, 0.00, 0.00, 0.00, 0.00, 0.01, 0.01, 1.02
75, -187500.02, 48856.69, 0.00, 0.00, 0.00, 0.00, 0.00, 0.00, 0.01, 0.01, 1.02
76, -187500.02, 48864.29, 0.00, 0.00, 0.00, 0.00, 0.00, 0.00, 0.01, 0.01, 1.02
77, -187500.02, 48891.11, 0.00, 0.00, 0.00, 0.00, 0.00, 0.00, 0.01, 0.01, 1.01
78, -187500.02, 48878.88, 0.00, 0.00, 0.00, 0.00, 0.00, 0.00, 0.01, 0.01, 1.01
79, -187500.02, 48848.75, 0.00, 0.00, 0.00, 0.00, 0.00, 0.00, 0.01, 0.01, 1.01
80, -187500.02, 48854.65, 0.00, 0.00, 0.00, 0.00, 0.00, 0.00, 0.01, 0.01, 1.01
81, -187500.02, 48885.34, 0.00, 0.00, 0.00, 0.00, 0.00, 0.00, 0.01, 0.01, 1.01
82, -187500.02, 48882.75, 0.00, 0.00, 0.00, 0.00, 0.00, 0.00, 0.01, 0.01, 1.02
83, -187500.02, 48860.60, 0.00, 0.00, 0.00, 0.00, 0.00, 0.00, 0.01, 0.01, 1.02
84, -187500.02, 48861.43, 0.00, 0.00, 0.00, 0.00, 0.00, 0.00, 0.01, 0.01, 1.02
85, -187500.02, 48886.66, 0.00, 0.00, 0.00, 0.00, 0.00, 0.00, 0.01, 0.01, 1.02
86, -187500.02, 48888.61, 0.00, 0.00, 0.00, 0.00, 0.00, 0.00, 0.01, 0.01, 1.02
87, -187500.02, 48864.71, 0.00, 0.00, 0.00, 0.00, 0.00, 0.00, 0.01, 0.01, 1.02
88, -187500.02, 48861.22, 0.00, 0.00, 0.00, 0.00, 0.00, 0.00, 0.01, 0.01, 1.02
89, -187500.02, 48882.28, 0.00, 0.00, 0.00, 0.00, 0.00, 0.00, 0.01, 0.01, 1.02
90, -187500.02, 48895.29, 0.00, 0.00, 0.00, 0.00, 0.00, 0.00, 0.01, 0.01, 1.02
91, -187500.02, 48868.60, 0.00, 0.00, 0.00, 0.00, 0.00, 0.00, 0.01, 0.01, 1.02
92, -187500.02, 48849.56, 0.00, 0.00, 0.00, 0.00, 0.00, 0.00, 0.01, 0.01, 1.02
93, -187500.02, 48870.52, 0.00, 0.00, 0.00, 0.00, 0.00, 0.00, 0.01, 0.01, 1.02
94, -187500.02, 48889.28, 0.00, 0.00, 0.00, 0.00, 0.00, 0.00, 0.01, 0.01, 1.02
95, -187500.02, 48872.85, 0.00, 0.00, 0.00, 0.00, 0.00, 0.00, 0.01, 0.01, 1.02
96, -187500.02, 48854.23, 0.00, 0.00, 0.00, 0.00, 0.00, 0.00, 0.01, 0.01, 1.02
97, -187500.02, 48866.19, 0.00, 0.00, 0.00, 0.00, 0.00, 0.00, 0.01, 0.01, 1.02
98, -187500.02, 48891.51, 0.00, 0.00, 0.00, 0.00, 0.00, 0.00, 0.01, 0.01, 1.02
99, -187500.02, 48881.21, 0.00, 0.00, 0.00, 0.00, 0.00, 0.00, 0.01, 0.01, 1.02
100, -187500.02, 48849.31, 0.00, 0.00, 0.00, 0.00, 0.00, 0.00, 0.01, 0.01, 1.02
101, -187500.02, 48858.81, 0.00, 0.00, 0.00, 0.00, 0.00, 0.00, 0.01, 0.01, 1.02
102, -187500.02, 48891.33, 0.00, 0.00, 0.00, 0.00, 0.00, 0.00, 0.01, 0.01, 1.02
103, -187500.02, 48884.56, 0.00, 0.00, 0.00, 0.00, 0.00, 0.00, 0.01, 0.01, 1.02
104, -187500.02, 48862.10, 0.00, 0.00, 0.00, 0.00, 0.00, 0.00, 0.01, 0.01, 1.02
105, -187500.02, 48864.00, 0.00, 0.00, 0.00, 0.00, 0.00, 0.00, 0.01, 0.01, 1.02
106, -187500.02, 48891.71, 0.00, 0.00, 0.00, 0.00, 0.00, 0.00, 0.01, 0.01, 1.02
107, -187500.02, 48890.13, 0.00, 0.00, 0.00, 0.00, 0.00, 0.00, 0.01, 0.01, 1.02
108, -187500.02, 48865.65, 0.00, 0.00, 0.00, 0.00, 0.00, 0.00, 0.01, 0.01, 1.02
109, -187500.02, 48860.60, 0.00, 0.00, 0.00, 0.00, 0.00, 0.00, 0.01, 0.01, 1.02
110, -187500.02, 48888.70, 0.00, 0.00, 0.00, 0.00, 0.00, 0.00, 0.01, 0.01, 1.02
111, -187500.02, 48888.88, 0.00, 0.00, 0.00, 0.00, 0.00, 0.00, 0.01, 0.01, 1.02
112, -187500.02, 48856.96, 0.00, 0.00, 0.00, 0.00, 0.00, 0.00, 0.01, 0.01, 1.02
113, -187500.02, 48851.66, 0.00, 0.00, 0.00, 0.00, 0.00, 0.00, 0.01, 0.01, 1.02
114, -187500.02, 48877.07, 0.00, 0.00, 0.00, 0.00, 0.00, 0.00, 0.01, 0.01, 1.02
115, -187500.02, 48888.40, 0.00, 0.00, 0.00, 0.00, 0.00, 0.00, 0.01, 0.01, 1.02
116, -187500.02, 48866.52, 0.00, 0.00, 0.00, 0.00, 0.00, 0.00, 0.01, 0.01, 1.02
117, -187500.02, 48850.03, 0.00, 0.00, 0.00, 0.00, 0.00, 0.00, 0.01, 0.01, 1.02
118, -187500.02, 48867.30, 0.00, 0.00, 0.00, 0.00, 0.00, 0.00, 0.01, 0.01, 1.02
119, -187500.02, 48888.83, 0.00, 0.00, 0.00, 0.00, 0.00, 0.00, 0.01, 0.01, 1.02
120, -187500.02, 48865.70, 0.00, 0.00, 0.00, 0.00, 0.00, 0.00, 0.01, 0.01, 1.02
121, -187500.02, 48842.27, 0.00, 0.00, 0.00, 0.00, 0.00, 0.00, 0.01, 0.01, 1.02
122, -187500.02, 48855.97, 0.00, 0.00, 0.00, 0.00, 0.00, 0.00, 0.01, 0.01, 1.02
123, -187500.02, 48878.21, 0.00, 0.00, 0.00, 0.00, 0.00, 0.00, 0.01, 0.01, 1.02
124, -187500.02, 48867.93, 0.00, 0.00, 0.00, 0.00, 0.00, 0.00, 0.01, 0.01, 1.02
125, -187500.02, 48843.32, 0.00, 0.00, 0.00, 0.00, 0.00, 0.00, 0.01, 0.01, 1.02
126, -187500.02, 48850.88, 0.00, 0.00, 0.00, 0.00, 0.00, 0.00, 0.01, 0.01, 1.02
127, -187500.02, 48883.78, 0.00, 0.00, 0.00, 0.00, 0.00, 0.00, 0.02, 0.01, 1.01
128, -187500.02, 48874.01, 0.00, 0.00, 0.00, 0.00, 0.00, 0.00, 0.02, 0.01, 1.01
129, -187500.02, 48845.13, 0.00, 0.00, 0.00, 0.00, 0.00, 0.00, 0.02, 0.01, 1.01
130, -187500.02, 48844.35, 0.00, 0.00, 0.00, 0.00, 0.00, 0.00, 0.02, 0.01, 1.01
131, -187500.02, 48869.27, 0.00, 0.00, 0.00, 0.00, 0.00, 0.00, 0.02, 0.01, 1.01
132, -187500.02, 48871.66, 0.00, 0.00, 0.00, 0.00, 0.00, 0.00, 0.01, 0.01, 1.01
133, -187500.02, 48841.13, 0.00, 0.00, 0.00, 0.00, 0.00, 0.00, 0.01, 0.01, 1.01
134, -187500.02, 48827.70, 0.00, 0.00, 0.00, 0.00, 0.00, 0.00, 0.01, 0.01, 1.01
135, -187500.02, 48858.65, 0.00, 0.00, 0.00, 0.00, 0.00, 0.00, 0.01, 0.01, 1.01
136, -187500.02, 48868.80, 0.00, 0.00, 0.00, 0.00, 0.00, 0.00, 0.01, 0.01, 1.01
137, -187500.02, 48846.36, 0.00, 0.00, 0.00, 0.00, 0.00, 0.00, 0.01, 0.01, 1.01
138, -187500.02, 48834.11, 0.00, 0.00, 0.00, 0.00, 0.00, 0.00, 0.01, 0.01, 1.01
139, -187500.02, 48859.01, 0.00, 0.00, 0.00, 0.00, 0.00, 0.00, 0.01, 0.01, 1.01
140, -187500.02, 48878.21, 0.00, 0.00, 0.00, 0.00, 0.00, 0.00, 0.01, 0.01, 1.01
141, -187500.02, 48858.27, 0.00, 0.00, 0.00, 0.00, 0.00, 0.00, 0.01, 0.01, 1.01
142, -187500.02, 48844.21, 0.00, 0.00, 0.00, 0.00, 0.00, 0.00, 0.01, 0.01, 1.02
143, -187500.02, 48865.74, 0.00, 0.00, 0.00, 0.00, 0.00, 0.00, 0.01, 0.01, 1.02
144, -187500.02, 48886.48, 0.00, 0.00, 0.00, 0.00, 0.00, 0.00, 0.01, 0.01, 1.02
145, -187500.02, 48863.23, 0.00, 0.00, 0.00, 0.00, 0.00, 0.00, 0.01, 0.01, 1.02
146, -187500.02, 48849.29, 0.00, 0.00, 0.00, 0.00, 0.00, 0.00, 0.01, 0.01, 1.02
147, -187500.02, 48863.39, 0.00, 0.00, 0.00, 0.00, 0.00, 0.00, 0.01, 0.01, 1.02
148, -187500.02, 48885.34, 0.00, 0.00, 0.00, 0.00, 0.00, 0.00, 0.01, 0.01, 1.02
149, -187500.02, 48871.80, 0.00, 0.00, 0.00, 0.00, 0.00, 0.00, 0.01, 0.01, 1.02
150, -187500.02, 48849.22, 0.00, 0.00, 0.00, 0.00, 0.00, 0.00, 0.01, 0.01, 1.02
151, -187500.02, 48853.36, 0.00, 0.00, 0.00, 0.00, 0.00, 0.00, 0.01, 0.01, 1.02
152, -187500.02, 48878.26, 0.00, 0.00, 0.00, 0.00, 0.00, 0.00, 0.01, 0.01, 1.02
153, -187500.02, 48868.42, 0.00, 0.00, 0.00, 0.00, 0.00, 0.00, 0.01, 0.01, 1.02
154, -187500.02, 48836.01, 0.00, 0.00, 0.00, 0.00, 0.00, 0.00, 0.01, 0.01, 1.02
155, -187500.02, 48835.14, 0.00, 0.00, 0.00, 0.00, 0.00, 0.00, 0.01, 0.01, 1.02
156, -187500.02, 48858.50, 0.00, 0.00, 0.00, 0.00, 0.00, 0.00, 0.01, 0.01, 1.02
157, -187500.02, 48862.34, 0.00, 0.00, 0.00, 0.00, 0.00, 0.00, 0.01, 0.01, 1.02
158, -187500.02, 48833.96, 0.00, 0.00, 0.00, 0.00, 0.00, 0.00, 0.02, 0.01, 1.01
159, -187500.02, 48837.42, 0.00, 0.00, 0.00, 0.00, 0.00, 0.00, 0.02, 0.01, 1.01
160, -187500.02, 48861.09, 0.00, 0.00, 0.00, 0.00, 0.00, 0.00, 0.02, 0.01, 1.01
161, -187500.02, 48867.98, 0.00, 0.00, 0.00, 0.00, 0.00, 0.00, 0.02, 0.01, 1.01
162, -187500.02, 48842.43, 0.00, 0.00, 0.00, 0.00, 0.00, 0.00, 0.02, 0.01, 1.01
163, -187500.02, 48831.39, 0.00, 0.00, 0.00, 0.00, 0.00, 0.00, 0.02, 0.01, 1.01
164, -187500.02, 48853.54, 0.00, 0.00, 0.00, 0.00, 0.00, 0.00, 0.02, 0.01, 1.01
165, -187500.02, 48864.93, 0.00, 0.00, 0.00, 0.00, 0.00, 0.00, 0.02, 0.01, 1.01
166, -187500.02, 48843.03, 0.00, 0.00, 0.00, 0.00, 0.00, 0.00, 0.02, 0.01, 1.01
167, -187500.02, 48827.36, 0.00, 0.00, 0.00, 0.00, 0.00, 0.00, 0.02, 0.01, 1.01
168, -187500.02, 48845.60, 0.00, 0.00, 0.00, 0.00, 0.00, 0.00, 0.01, 0.01, 1.01
169, -187500.02, 48867.01, 0.00, 0.00, 0.00, 0.00, 0.00, 0.00, 0.01, 0.01, 1.01
170, -187500.02, 48853.63, 0.00, 0.00, 0.00, 0.00, 0.00, 0.00, 0.01, 0.01, 1.01
171, -187500.02, 48831.65, 0.00, 0.00, 0.00, 0.00, 0.00, 0.00, 0.01, 0.01, 1.01
172, -187500.02, 48842.65, 0.00, 0.00, 0.00, 0.00, 0.00, 0.00, 0.01, 0.01, 1.01
173, -187500.02, 48869.54, 0.00, 0.00, 0.00, 0.00, 0.00, 0.00, 0.02, 0.01, 1.01
174, -187500.02, 48862.21, 0.00, 0.00, 0.00, 0.00, 0.00, 0.00, 0.02, 0.01, 1.01
175, -187500.02, 48832.41, 0.00, 0.00, 0.00, 0.00, 0.00, 0.00, 0.02, 0.01, 1.01
176, -187500.02, 48833.78, 0.00, 0.00, 0.00, 0.00, 0.00, 0.00, 0.02, 0.01, 1.01
177, -187500.02, 48867.91, 0.00, 0.00, 0.00, 0.00, 0.00, 0.00, 0.02, 0.01, 1.01
178, -187500.02, 48867.19, 0.00, 0.00, 0.00, 0.00, 0.00, 0.00, 0.01, 0.01, 1.02
179, -187500.02, 48842.43, 0.00, 0.00, 0.00, 0.00, 0.00, 0.00, 0.01, 0.01, 1.02
180, -187500.02, 48838.49, 0.00, 0.00, 0.00, 0.00, 0.00, 0.00, 0.01, 0.01, 1.02
181, -187500.02, 48858.95, 0.00, 0.00, 0.00, 0.00, 0.00, 0.00, 0.01, 0.01, 1.02
182, -187500.02, 48866.25, 0.00, 0.00, 0.00, 0.00, 0.00, 0.00, 0.01, 0.01, 1.02
183, -187500.02, 48839.16, 0.00, 0.00, 0.00, 0.00, 0.00, 0.00, 0.01, 0.00, 1.02
184, -187500.02, 48829.53, 0.00, 0.00, 0.00, 0.00, 0.00, 0.00, 0.01, 0.00, 1.02
185, -187500.02, 48860.82, 0.00, 0.00, 0.00, 0.00, 0.00, 0.00, 0.01, 0.00, 1.02
186, -187500.02, 48864.78, 0.00, 0.00, 0.00, 0.00, 0.00, 0.00, 0.01, 0.00, 1.02
187, -187500.02, 48845.96, 0.00, 0.00, 0.00, 0.00, 0.00, 0.00, 0.01, 0.00, 1.02
188, -187500.02, 48834.13, 0.00, 0.00, 0.00, 0.00, 0.00, 0.00, 0.01, 0.00, 1.02
189, -187500.02, 48852.29, 0.00, 0.00, 0.00, 0.00, 0.00, 0.00, 0.01, 0.00, 1.02
190, -187500.02, 48869.83, 0.00, 0.00, 0.00, 0.00, 0.00, 0.00, 0.01, 0.00, 1.02
191, -187500.02, 48848.60, 0.00, 0.00, 0.00, 0.00, 0.00, 0.00, 0.01, 0.00, 1.02
192, -187500.02, 48826.13, 0.00, 0.00, 0.00, 0.00, 0.00, 0.00, 0.01, 0.00, 1.02
193, -187500.02, 48845.49, 0.00, 0.00, 0.00, 0.00, 0.00, 0.00, 0.02, 0.01, 1.02
194, -187500.02, 48867.89, 0.00, 0.00, 0.00, 0.00, 0.00, 0.00, 0.02, 0.01, 1.02
195, -187500.02, 48855.64, 0.00, 0.00, 0.00, 0.00, 0.00, 0.00, 0.02, 0.01, 1.02
196, -187500.02, 48837.13, 0.00, 0.00, 0.00, 0.00, 0.00, 0.00, 0.02, 0.01, 1.02
197, -187500.02, 48845.55, 0.00, 0.00, 0.00, 0.00, 0.00, 0.00, 0.02, 0.01, 1.02
198, -187500.02, 48865.88, 0.00, 0.00, 0.00, 0.00, 0.00, 0.00, 0.02, 0.01, 1.03
199, -187500.02, 48857.47, 0.00, 0.00, 0.00, 0.00, 0.00, 0.00, 0.02, 0.01, 1.03
200, -187500.02, 48832.43, 0.00, 0.00, 0.00, 0.00, 0.00, 0.00, 0.02, 0.01, 1.03
201, -187500.02, 48835.72, 0.00, 0.00, 0.00, 0.00, 0.00, 0.00, 0.02, 0.01, 1.03
202, -187500.02, 48859.05, 0.00, 0.00, 0.00, 0.00, 0.00, 0.00, 0.02, 0.01, 1.03
203, -187500.02, 48850.16, 0.00, 0.00, 0.00, 0.00, 0.00, 0.00, 0.02, 0.01, 1.02
204, -187500.02, 48825.57, 0.00, 0.00, 0.00, 0.00, 0.00, 0.00, 0.02, 0.01, 1.02
205, -187500.02, 48827.09, 0.00, 0.00, 0.00, 0.00, 0.00, 0.00, 0.02, 0.01, 1.02
206, -187500.02, 48855.68, 0.00, 0.00, 0.00, 0.00, 0.00, 0.00, 0.02, 0.01, 1.02
207, -187500.02, 48857.76, 0.00, 0.00, 0.00, 0.00, 0.00, 0.00, 0.02, 0.01, 1.02
208, -187500.02, 48838.74, 0.00, 0.00, 0.00, 0.00, 0.00, 0.00, 0.01, 0.01, 1.01
209, -187500.02, 48830.04, 0.00, 0.00, 0.00, 0.00, 0.00, 0.00, 0.01, 0.01, 1.01
210, -187500.02, 48854.45, 0.00, 0.00, 0.00, 0.00, 0.00, 0.00, 0.01, 0.01, 1.01
211, -187500.02, 48870.03, 0.00, 0.00, 0.00, 0.00, 0.00, 0.00, 0.01, 0.01, 1.01
212, -187500.02, 48838.29, 0.00, 0.00, 0.00, 0.00, 0.00, 0.00, 0.01, 0.01, 1.01
213, -187500.02, 48819.79, 0.00, 0.00, 0.00, 0.00, 0.00, 0.00, 0.02, 0.01, 1.01
214, -187500.02, 48839.48, 0.00, 0.00, 0.00, 0.00, 0.00, 0.00, 0.02, 0.01, 1.01
215, -187500.02, 48856.93, 0.00, 0.00, 0.00, 0.00, 0.00, 0.00, 0.02, 0.01, 1.01
216, -187500.02, 48839.95, 0.00, 0.00, 0.00, 0.00, 0.00, 0.00, 0.02, 0.01, 1.01
217, -187500.02, 48821.53, 0.00, 0.00, 0.00, 0.00, 0.00, 0.00, 0.02, 0.01, 1.01
218, -187500.02, 48837.18, 0.00, 0.00, 0.00, 0.00, 0.00, 0.00, 0.01, 0.01, 1.01
219, -187500.02, 48861.43, 0.00, 0.00, 0.00, 0.00, 0.00, 0.00, 0.01, 0.01, 1.01
220, -187500.02, 48849.64, 0.00, 0.00, 0.00, 0.00, 0.00, 0.00, 0.01, 0.01, 1.01
221, -187500.02, 48824.34, 0.00, 0.00, 0.00, 0.00, 0.00, 0.00, 0.01, 0.01, 1.01
222, -187500.02, 48844.46, 0.00, 0.00, 0.00, 0.00, 0.00, 0.00, 0.01, 0.01, 1.01
223, -187500.02, 48874.52, 0.00, 0.00, 0.00, 0.00, 0.00, 0.00, 0.01, 0.01, 1.01
224, -187500.02, 48859.48, 0.00, 0.00, 0.00, 0.00, 0.00, 0.00, 0.01, 0.01, 1.01
225, -187500.02, 48831.47, 0.00, 0.00, 0.00, 0.00, 0.00, 0.00, 0.01, 0.01, 1.01
226, -187500.02, 48830.54, 0.00, 0.00, 0.00, 0.00, 0.00, 0.00, 0.01, 0.01, 1.01
227, -187500.02, 48857.07, 0.00, 0.00, 0.00, 0.00, 0.00, 0.00, 0.01, 0.01, 1.01
228, -187500.02, 48858.70, 0.00, 0.00, 0.00, 0.00, 0.00, 0.00, 0.01, 0.01, 1.02
229, -187500.02, 48828.90, 0.00, 0.00, 0.00, 0.00, 0.00, 0.00, 0.01, 0.01, 1.02
230, -187500.02, 48822.76, 0.00, 0.00, 0.00, 0.00, 0.00, 0.00, 0.01, 0.01, 1.02
231, -187500.02, 48850.23, 0.00, 0.00, 0.00, 0.00, 0.00, 0.00, 0.01, 0.01, 1.02
232, -187500.02, 48854.03, 0.00, 0.00, 0.00, 0.00, 0.00, 0.00, 0.01, 0.01, 1.02
233, -187500.02, 48830.13, 0.00, 0.00, 0.00, 0.00, 0.00, 0.00, 0.01, 0.01, 1.01
234, -187500.02, 48820.70, 0.00, 0.00, 0.00, 0.00, 0.00, 0.00, 0.01, 0.01, 1.01
235, -187500.02, 48842.34, 0.00, 0.00, 0.00, 0.00, 0.00, 0.00, 0.01, 0.01, 1.01
236, -187500.02, 48853.78, 0.00, 0.00, 0.00, 0.00, 0.00, 0.00, 0.01, 0.01, 1.01
237, -187500.02, 48833.02, 0.00, 0.00, 0.00, 0.00, 0.00, 0.00, 0.01, 0.01, 1.01
238, -187500.02, 48816.25, 0.00, 0.00, 0.00, 0.00, 0.00, 0.00, 0.01, 0.01, 1.02
239, -187500.02, 48835.97, 0.00, 0.00, 0.00, 0.00, 0.00, 0.00, 0.01, 0.01, 1.02
240, -187500.02, 48858.48, 0.00, 0.00, 0.00, 0.00, 0.00, 0.00, 0.01, 0.01, 1.02
241, -187500.02, 48843.50, 0.00, 0.00, 0.00, 0.00, 0.00, 0.00, 0.01, 0.01, 1.02
242, -187500.02, 48822.73, 0.00, 0.00, 0.00, 0.00, 0.00, 0.00, 0.01, 0.01, 1.02
243, -187500.02, 48831.86, 0.00, 0.00, 0.00, 0.00, 0.00, 0.00, 0.01, 0.01, 1.02
244, -187500.02, 48859.66, 0.00, 0.00, 0.00, 0.00, 0.00, 0.00, 0.01, 0.01, 1.02
245, -187500.02, 48848.15, 0.00, 0.00, 0.00, 0.00, 0.00, 0.00, 0.01, 0.01, 1.02
246, -187500.02, 48829.06, 0.00, 0.00, 0.00, 0.00, 0.00, 0.00, 0.01, 0.01, 1.02
247, -187500.02, 48832.79, 0.00, 0.00, 0.00, 0.00, 0.00, 0.00, 0.01, 0.01, 1.02
248, -187500.02, 48851.61, 0.00, 0.00, 0.00, 0.00, 0.00, 0.00, 0.01, 0.01, 1.02
249, -187500.02, 48849.73, 0.00, 0.00, 0.00, 0.00, 0.00, 0.00, 0.01, 0.01, 1.02
250, -187500.02, 48825.95, 0.00, 0.00, 0.00, 0.00, 0.00, 0.00, 0.01, 0.01, 1.02
251, -187500.02, 48827.74, 0.00, 0.00, 0.00, 0.00, 0.00, 0.00, 0.01, 0.01, 1.02
252, -187500.02, 48850.96, 0.00, 0.00, 0.00, 0.00, 0.00, 0.00, 0.01, 0.01, 1.02
253, -187500.02, 48850.43, 0.00, 0.00, 0.00, 0.00, 0.00, 0.00, 0.01, 0.01, 1.02
254, -187500.02, 48825.17, 0.00, 0.00, 0.00, 0.00, 0.00, 0.00, 0.01, 0.01, 1.02
255, -187500.02, 48817.46, 0.00, 0.00, 0.00, 0.00, 0.00, 0.00, 0.01, 0.01, 1.02
0, -187500.02, 48846.00, 0.00, 0.00, 0.00, 0.00, 0.00, 0.00, 0.01, 0.01, 1.02
1, -187500.02, 48850.94, 0.00, 0.00, 0.00, 0.00, 0.00, 0.00, 0.01, 0.01, 1.02
2, -187500.02, 48821.08, 0.00, 0.00, 0.00, 0.00, 0.00, 0.00, 0.01, 0.01, 1.02
3, -187500.02, 48808.25, 0.00, 0.00, 0.00, 0.00, 0.00, 0.00, 0.01, 0.01, 1.02
4, -187500.02, 48834.45, 0.00, 0.00, 0.00, 0.00, 0.00, 0.00, 0.01, 0.01, 1.02
5, -187500.02, 48845.91, 0.00, 0.00, 0.00, 0.00, 0.00, 0.00, 0.01, 0.01, 1.02
6, -187500.02, 48830.43, 0.00, 0.00, 0.00, 0.00, 0.00, 0.00, 0.01, 0.01, 1.02
7, -187500.02, 48815.05, 0.00, 0.00, 0.00, 0.00, 0.00, 0.00, 0.01, 0.01, 1.01
8, -187500.02, 48829.46, 0.00, 0.00, 0.00, 0.00, 0.00, 0.00, 0.01, 0.01, 1.01
9, -187500.02, 48846.25, 0.00, 0.00, 0.00, 0.00, 0.00, 0.00, 0.01, 0.01, 1.01
10, -187500.02, 48825.11, 0.00, 0.00, 0.00, 0.00, 0.00, 0.00, 0.01, 0.01, 1.01
11, -187500.02, 48807.80, 0.00, 0.00, 0.00, 0.00, 0.00, 0.00, 0.01, 0.01, 1.01
12, -187500.02, 48823.07, 0.00, 0.00, 0.00, 0.00, 0.00, 0.00, 0.01, 0.01, 1.02
13, -187500.02, 48849.02, 0.00, 0.00, 0.00, 0.00, 0.00, 0.00, 0.01, 0.01, 1.02
14, -187500.02, 48835.63, 0.00, 0.00, 0.00, 0.00, 0.00, 0.00, 0.01, 0.01, 1.02
15, -187500.02, 48812.65, 0.00, 0.00, 0.00, 0.00, 0.00, 0.00, 0.01, 0.01, 1.02
16, -187500.02, 48815.07, 0.00, 0.00, 0.00, 0.00, 0.00, 0.00, 0.01, 0.01, 1.02
17, -187500.02, 48847.43, 0.00, 0.00, 0.00, 0.00, 0.00, 0.00, 0.01, 0.01, 1.02
18, -187500.02, 48842.38, 0.00, 0.00, 0.00, 0.00, 0.00, 0.00, 0.01, 0.01, 1.02
19, -187500.02, 48811.76, 0.00, 0.00, 0.00, 0.00, 0.00, 0.00, 0.01, 0.01, 1.02
20, -187500.02, 48817.86, 0.00, 0.00, 0.00, 0.00, 0.00, 0.00, 0.01, 0.01, 1.02
21, -187500.02, 48843.66, 0.00, 0.00, 0.00, 0.00, 0.00, 0.00, 0.01, 0.01, 1.02
22, -187500.02, 48844.13, 0.00, 0.00, 0.00, 0.00, 0.00, 0.00, 0.01, 0.01, 1.01
23, -187500.02, 48817.13, 0.00, 0.00, 0.00, 0.00, 0.00, 0.00, 0.01, 0.01, 1.01
24, -187500.02, 48806.22, 0.00, 0.00, 0.00, 0.00, 0.00, 0.00, 0.01, 0.01, 1.01
25, -187500.02, 48835.16, 0.00, 0.00, 0.00, 0.00, 0.00, 0.00, 0.01, 0.01, 1.01
26, -187500.02, 48845.67, 0.00, 0.00, 0.00, 0.00, 0.00, 0.00, 0.01, 0.01, 1.01
27, -187500.02, 48821.50, 0.00, 0.00, 0.00, 0.00, 0.00, 0.00, 0.01, 0.00, 1.01
28, -187500.02, 48809.88, 0.00, 0.00, 0.00, 0.00, 0.00, 0.00, 0.01, 0.00, 1.01
29, -187500.02, 48827.96, 0.00, 0.00, 0.00, 0.00, 0.00, 0.00, 0.01, 0.00, 1.01
30, -187500.02, 48840.37, 0.00, 0.00, 0.00, 0.00, 0.00, 0.00, 0.01, 0.00, 1.01
31, -187500.02, 48828.59, 0.00, 0.00, 0.00, 0.00, 0.00, 0.00, 0.01, 0.00, 1.01
32, -187500.02, 48811.27, 0.00, 0.00, 0.00, 0.00, 0.00, 0.00, 0.01, 0.01, 1.02
33, -187500.02, 48830.87, 0.00, 0.00, 0.00, 0.00, 0.00, 0.00, 0.01, 0.01, 1.02
34, -187500.02, 48851.19, 0.00, 0.00, 0.00, 0.00, 0.00, 0.00, 0.01, 0.01, 1.02
35, -187500.02, 48836.53, 0.00, 0.00, 0.00, 0.00, 0.00, 0.00, 0.01, 0.01, 1.02
36, -187500.02, 48811.54, 0.00, 0.00, 0.00, 0.00, 0.00, 0.00, 0.01, 0.01, 1.02
37, -187500.02, 48826.02, 0.00, 0.00, 0.00, 0.00, 0.00, 0.00, 0.01, 0.01, 1.02
38, -187500.02, 48851.77, 0.00, 0.00, 0.00, 0.00, 0.00, 0.00, 0.01, 0.01, 1.02
39, -187500.02, 48839.21, 0.00, 0.00, 0.00, 0.00, 0.00, 0.00, 0.01, 0.01, 1.02
40, -187500.02, 48817.08, 0.00, 0.00, 0.00, 0.00, 0.00, 0.00, 0.01, 0.01, 1.02
41, -187500.02, 48820.88, 0.00, 0.00, 0.00, 0.00, 0.00, 0.00, 0.01, 0.01, 1.02
42, -187500.02, 48845.67, 0.00, 0.00, 0.00, 0.00, 0.00, 0.00, 0.00, 0.01, 1.02
43, -187500.02, 48841.91, 0.00, 0.00, 0.00, 0.00, 0.00, 0.00, 0.00, 0.01, 1.02
44, -187500.02, 48815.96, 0.00, 0.00, 0.00, 0.00, 0.00, 0.00, 0.00, 0.01, 1.02
45, -187500.02, 48808.07, 0.00, 0.00, 0.00, 0.00, 0.00, 0.00, 0.00, 0.01, 1.02
46, -187500.02, 48837.91, 0.00, 0.00, 0.00, 0.00, 0.00, 0.00, 0.00, 0.01, 1.02
47, -187500.02, 48840.59, 0.00, 0.00, 0.00, 0.00, 0.00, 0.00, 0.00, 0.01, 1.02
48, -187500.02, 48810.75, 0.00, 0.00, 0.00, 0.00, 0.00, 0.00, 0.00, 0.01, 1.02
49, -187500.02, 48801.86, 0.00, 0.00, 0.00, 0.00, 0.00, 0.00, 0.00, 0.01, 1.02
50, -187500.02, 48830.65, 0.00, 0.00, 0.00, 0.00, 0.00, 0.00, 0.00, 0.01, 1.02
51, -187500.02, 48842.79, 0.00, 0.00, 0.00, 0.00, 0.00, 0.00, 0.00, 0.01, 1.02
52, -187500.02, 48819.14, 0.00, 0.00, 0.00, 0.00, 0.00, 0.00, 0.01, 0.01, 1.02
53, -187500.02, 48799.94, 0.00, 0.00, 0.00, 0.00, 0.00, 0.00, 0.01, 0.01, 1.02
54, -187500.02, 48829.15, 0.00, 0.00, 0.00, 0.00, 0.00, 0.00, 0.01, 0.01, 1.02
55, -187500.02, 48840.82, 0.00, 0.00, 0.00, 0.00, 0.00, 0.00, 0.01, 0.01, 1.02
56, -187500.02, 48816.99, 0.00, 0.00, 0.00, 0.00, 0.00, 0.00, 0.01, 0.01, 1.02
57, -187500.02, 48791.73, 0.00, 0.00, 0.00, 0.00, 0.00, 0.00, 0.01, 0.02, 1.02
58, -187500.02, 48810.13, 0.00, 0.00, 0.00, 0.00, 0.00, 0.00, 0.01, 0.02, 1.02
59, -187500.02, 48834.45, 0.00, 0.00, 0.00, 0.00, 0.00, 0.00, 0.01, 0.02, 1.02
60, -187500.02, 48816.70, 0.00, 0.00, 0.00, 0.00, 0.00, 0.00, 0.01, 0.02, 1.02
61, -187500.02, 48790.23, 0.00, 0.00, 0.00, 0.00, 0.00, 0.00, 0.01, 0.02, 1.02
62, -187500.02, 48802.80, 0.00, 0.00, 0.00, 0.00, 0.00, 0.00, 0.01, 0.01, 1.03
63, -187500.02, 48828.88, 0.00, 0.00, 0.00, 0.00, 0.00, 0.00, 0.01, 0.01, 1.03
64, -187500.02, 48818.02, 0.00, 0.00, 0.00, 0.00, 0.00, 0.00, 0.01, 0.01, 1.03
65, -187500.02, 48792.92, 0.00, 0.00, 0.00, 0.00, 0.00, 0.00, 0.01, 0.01, 1.03
66, -187500.02, 48802.95, 0.00, 0.00, 0.00, 0.00, 0.00, 0.00, 0.01, 0.01, 1.03
67, -187500.02, 48832.32, 0.00, 0.00, 0.00, 0.00, 0.00, 0.00, 0.01, 0.01, 1.02
68, -187500.02, 48828.90, 0.00, 0.00, 0.00, 0.00, 0.00, 0.00, 0.01, 0.01, 1.02
69, -187500.02, 48804.25, 0.00, 0.00, 0.00, 0.00, 0.00, 0.00, 0.01, 0.01, 1.02
70, -187500.02, 48800.88, 0.00, 0.00, 0.00, 0.00, 0.00, 0.00, 0.01, 0.01, 1.02
71, -187500.02, 48830.25, 0.00, 0.00, 0.00, 0.00, 0.00, 0.00, 0.01, 0.01, 1.02
72, -187500.02, 48838.31, 0.00, 0.00, 0.00, 0.00, 0.00, 0.00, 0.01, 0.01, 1.02
73, -187500.02, 48814.55, 0.00, 0.00, 0.00, 0.00, 0.00, 0.00, 0.01, 0.01, 1.02
74, -187500.02, 48809.26, 0.00, 0.00, 0.00, 0.00, 0.00, 0.00, 0.01, 0.01, 1.02
75, -187500.02, 48835.65, 0.00, 0.00, 0.00, 0.00, 0.00, 0.00, 0.01, 0.01, 1.02
76, -187500.02, 48846.18, 0.00, 0.00, 0.00, 0.00, 0.00, 0.00, 0.01, 0.01, 1.02
77, -187500.02, 48824.75, 0.00, 0.00, 0.00, 0.00, 0.00, 0.00, 0.01, 0.01, 1.02
78, -187500.02, 48809.46, 0.00, 0.00, 0.00, 0.00, 0.00, 0.00, 0.01, 0.01, 1.02
79, -187500.02, 48829.75, 0.00, 0.00, 0.00, 0.00, 0.00, 0.00, 0.01, 0.01, 1.02
80, -187500.02, 48845.04, 0.00, 0.00, 0.00, 0.00, 0.00, 0.00, 0.01, 0.01, 1.02
81, -187500.02, 48823.09, 0.00, 0.00, 0.00, 0.00, 0.00, 0.00, 0.01, 0.01, 1.02
82, -187500.02, 48807.58, 0.00, 0.00, 0.00, 0.00, 0.00, 0.00, 0.01, 0.01, 1.02
83, -187500.02, 48820.07, 0.00, 0.00, 0.00, 0.00, 0.00, 0.00, 0.01, 0.01, 1.02
84, -187500.02, 48836.41, 0.00, 0.00, 0.00, 0.00, 0.00, 0.00, 0.01, 0.01, 1.02
85, -187500.02, 48817.46, 0.00, 0.00, 0.00, 0.00, 0.00, 0.00, 0.01, 0.01, 1.02
86, -187500.02, 48803.63, 0.00, 0.00, 0.00, 0.00, 0.00, 0.00, 0.01, 0.01, 1.02
87, -187500.02, 48814.11, 0.00, 0.00, 0.00, 0.00, 0.00, 0.00, 0.01, 0.01, 1.02
88, -187500.02, 48833.24, 0.00, 0.00, 0.00, 0.00, 0.00, 0.00, 0.01, 0.01, 1.02
89, -187500.02, 48821.15, 0.00, 0.00, 0.00, 0.00, 0.00, 0.00, 0.01, 0.01, 1.02
90, -187500.02, 48796.16, 0.00, 0.00, 0.00, 0.00, 0.00, 0.00, 0.01, 0.01, 1.02
91, -187500.02, 48794.39, 0.00, 0.00, 0.00, 0.00, 0.00, 0.00, 0.01, 0.01, 1.02
92, -187500.02, 48816.92, 0.00, 0.00, 0.00, 0.00, 0.00, 0.00, 0.01, 0.01, 1.02
93, -187500.02, 48811.80, 0.00, 0.00, 0.00, 0.00, 0.00, 0.00, 0.01, 0.01, 1.02
94, -187500.02, 48784.11, 0.00, 0.00, 0.00, 0.00, 0.00, 0.00, 0.01, 0.01, 1.02
95, -187500.02, 48783.20, 0.00, 0.00, 0.00, 0.00, 0.00, 0.00, 0.01, 0.01, 1.02
96, -187500.02, 48812.48, 0.00, 0.00, 0.00, 0.00, 0.00, 0.00, 0.01, 0.01, 1.02
97, -187500.02, 48820.19, 0.00, 0.00, 0.00, 0.00, 0.00, 0.00, 0.01, 0.01, 1.01
98, -187500.02, 48796.83, 0.00, 0.00, 0.00, 0.00, 0.00, 0.00, 0.01, 0.01, 1.01
99, -187500.02, 48789.70, 0.00, 0.00, 0.00, 0.00, 0.00, 0.00, 0.01, 0.01, 1.01
100, -187500.02, 48821.28, 0.00, 0.00, 0.00, 0.00, 0.00, 0.00, 0.01, 0.01, 1.01
101, -187500.02, 48832.01, 0.00, 0.00, 0.00, 0.00, 0.00, 0.00, 0.01, 0.01, 1.01
102, -187500.02, 48799.20, 0.00, 0.00, 0.00, 0.00, 0.00, 0.00, 0.01, 0.01, 1.02
103, -187500.02, 48788.78, 0.00, 0.00, 0.00, 0.00, 0.00, 0.00, 0.01, 0.01, 1.02
104, -187500.02, 48809.14, 0.00, 0.00, 0.00, 0.00, 0.00, 0.00, 0.01, 0.01, 1.02
105, -187500.02, 48825.57, 0.00, 0.00, 0.00, 0.00, 0.00, 0.00, 0.01, 0.01, 1.02
106, -187500.02, 48802.60, 0.00, 0.00, 0.00, 0.00, 0.00, 0.00, 0.01, 0.01, 1.02
107, -187500.02, 48775.10, 0.00, 0.00, 0.00, 0.00, 0.00, 0.00, 0.01, 0.01, 1.01
108, -187500.02, 48794.97, 0.00, 0.00, 0.00, 0.00, 0.00, 0.00, 0.01, 0.01, 1.01
109, -187500.02, 48814.96, 0.00, 0.00, 0.00, 0.00, 0.00, 0.00, 0.01, 0.01, 1.01
110, -187500.02, 48791.46, 0.00, 0.00, 0.00, 0.00, 0.00, 0.00, 0.01, 0.01, 1.01
111, -187500.02, 48776.73, 0.00, 0.00, 0.00, 0.00, 0.00, 0.00, 0.01, 0.01, 1.01
112, -187500.02, 48788.52, 0.00, 0.00, 0.00, 0.00, 0.00, 0.00, 0.01, 0.01, 1.01
113, -187500.02, 48811.27, 0.00, 0.00, 0.00, 0.00, 0.00, 0.00, 0.01, 0.01, 1.01
114, -187500.02, 48801.07, 0.00, 0.00, 0.00, 0.00, 0.00, 0.00, 0.01, 0.01, 1.01
115, -187500.02, 48780.45, 0.00, 0.00, 0.00, 0.00, 0.00, 0.00, 0.01, 0.01, 1.01
116, -187500.02, 48780.54, 0.00, 0.00, 0.00, 0.00, 0.00, 0.00, 0.01, 0.01, 1.01
117, -187500.02, 48805.46, 0.00, 0.00, 0.00, 0.00, 0.00, 0.00, 0.02, 0.01, 1.02
118, -187500.02, 48800.85, 0.00, 0.00, 0.00, 0.00, 0.00, 0.00, 0.02, 0.01, 1.02
119, -187500.02, 48776.29, 0.00, 0.00, 0.00, 0.00, 0.00, 0.00, 0.02, 0.01, 1.02
120, -187500.02, 48775.21, 0.00, 0.00, 0.00, 0.00, 0.00, 0.00, 0.02, 0.01, 1.02
121, -187500.02, 48800.70, 0.00, 0.00, 0.00, 0.00, 0.00, 0.00, 0.02, 0.01, 1.02
122, -187500.02, 48802.35, 0.00, 0.00, 0.00, 0.00, 0.00, 0.00, 0.02, 0.01, 1.02
123, -187500.02, 48786.32, 0.00, 0.00, 0.00, 0.00, 0.00, 0.00, 0.02, 0.01, 1.02
124, -187500.02, 48783.46, 0.00, 0.00, 0.00, 0.00, 0.00, 0.00, 0.02, 0.01, 1.02
125, -187500.02, 48811.22, 0.00, 0.00, 0.00, 0.00, 0.00, 0.00, 0.02, 0.01, 1.02
126, -187500.02, 48823.61, 0.00, 0.00, 0.00, 0.00, 0.00, 0.00, 0.02, 0.01, 1.02
127, -187500.02, 48805.52, 0.00, 0.00, 0.00, 0.00, 0.00, 0.00, 0.02, 0.01, 1.02
128, -187500.02, 48791.60, 0.00, 0.00, 0.00, 0.00, 0.00, 0.00, 0.01, 0.01, 1.02
129, -187500.02, 48811.13, 0.00, 0.00, 0.00, 0.00, 0.00, 0.00, 0.01, 0.01, 1.02
130, -187500.02, 48834.89, 0.00, 0.00, 0.00, 0.00, 0.00, 0.00, 0.01, 0.01, 1.02
131, -187500.02, 48812.01, 0.00, 0.00, 0.00, 0.00, 0.00, 0.00, 0.01, 0.01, 1.02
132, -187500.02, 48786.55, 0.00, 0.00, 0.00, 0.00, 0.00, 0.00, 0.01, 0.01, 1.02
133, -187500.02, 48802.91, 0.00, 0.00, 0.00, 0.00, 0.00, 0.00, 0.01, 0.01, 1.02
134, -187500.02, 48825.33, 0.00, 0.00, 0.00, 0.00, 0.00, 0.00, 0.01, 0.01, 1.02
135, -187500.02, 48812.27, 0.00, 0.00, 0.00, 0.00, 0.00, 0.00, 0.01, 0.01, 1.02
136, -187500.02, 48792.23, 0.00, 0.00, 0.00, 0.00, 0.00, 0.00, 0.01, 0.01, 1.02
137, -187500.02, 48798.06, 0.00, 0.00, 0.00, 0.00, 0.00, 0.00, 0.01, 0.01, 1.02
138, -187500.02, 48822.13, 0.00, 0.00, 0.00, 0.00, 0.00, 0.00, 0.01, 0.01, 1.03
139, -187500.02, 48813.44, 0.00, 0.00, 0.00, 0.00, 0.00, 0.00, 0.01, 0.01, 1.03
140, -187500.02, 48788.34, 0.00, 0.00, 0.00, 0.00, 0.00, 0.00, 0.01, 0.01, 1.03
141, -187500.02, 48787.96, 0.00, 0.00, 0.00, 0.00, 0.00, 0.00, 0.01, 0.01, 1.03
142, -187500.02, 48820.16, 0.00, 0.00, 0.00, 0.00, 0.00, 0.00, 0.01, 0.01, 1.03
143, -187500.02, 48821.93, 0.00, 0.00, 0.00, 0.00, 0.00, 0.00, 0.01, 0.01, 1.03
144, -187500.02, 48800.14, 0.00, 0.00, 0.00, 0.00, 0.00, 0.00, 0.01, 0.01, 1.03
145, -187500.02, 48790.86, 0.00, 0.00, 0.00, 0.00, 0.00, 0.00, 0.01, 0.01, 1.03
146, -187500.02, 48812.95, 0.00, 0.00, 0.00, 0.00, 0.00, 0.00, 0.01, 0.01, 1.03
147, -187500.02, 48819.29, 0.00, 0.00, 0.00, 0.00, 0.00, 0.00, 0.01, 0.01, 1.03
148, -187500.02, 48788.80, 0.00, 0.00, 0.00, 0.00, 0.00, 0.00, 0.01, 0.02, 1.03
149, -187500.02, 48778.03, 0.00, 0.00, 0.00, 0.00, 0.00, 0.00, 0.01, 0.02, 1.03
150, -187500.02, 48805.03, 0.00, 0.00, 0.00, 0.00, 0.00, 0.00, 0.01, 0.02, 1.03
151, -187500.02, 48826.24, 0.00, 0.00, 0.00, 0.00, 0.00, 0.00, 0.01, 0.02, 1.03
152, -187500.02, 48808.07, 0.00, 0.00, 0.00, 0.00, 0.00, 0.00, 0.01, 0.02, 1.03
153, -187500.02, 48786.28, 0.00, 0.00, 0.00, 0.00, 0.00, 0.00, 0.01, 0.01, 1.03
154, -187500.02, 48805.99, 0.00, 0.00, 0.00, 0.00, 0.00, 0.00, 0.01, 0.01, 1.03
155, -187500.02, 48829.62, 0.00, 0.00, 0.00, 0.00, 0.00, 0.00, 0.01, 0.01, 1.03
156, -187500.02, 48813.84, 0.00, 0.00, 0.00, 0.00, 0.00, 0.00, 0.01, 0.01, 1.03
157, -187500.02, 48797.19, 0.00, 0.00, 0.00, 0.00, 0.00, 0.00, 0.01, 0.01, 1.03
158, -187500.02, 48807.87, 0.00, 0.00, 0.00, 0.00, 0.00, 0.00, 0.01, 0.01, 1.02
159, -187500.02, 48832.84, 0.00, 0.00, 0.00, 0.00, 0.00, 0.00, 0.01, 0.01, 1.02
160, -187500.02, 48820.37, 0.00, 0.00, 0.00, 0.00, 0.00, 0.00, 0.01, 0.01, 1.02
161, -187500.02, 48788.25, 0.00, 0.00, 0.00, 0.00, 0.00, 0.00, 0.01, 0.01, 1.02
162, -187500.02, 48792.18, 0.00, 0.00, 0.00, 0.00, 0.00, 0.00, 0.01, 0.01, 1.02
163, -187500.02, 48821.21, 0.00, 0.00, 0.00, 0.00, 0.00, 0.00, 0.01, 0.01, 1.02
164, -187500.02, 48814.31, 0.00, 0.00, 0.00, 0.00, 0.00, 0.00, 0.01, 0.01, 1.02
165, -187500.02, 48787.24, 0.00, 0.00, 0.00, 0.00, 0.00, 0.00, 0.01, 0.01, 1.02
166, -187500.02, 48788.49, 0.00, 0.00, 0.00, 0.00, 0.00, 0.00, 0.01, 0.01, 1.02
167, -187500.02, 48818.13, 0.00, 0.00, 0.00, 0.00, 0.00, 0.00, 0.01, 0.01, 1.02
168, -187500.02, 48818.62, 0.00, 0.00, 0.00, 0.00, 0.00, 0.00, 0.01, 0.01, 1.03
169, -187500.02, 48794.41, 0.00, 0.00, 0.00, 0.00, 0.00, 0.00, 0.01, 0.01, 1.03
170, -187500.02, 48790.05, 0.00, 0.00, 0.00, 0.00, 0.00, 0.00, 0.01, 0.01, 1.03
171, -187500.02, 48814.33, 0.00, 0.00, 0.00, 0.00, 0.00, 0.00, 0.01, 0.01, 1.03
172, -187500.02, 48820.03, 0.00, 0.00, 0.00, 0.00, 0.00, 0.00, 0.01, 0.01, 1.03
173, -187500.02, 48795.98, 0.00, 0.00, 0.00, 0.00, 0.00, 0.00, 0.01, 0.01, 1.03
174, -187500.02, 48787.69, 0.00, 0.00, 0.00, 0.00, 0.00, 0.00, 0.01, 0.01, 1.03
175, -187500.02, 48814.91, 0.00, 0.00, 0.00, 0.00, 0.00, 0.00, 0.01, 0.01, 1.03
176, -187500.02, 48828.37, 0.00, 0.00, 0.00, 0.00, 0.00, 0.00, 0.01, 0.01, 1.03
177, -187500.02, 48808.92, 0.00, 0.00, 0.00, 0.00, 0.00, 0.00, 0.01, 0.01, 1.03
178, -187500.02, 48795.93, 0.00, 0.00, 0.00, 0.00, 0.00, 0.00, 0.01, 0.01, 1.02
179, -187500.02, 48813.37, 0.00, 0.00, 0.00, 0.00, 0.00, 0.00, 0.01, 0.01, 1.02
180, -187500.02, 48837.31, 0.00, 0.00, 0.00, 0.00, 0.00, 0.00, 0.01, 0.01, 1.02
181, -187500.02, 48819.49, 0.00, 0.00, 0.00, 0.00, 0.00, 0.00, 0.01, 0.01, 1.02
182, -187500.02, 48799.29, 0.00, 0.00, 0.00, 0.00, 0.00, 0.00, 0.01, 0.01, 1.02
183, -187500.02, 48808.99, 0.00, 0.00, 0.00, 0.00, 0.00, 0.00, 0.01, 0.01, 1.02
184, -187500.02, 48831.12, 0.00, 0.00, 0.00, 0.00, 0.00, 0.00, 0.01, 0.01, 1.02
185, -187500.02, 48821.84, 0.00, 0.00, 0.00, 0.00, 0.00, 0.00, 0.01, 0.01, 1.02
186, -187500.02, 48796.38, 0.00, 0.00, 0.00, 0.00, 0.00, 0.00, 0.01, 0.01, 1.02
187, -187500.02, 48798.26, 0.00, 0.00, 0.00, 0.00, 0.00, 0.00, 0.01, 0.01, 1.02
188, -187500.02, 48824.28, 0.00, 0.00, 0.00, 0.00, 0.00, 0.00, 0.00, 0.01, 1.01
189, -187500.02, 48824.12, 0.00, 0.00, 0.00, 0.00, 0.00, 0.00, 0.00, 0.01, 1.01
190, -187500.02, 48793.43, 0.00, 0.00, 0.00, 0.00, 0.00, 0.00, 0.00, 0.01, 1.01
191, -187500.02, 48792.16, 0.00, 0.00, 0.00, 0.00, 0.00, 0.00, 0.00, 0.01, 1.01
192, -187500.02, 48819.14, 0.00, 0.00, 0.00, 0.00, 0.00, 0.00, 0.00, 0.01, 1.01
193, -187500.02, 48821.66, 0.00, 0.00, 0.00, 0.00, 0.00, 0.00, 0.01, 0.01, 1.01
194, -187500.02, 48791.80, 0.00, 0.00, 0.00, 0.00, 0.00, 0.00, 0.01, 0.01, 1.01
195, -187500.02, 48787.91, 0.00, 0.00, 0.00, 0.00, 0.00, 0.00, 0.01, 0.01, 1.01
196, -187500.02, 48812.48, 0.00, 0.00, 0.00, 0.00, 0.00, 0.00, 0.01, 0.01, 1.01
197, -187500.02, 48819.47, 0.00, 0.00, 0.00, 0.00, 0.00, 0.00, 0.01, 0.01, 1.01
198, -187500.02, 48793.54, 0.00, 0.00, 0.00, 0.00, 0.00, 0.00, 0.01, 0.01, 1.02
199, -187500.02, 48771.68, 0.00, 0.00, 0.00, 0.00, 0.00, 0.00, 0.01, 0.01, 1.02
200, -187500.02, 48799.11, 0.00, 0.00, 0.00, 0.00, 0.00, 0.00, 0.01, 0.01, 1.02
201, -187500.02, 48816.50, 0.00, 0.00, 0.00, 0.00, 0.00, 0.00, 0.01, 0.01, 1.02
202, -187500.02, 48798.37, 0.00, 0.00, 0.00, 0.00, 0.00, 0.00, 0.01, 0.01, 1.02
203, -187500.02, 48783.11, 0.00, 0.00, 0.00, 0.00, 0.00, 0.00, 0.01, 0.01, 1.02
204, -187500.02, 48804.47, 0.00, 0.00, 0.00, 0.00, 0.00, 0.00, 0.01, 0.01, 1.02
205, -187500.02, 48826.85, 0.00, 0.00, 0.00, 0.00, 0.00, 0.00, 0.01, 0.01, 1.02
206, -187500.02, 48809.04, 0.00, 0.00, 0.00, 0.00, 0.00, 0.00, 0.01, 0.01, 1.02
207, -187500.02, 48788.36, 0.00, 0.00, 0.00, 0.00, 0.00, 0.00, 0.01, 0.01, 1.02
208, -187500.02, 48801.55, 0.00, 0.00, 0.00, 0.00, 0.00, 0.00, 0.01, 0.01, 1.02
209, -187500.02, 48825.91, 0.00, 0.00, 0.00, 0.00, 0.00, 0.00, 0.01, 0.01, 1.02
210, -187500.02, 48815.94, 0.00, 0.00, 0.00, 0.00, 0.00, 0.00, 0.01, 0.01, 1.02
211, -187500.02, 48792.23, 0.00, 0.00, 0.00, 0.00, 0.00, 0.00, 0.01, 0.01, 1.02
212, -187500.02, 48790.08, 0.00, 0.00, 0.00, 0.00, 0.00, 0.00, 0.01, 0.01, 1.02
213, -187500.02, 48820.75, 0.00, 0.00, 0.00, 0.00, 0.00, 0.00, 0.01, 0.01, 1.02
214, -187500.02, 48816.48, 0.00, 0.00, 0.00, 0.00, 0.00, 0.00, 0.01, 0.01, 1.02
215, -187500.02, 48792.80, 0.00, 0.00, 0.00, 0.00, 0.00, 0.00, 0.01, 0.01, 1.02
216, -187500.02, 48793.14, 0.00, 0.00, 0.00, 0.00, 0.00, 0.00, 0.01, 0.01, 1.02
217, -187500.02, 48821.86, 0.00, 0.00, 0.00, 0.00, 0.00, 0.00, 0.01, 0.01, 1.02
218, -187500.02, 48825.06, 0.00, 0.00, 0.00, 0.00, 0.00, 0.00, 0.01, 0.01, 1.02
219, -187500.02, 48802.71, 0.00, 0.00, 0.00, 0.00, 0.00, 0.00, 0.01, 0.01, 1.02
220, -187500.02, 48793.14, 0.00, 0.00, 0.00, 0.00, 0.00, 0.00, 0.01, 0.01, 1.02
221, -187500.02, 48818.53, 0.00, 0.00, 0.00, 0.00, 0.00, 0.00, 0.01, 0.01, 1.02
222, -187500.02, 48831.47, 0.00, 0.00, 0.00, 0.00, 0.00, 0.00, 0.01, 0.01, 1.02
223, -187500.02, 48803.78, 0.00, 0.00, 0.00, 0.00, 0.00, 0.00, 0.01, 0.01, 1.02
224, -187500.02, 48789.05, 0.00, 0.00, 0.00, 0.00, 0.00, 0.00, 0.01, 0.01, 1.02
225, -187500.02, 48807.29, 0.00, 0.00, 0.00, 0.00, 0.00, 0.00, 0.01, 0.01, 1.02
226, -187500.02, 48829.91, 0.00, 0.00, 0.00, 0.00, 0.00, 0.00, 0.01, 0.01, 1.02
227, -187500.02, 48813.79, 0.00, 0.00, 0.00, 0.00, 0.00, 0.00, 0.01, 0.01, 1.02
228, -187500.02, 48797.37, 0.00, 0.00, 0.00, 0.00, 0.00, 0.00, 0.01, 0.02, 1.02
229, -187500.02, 48812.01, 0.00, 0.00, 0.00, 0.00, 0.00, 0.00, 0.01, 0.02, 1.02
230, -187500.02, 48837.35, 0.00, 0.00, 0.00, 0.00, 0.00, 0.00, 0.01, 0.02, 1.02
231, -187500.02, 48820.01, 0.00, 0.00, 0.00, 0.00, 0.00, 0.00, 0.01, 0.02, 1.02
232, -187500.02, 48794.66, 0.00, 0.00, 0.00, 0.00, 0.00, 0.00, 0.01, 0.02, 1.02
233, -187500.02, 48807.74, 0.00, 0.00, 0.00, 0.00, 0.00, 0.00, 0.01, 0.01, 1.02
234, -187500.02, 48828.28, 0.00, 0.00, 0.00, 0.00, 0.00, 0.00, 0.01, 0.01, 1.02
235, -187500.02, 48815.85, 0.00, 0.00, 0.00, 0.00, 0.00, 0.00, 0.01, 0.01, 1.02
236, -187500.02, 48785.92, 0.00, 0.00, 0.00, 0.00, 0.00, 0.00, 0.01, 0.01, 1.02
237, -187500.02, 48784.87, 0.00, 0.00, 0.00, 0.00, 0.00, 0.00, 0.01, 0.01, 1.02
238, -187500.02, 48815.98, 0.00, 0.00, 0.00, 0.00, 0.00, 0.00, 0.01, 0.02, 1.02
239, -187500.02, 48812.79, 0.00, 0.00, 0.00, 0.00, 0.00, 0.00, 0.01, 0.02, 1.02
240, -187500.02, 48786.77, 0.00, 0.00, 0.00, 0.00, 0.00, 0.00, 0.01, 0.02, 1.02
241, -187500.02, 48786.05, 0.00, 0.00, 0.00, 0.00, 0.00, 0.00, 0.01, 0.02, 1.02
242, -187500.02, 48808.16, 0.00, 0.00, 0.00, 0.00, 0.00, 0.00, 0.01, 0.02, 1.02
243, -187500.02, 48811.13, 0.00, 0.00, 0.00, 0.00, 0.00, 0.00, 0.00, 0.01, 1.02
244, -187500.02, 48794.59, 0.00, 0.00, 0.00, 0.00, 0.00, 0.00, 0.00, 0.01, 1.02
245, -187500.02, 48782.97, 0.00, 0.00, 0.00, 0.00, 0.00, 0.00, 0.00, 0.01, 1.02
246, -187500.02, 48802.20, 0.00, 0.00, 0.00, 0.00, 0.00, 0.00, 0.00, 0.01, 1.02
247, -187500.02, 48816.43, 0.00, 0.00, 0.00, 0.00, 0.00, 0.00, 0.00, 0.01, 1.02
248, -187500.02, 48788.78, 0.00, 0.00, 0.00, 0.00, 0.00, 0.00, 0.00, 0.01, 1.02
249, -187500.02, 48773.49, 0.00, 0.00, 0.00, 0.00, 0.00, 0.00, 0.00, 0.01, 1.02
250, -187500.02, 48795.06, 0.00, 0.00, 0.00, 0.00, 0.00, 0.00, 0.00, 0.01, 1.02
251, -187500.02, 48806.78, 0.00, 0.00, 0.00, 0.00, 0.00, 0.00, 0.00, 0.01, 1.02
252, -187500.02, 48789.32, 0.00, 0.00, 0.00, 0.00, 0.00, 0.00, 0.00, 0.01, 1.02
253, -187500.02, 48773.70, 0.00, 0.00, 0.00, 0.00, 0.00, 0.00, 0.01, 0.01, 1.02
254, -187500.02, 48792.80, 0.00, 0.00, 0.00, 0.00, 0.00, 0.00, 0.01, 0.01, 1.02
255, -187500.02, 48807.47, 0.00, 0.00, 0.00, 0.00, 0.00, 0.00, 0.01, 0.01, 1.02
0, -187500.02, 48792.65, 0.00, 0.00, 0.00, 0.00, 0.00, 0.00, 0.01, 0.01, 1.02
1, -187500.02, 48771.41, 0.00, 0.00, 0.00, 0.00, 0.00, 0.00, 0.01, 0.01, 1.02
2, -187500.02, 48779.86, 0.00, 0.00, 0.00, 0.00, 0.00, 0.00, 0.01, 0.01, 1.02
3, -187500.02, 48807.78, 0.00, 0.00, 0.00, 0.00, 0.00, 0.00, 0.01, 0.01, 1.02
4, -187500.02, 48801.37, 0.00, 0.00, 0.00, 0.00, 0.00, 0.00, 0.01, 0.01, 1.02
5, -187500.02, 48775.37, 0.00, 0.00, 0.00, 0.00, 0.00, 0.00, 0.01, 0.01, 1.02
6, -187500.02, 48777.61, 0.00, 0.00, 0.00, 0.00, 0.00, 0.00, 0.01, 0.01, 1.02
7, -187500.02, 48809.86, 0.00, 0.00, 0.00, 0.00, 0.00, 0.00, 0.01, 0.01, 1.02
8, -187500.02, 48808.14, 0.00, 0.00, 0.00, 0.00, 0.00, 0.00, 0.01, 0.01, 1.02
9, -187500.02, 48779.53, 0.00, 0.00, 0.00, 0.00, 0.00, 0.00, 0.01, 0.01, 1.02
10, -187500.02, 48775.89, 0.00, 0.00, 0.00, 0.00, 0.00, 0.00, 0.01, 0.01, 1.02
11, -187500.02, 48804.65, 0.00, 0.00, 0.00, 0.00, 0.00, 0.00, 0.01, 0.01, 1.02
12, -187500.02, 48812.90, 0.00, 0.00, 0.00, 0.00, 0.00, 0.00, 0.01, 0.01, 1.02
13, -187500.02, 48791.24, 0.00, 0.00, 0.00, 0.00, 0.00, 0.00, 0.01, 0.01, 1.02
14, -187500.02, 48776.64, 0.00, 0.00, 0.00, 0.00, 0.00, 0.00, 0.01, 0.01, 1.02
15, -187500.02, 48803.71, 0.00, 0.00, 0.00, 0.00, 0.00, 0.00, 0.01, 0.01, 1.02
16, -187500.02, 48814.71, 0.00, 0.00, 0.00, 0.00, 0.00, 0.00, 0.01, 0.01, 1.02
17, -187500.02, 48788.11, 0.00, 0.00, 0.00, 0.00, 0.00, 0.00, 0.01, 0.01, 1.02
18, -187500.02, 48775.37, 0.00, 0.00, 0.00, 0.00, 0.00, 0.00, 0.01, 0.01, 1.02
19, -187500.02, 48792.18, 0.00, 0.00, 0.00, 0.00, 0.00, 0.00, 0.01, 0.01, 1.02
20, -187500.02, 48810.42, 0.00, 0.00, 0.00, 0.00, 0.00, 0.00, 0.01, 0.01, 1.02
21, -187500.02, 48789.18, 0.00, 0.00, 0.00, 0.00, 0.00, 0.00, 0.01, 0.01, 1.02
22, -187500.02, 48770.25, 0.00, 0.00, 0.00, 0.00, 0.00, 0.00, 0.01, 0.01, 1.02
23, -187500.02, 48793.10, 0.00, 0.00, 0.00, 0.00, 0.00, 0.00, 0.01, 0.01, 1.02
24, -187500.02, 48814.58, 0.00, 0.00, 0.00, 0.00, 0.00, 0.00, 0.01, 0.01, 1.02
25, -187500.02, 48800.96, 0.00, 0.00, 0.00, 0.00, 0.00, 0.00, 0.01, 0.01, 1.02
26, -187500.02, 48774.86, 0.00, 0.00, 0.00, 0.00, 0.00, 0.00, 0.01, 0.01, 1.02
27, -187500.02, 48783.35, 0.00, 0.00, 0.00, 0.00, 0.00, 0.00, 0.01, 0.01, 1.02
28, -187500.02, 48814.06, 0.00, 0.00, 0.00, 0.00, 0.00, 0.00, 0.01, 0.01, 1.02
29, -187500.02, 48808.23, 0.00, 0.00, 0.00, 0.00, 0.00, 0.00, 0.01, 0.01, 1.02
30, -187500.02, 48783.86, 0.00, 0.00, 0.00, 0.00, 0.00, 0.00, 0.01, 0.01, 1.02
31, -187500.02, 48789.65, 0.00, 0.00, 0.00, 0.00, 0.00, 0.00, 0.01, 0.01, 1.02
32, -187500.02, 48812.88, 0.00, 0.00, 0.00, 0.00, 0.00, 0.00, 0.01, 0.01, 1.02
33, -187500.02, 48828.75, 0.00, 0.00, 0.00, 0.00, 0.00, 0.00, 0.01, 0.01, 1.02
34, -187500.02, 48839.12, 0.00, 0.00, 0.00, 0.00, 0.00, 0.00, 0.01, 0.01, 1.02
35, -187500.02, 48815.14, 0.00, 0.00, 0.00, 0.00, 0.00, 0.00, 0.01, 0.01, 1.02
36, -187500.02, 48803.80, 0.00, 0.00, 0.00, 0.00, 0.00, 0.00, 0.01, 0.01, 1.02
37, -187500.02, 48817.84, 0.00, 0.00, 0.00, 0.00, 0.00, 0.00, 0.02, 0.01, 1.01
38, -187500.02, 48808.07, 0.00, 0.00, 0.00, 0.00, 0.00, 0.00, 0.02, 0.01, 1.01
39, -187500.02, 48802.55, 0.00, 0.00, 0.00, 0.00, 0.00, 0.00, 0.02, 0.01, 1.01
40, -187500.02, 48827.85, 0.00, 0.00, 0.00, 0.00, 0.00, 0.00, 0.02, 0.01, 1.01
41, -187500.02, 48853.02, 0.00, 0.00, 0.00, 0.00, 0.00, 0.00, 0.02, 0.01, 1.01
42, -187500.02, 48843.03, 0.00, 0.00, 0.00, 0.00, 0.00, 0.00, 0.01, 0.01, 1.02
43, -187500.02, 48828.66, 0.00, 0.00, 0.00, 0.00, 0.00, 0.00, 0.01, 0.01, 1.02
44, -187500.02, 48846.81, 0.00, 0.00, 0.00, 0.00, 0.00, 0.00, 0.01, 0.01, 1.02
45, -187500.02, 48878.88, 0.00, 0.00, 0.00, 0.00, 0.00, 0.00, 0.01, 0.01, 1.02
46, -187500.02, 48870.61, 0.00, 0.00, 0.00, 0.00, 0.00, 0.00, 0.01, 0.01, 1.02
47, -187500.02, 48843.66, 0.00, 0.00, 0.00, 0.00, 0.00, 0.00, 0.02, 0.00, 1.01
48, -187500.02, 48852.39, 0.00, 0.00, 0.00, 0.00, 0.00, 0.00, 0.02, 0.00, 1.01
49, -187500.02, 48886.97, 0.00, 0.00, 0.00, 0.00, 0.00, 0.00, 0.02, 0.00, 1.01
50, -187500.02, 48885.23, 0.00, 0.00, 0.00, 0.00, 0.00, 0.00, 0.02, 0.00, 1.01
51, -187500.02, 48858.14, 0.00, 0.00, 0.00, 0.00, 0.00, 0.00, 0.02, 0.00, 1.01
52, -187500.02, 48864.89, 0.00, 0.00, 0.00, 0.00, 0.00, 0.00, 0.02, 0.00, 1.02
53, -187500.02, 48893.19, 0.00, 0.00, 0.00, 0.00, 0.00, 0.00, 0.02, 0.00, 1.02
54, -187500.02, 48891.18, 0.00, 0.00, 0.00, 0.00, 0.00, 0.00, 0.02, 0.00, 1.02
55, -187500.02, 48865.23, 0.00, 0.00, 0.00, 0.00, 0.00, 0.00, 0.02, 0.00, 1.02
56, -187500.02, 48863.95, 0.00, 0.00, 0.00, 0.00, 0.00, 0.00, 0.02, 0.00, 1.02
57, -187500.02, 48893.39, 0.00, 0.00, 0.00, 0.00, 0.00, 0.00, 0.01, 0.00, 1.01
58, -187500.02, 48897.97, 0.00, 0.00, 0.00, 0.00, 0.00, 0.00, 0.01, 0.00, 1.01
59, -187500.02, 48871.62, 0.00, 0.00, 0.00, 0.00, 0.00, 0.00, 0.01, 0.00, 1.01
60, -187500.02, 48859.30, 0.00, 0.00, 0.00, 0.00, 0.00, 0.00, 0.01, 0.00, 1.01
61, -187500.02, 48896.99, 0.00, 0.00, 0.00, 0.00, 0.00, 0.00, 0.01, 0.00, 1.01
62, -187500.02, 48911.34, 0.00, 0.00, 0.00, 0.00, 0.00, 0.00, 0.01, 0.01, 1.01
63, -187500.02, 48883.93, 0.00, 0.00, 0.00, 0.00, 0.00, 0.00, 0.01, 0.01, 1.01
64, -187500.02, 48875.08, 0.00, 0.00, 0.00, 0.00, 0.00, 0.00, 0.01, 0.01, 1.01
65, -187500.02, 48900.23, 0.00, 0.00, 0.00, 0.00, 0.00, 0.00, 0.01, 0.01, 1.01
66, -187500.02, 48913.19, 0.00, 0.00, 0.00, 0.00, 0.00, 0.00, 0.01, 0.01, 1.01
67, -187500.02, 48897.55, 0.00, 0.00, 0.00, 0.00, 0.00, 0.00, 0.01, 0.01, 1.02
68, -187500.02, 48872.89, 0.00, 0.00, 0.00, 0.00, 0.00, 0.00, 0.01, 0.01, 1.02
69, -187500.02, 48889.95, 0.00, 0.00, 0.00, 0.00, 0.00, 0.00, 0.01, 0.01, 1.02
70, -187500.02, 48918.20, 0.00, 0.00, 0.00, 0.00, 0.00, 0.00, 0.01, 0.01, 1.02
71, -187500.02, 48901.28, 0.00, 0.00, 0.00, 0.00, 0.00, 0.00, 0.01, 0.01, 1.02
72, -187500.02, 48870.21, 0.00, 0.00, 0.00, 0.00, 0.00, 0.00, 0.01, 0.01, 1.02
73, -187500.02, 48881.34, 0.00, 0.00, 0.00, 0.00, 0.00, 0.00, 0.01, 0.01, 1.02
74, -187500.02, 48908.75, 0.00, 0.00, 0.00, 0.00, 0.00, 0.00, 0.01, 0.01, 1.02
75, -187500.02, 48898.26, 0.00, 0.00, 0.00, 0.00, 0.00, 0.00, 0.01, 0.01, 1.02
76, -187500.02, 48872.11, 0.00, 0.00, 0.00, 0.00, 0.00, 0.00, 0.01, 0.01, 1.02
77, -187500.02, 48873.79, 0.00, 0.00, 0.00, 0.00, 0.00, 0.00, 0.01, 0.01, 1.02
78, -187500.02, 48898.78, 0.00, 0.00, 0.00, 0.00, 0.00, 0.00, 0.01, 0.01, 1.02
79, -187500.02, 48896.45, 0.00, 0.00, 0.00, 0.00, 0.00, 0.00, 0.01, 0.01, 1.02
80, -187500.02, 48870.25, 0.00, 0.00, 0.00, 0.00, 0.00, 0.00, 0.01, 0.01, 1.02
81, -187500.02, 48870.46, 0.00, 0.00, 0.00, 0.00, 0.00, 0.00, 0.01, 0.01, 1.02
82, -187500.02, 48895.33, 0.00, 0.00, 0.00, 0.00, 0.00, 0.00, 0.02, 0.01, 1.02
83, -187500.02, 48892.11, 0.00, 0.00, 0.00, 0.00, 0.00, 0.00, 0.02, 0.01, 1.02
84, -187500.02, 48874.66, 0.00, 0.00, 0.00, 0.00, 0.00, 0.00, 0.02, 0.01, 1.02
85, -187500.02, 48876.74, 0.00, 0.00, 0.00, 0.00, 0.00, 0.00, 0.02, 0.01, 1.02
86, -187500.02, 48892.29, 0.00, 0.00, 0.00, 0.00, 0.00, 0.00, 0.02, 0.01, 1.02
87, -187500.02, 48893.46, 0.00, 0.00, 0.00, 0.00, 0.00, 0.00, 0.02, 0.01, 1.02
88, -187500.02, 48882.46, 0.00, 0.00, 0.00, 0.00, 0.00, 0.00, 0.02, 0.01, 1.02
89, -187500.02, 48870.23, 0.00, 0.00, 0.00, 0.00, 0.00, 0.00, 0.02, 0.01, 1.02
90, -187500.02, 48888.74, 0.00, 0.00, 0.00, 0.00, 0.00, 0.00, 0.02, 0.01, 1.02
91, -187500.02, 48896.34, 0.00, 0.00, 0.00, 0.00, 0.00, 0.00, 0.02, 0.01, 1.02
92, -187500.02, 48881.39, 0.00, 0.00, 0.00, 0.00, 0.00, 0.00, 0.01, 0.01, 1.02
93, -187500.02, 48861.36, 0.00, 0.00, 0.00, 0.00, 0.00, 0.00, 0.01, 0.01, 1.02
94, -187500.02, 48873.23, 0.00, 0.00, 0.00, 0.00, 0.00, 0.00, 0.01, 0.01, 1.02
95, -187500.02, 48903.83, 0.00, 0.00, 0.00, 0.00, 0.00, 0.00, 0.01, 0.01, 1.02
96, -187500.02, 48886.46, 0.00, 0.00, 0.00, 0.00, 0.00, 0.00, 0.01, 0.01, 1.02
97, -187500.02, 48866.41, 0.00, 0.00, 0.00, 0.00, 0.00, 0.00, 0.01, 0.01, 1.01
98, -187500.02, 48879.82, 0.00, 0.00, 0.00, 0.00, 0.00, 0.00, 0.01, 0.01, 1.01
99, -187500.02, 48905.79, 0.00, 0.00, 0.00, 0.00, 0.00, 0.00, 0.01, 0.01, 1.01
100, -187500.02, 48898.24, 0.00, 0.00, 0.00, 0.00, 0.00, 0.00, 0.01, 0.01, 1.01
101, -187500.02, 48876.40, 0.00, 0.00, 0.00, 0.00, 0.00, 0.00, 0.01, 0.01, 1.01
102, -187500.02, 48884.00, 0.00, 0.00, 0.00, 0.00, 0.00, 0.00, 0.01, 0.01, 1.01
103, -187500.02, 48908.27, 0.00, 0.00, 0.00, 0.00, 0.00, 0.00, 0.01, 0.01, 1.01
104, -187500.02, 48910.67, 0.00, 0.00, 0.00, 0.00, 0.00, 0.00, 0.01, 0.01, 1.01
105, -187500.02, 48881.65, 0.00, 0.00, 0.00, 0.00, 0.00, 0.00, 0.01, 0.01, 1.01
106, -187500.02, 48877.68, 0.00, 0.00, 0.00, 0.00, 0.00, 0.00, 0.01, 0.01, 1.01
107, -187500.02, 48908.14, 0.00, 0.00, 0.00, 0.00, 0.00, 0.00, 0.01, 0.01, 1.01
108, -187500.02, 48905.57, 0.00, 0.00, 0.00, 0.00, 0.00, 0.00, 0.01, 0.01, 1.01
109, -187500.02, 48882.48, 0.00, 0.00, 0.00, 0.00, 0.00, 0.00, 0.01, 0.01, 1.01
110, -187500.02, 48879.00, 0.00, 0.00, 0.00, 0.00, 0.00, 0.00, 0.01, 0.01, 1.01
111, -187500.02, 48901.73, 0.00, 0.00, 0.00, 0.00, 0.00, 0.00, 0.01, 0.01, 1.01
112, -187500.02, 48913.98, 0.00, 0.00, 0.00, 0.00, 0.00, 0.00, 0.01, 0.01, 1.01
113, -187500.02, 48893.52, 0.00, 0.00, 0.00, 0.00, 0.00, 0.00, 0.01, 0.01, 1.02
114, -187500.02, 48881.68, 0.00, 0.00, 0.00, 0.00, 0.00, 0.00, 0.01, 0.01, 1.02
115, -187500.02, 48900.63, 0.00, 0.00, 0.00, 0.00, 0.00, 0.00, 0.01, 0.01, 1.02
116, -187500.02, 48918.07, 0.00, 0.00, 0.00, 0.00, 0.00, 0.00, 0.01, 0.01, 1.02
117, -187500.02, 48895.96, 0.00, 0.00, 0.00, 0.00, 0.00, 0.00, 0.01, 0.01, 1.02
118, -187500.02, 48868.89, 0.00, 0.00, 0.00, 0.00, 0.00, 0.00, 0.00, 0.01, 1.02
119, -187500.02, 48886.30, 0.00, 0.00, 0.00, 0.00, 0.00, 0.00, 0.00, 0.01, 1.02
120, -187500.02, 48908.48, 0.00, 0.00, 0.00, 0.00, 0.00, 0.00, 0.00, 0.01, 1.02
121, -187500.02, 48889.79, 0.00, 0.00, 0.00, 0.00, 0.00, 0.00, 0.00, 0.01, 1.02
122, -187500.02, 48861.45, 0.00, 0.00, 0.00, 0.00, 0.00, 0.00, 0.00, 0.01, 1.02
123, -187500.02, 48879.35, 0.00, 0.00, 0.00, 0.00, 0.00, 0.00, -0.00, 0.01, 1.02
124, -187500.02, 48907.98, 0.00, 0.00, 0.00, 0.00, 0.00, 0.00, -0.00, 0.01, 1.02
125, -187500.02, 48897.10, 0.00, 0.00, 0.00, 0.00, 0.00, 0.00, -0.00, 0.01, 1.02
126, -187500.02, 48872.07, 0.00, 0.00, 0.00, 0.00, 0.00, 0.00, -0.00, 0.01, 1.02
127, -187500.02, 48880.20, 0.00, 0.00, 0.00, 0.00, 0.00, 0.00, -0.00, 0.01, 1.02
128, -187500.02, 48905.64, 0.00, 0.00, 0.00, 0.00, 0.00, 0.00, 0.01, 0.01, 1.02
129, -187500.02, 48906.60, 0.00, 0.00, 0.00, 0.00, 0.00, 0.00, 0.01, 0.01, 1.02
130, -187500.02, 48875.39, 0.00, 0.00, 0.00, 0.00, 0.00, 0.00, 0.01, 0.01, 1.02
131, -187500.02, 48874.12, 0.00, 0.00, 0.00, 0.00, 0.00, 0.00, 0.01, 0.01, 1.02
132, -187500.02, 48906.20, 0.00, 0.00, 0.00, 0.00, 0.00, 0.00, 0.01, 0.01, 1.02
133, -187500.02, 48908.32, 0.00, 0.00, 0.00, 0.00, 0.00, 0.00, 0.01, 0.01, 1.02
134, -187500.02, 48880.74, 0.00, 0.00, 0.00, 0.00, 0.00, 0.00, 0.01, 0.01, 1.02
135, -187500.02, 48865.18, 0.00, 0.00, 0.00, 0.00, 0.00, 0.00, 0.01, 0.01, 1.02
136, -187500.02, 48891.54, 0.00, 0.00, 0.00, 0.00, 0.00, 0.00, 0.01, 0.01, 1.02
137, -187500.02, 48907.43, 0.00, 0.00, 0.00, 0.00, 0.00, 0.00, 0.01, 0.01, 1.02
138, -187500.02, 48883.78, 0.00, 0.00, 0.00, 0.00, 0.00, 0.00, 0.01, 0.01, 1.01
139, -187500.02, 48866.86, 0.00, 0.00, 0.00, 0.00, 0.00, 0.00, 0.01, 0.01, 1.01
140, -187500.02, 48889.57, 0.00, 0.00, 0.00, 0.00, 0.00, 0.00, 0.01, 0.01, 1.01
141, -187500.02, 48911.56, 0.00, 0.00, 0.00, 0.00, 0.00, 0.00, 0.01, 0.01, 1.01
142, -187500.02, 48891.33, 0.00, 0.00, 0.00, 0.00, 0.00, 0.00, 0.01, 0.01, 1.01
143, -187500.02, 48868.33, 0.00, 0.00, 0.00, 0.00, 0.00, 0.00, 0.01, 0.01, 1.02
144, -187500.02, 48883.55, 0.00, 0.00, 0.00, 0.00, 0.00, 0.00, 0.01, 0.01, 1.02
145, -187500.02, 48908.01, 0.00, 0.00, 0.00, 0.00, 0.00, 0.00, 0.01, 0.01, 1.02
146, -187500.02, 48887.71, 0.00, 0.00, 0.00, 0.00, 0.00, 0.00, 0.01, 0.01, 1.02
147, -187500.02, 48863.13, 0.00, 0.00, 0.00, 0.00, 0.00, 0.00, 0.01, 0.01, 1.02
148, -187500.02, 48867.24, 0.00, 0.00, 0.00, 0.00, 0.00, 0.00, 0.01, 0.01, 1.02
149, -187500.02, 48898.38, 0.00, 0.00, 0.00, 0.00, 0.00, 0.00, 0.01, 0.01, 1.02
150, -187500.02, 48894.62, 0.00, 0.00, 0.00, 0.00, 0.00, 0.00, 0.01, 0.01, 1.02
151, -187500.02, 48867.68, 0.00, 0.00, 0.00, 0.00, 0.00, 0.00, 0.01, 0.01, 1.02
152, -187500.02, 48873.12, 0.00, 0.00, 0.00, 0.00, 0.00, 0.00, 0.01, 0.01, 1.02
153, -187500.02, 48902.93, 0.00, 0.00, 0.00, 0.00, 0.00, 0.00, 0.01, 0.01, 1.02
154, -187500.02, 48904.97, 0.00, 0.00, 0.00, 0.00, 0.00, 0.00, 0.01, 0.01, 1.02
155, -187500.02, 48877.70, 0.00, 0.00, 0.00, 0.00, 0.00, 0.00, 0.01, 0.01, 1.02
156, -187500.02, 48872.54, 0.00, 0.00, 0.00, 0.00, 0.00, 0.00, 0.01, 0.01, 1.02
157, -187500.02, 48896.83, 0.00, 0.00, 0.00, 0.00, 0.00, 0.00, 0.01, 0.01, 1.02
158, -187500.02, 48906.53, 0.00, 0.00, 0.00, 0.00, 0.00, 0.00, 0.00, 0.01, 1.02
159, -187500.02, 48880.60, 0.00, 0.00, 0.00, 0.00, 0.00, 0.00, 0.00, 0.01, 1.02
160, -187500.02, 48874.12, 0.00, 0.00, 0.00, 0.00, 0.00, 0.00, 0.00, 0.01, 1.02
161, -187500.02, 48896.81, 0.00, 0.00, 0.00, 0.00, 0.00, 0.00, 0.00, 0.01, 1.02
162, -187500.02, 48905.08, 0.00, 0.00, 0.00, 0.00, 0.00, 0.00, 0.00, 0.01, 1.02
163, -187500.02, 48886.48, 0.00, 0.00, 0.00, 0.00, 0.00, 0.00, 0.00, 0.01, 1.02
164, -187500.02, 48867.35, 0.00, 0.00, 0.00, 0.00, 0.00, 0.00, 0.00, 0.01, 1.02
165, -187500.02, 48882.14, 0.00, 0.00, 0.00, 0.00, 0.00, 0.00, 0.00, 0.01, 1.02
166, -187500.02, 48896.61, 0.00, 0.00, 0.00, 0.00, 0.00, 0.00, 0.00, 0.01, 1.02
167, -187500.02, 48882.91, 0.00, 0.00, 0.00, 0.00, 0.00, 0.00, 0.00, 0.01, 1.02
168, -187500.02, 48861.76, 0.00, 0.00, 0.00, 0.00, 0.00, 0.00, 0.01, 0.01, 1.01
169, -187500.02, 48874.19, 0.00, 0.00, 0.00, 0.00, 0.00, 0.00, 0.01, 0.01, 1.01
170, -187500.02, 48896.36, 0.00, 0.00, 0.00, 0.00, 0.00, 0.00, 0.01, 0.01, 1.01
171, -187500.02, 48879.60, 0.00, 0.00, 0.00, 0.00, 0.00, 0.00, 0.01, 0.01, 1.01
172, -187500.02, 48856.46, 0.00, 0.00, 0.00, 0.00, 0.00, 0.00, 0.01, 0.01, 1.01
173, -187500.02, 48869.29, 0.00, 0.00, 0.00, 0.00, 0.00, 0.00, 0.01, 0.01, 1.01
174, -187500.02, 48896.36, 0.00, 0.00, 0.00, 0.00, 0.00, 0.00, 0.01, 0.01, 1.01
175, -187500.02, 48884.52, 0.00, 0.00, 0.00, 0.00, 0.00, 0.00, 0.01, 0.01, 1.01
176, -187500.02, 48860.20, 0.00, 0.00, 0.00, 0.00, 0.00, 0.00, 0.01, 0.01, 1.01
177, -187500.02, 48864.00, 0.00, 0.00, 0.00, 0.00, 0.00, 0.00, 0.01, 0.01, 1.01
178, -187500.02, 48889.43, 0.00, 0.00, 0.00, 0.00, 0.00, 0.00, 0.01, 0.01, 1.01
179, -187500.02, 48893.23, 0.00, 0.00, 0.00, 0.00, 0.00, 0.00, 0.01, 0.01, 1.01
180, -187500.02, 48872.76, 0.00, 0.00, 0.00, 0.00, 0.00, 0.00, 0.01, 0.01, 1.01
181, -187500.02, 48863.59, 0.00, 0.00, 0.00, 0.00, 0.00, 0.00, 0.01, 0.01, 1.01
182, -187500.02, 48889.43, 0.00, 0.00, 0.00, 0.00, 0.00, 0.00, 0.01, 0.01, 1.01
183, -187500.02, 48897.97, 0.00, 0.00, 0.00, 0.00, 0.00, 0.00, 0.01, 0.01, 1.02
184, -187500.02, 48873.72, 0.00, 0.00, 0.00, 0.00, 0.00, 0.00, 0.01, 0.01, 1.02
185, -187500.02, 48870.14, 0.00, 0.00, 0.00, 0.00, 0.00, 0.00, 0.01, 0.01, 1.02
186, -187500.02, 48897.01, 0.00, 0.00, 0.00, 0.00, 0.00, 0.00, 0.01, 0.01, 1.02
187, -187500.02, 48907.61, 0.00, 0.00, 0.00, 0.00, 0.00, 0.00, 0.01, 0.01, 1.02
188, -187500.02, 48884.31, 0.00, 0.00, 0.00, 0.00, 0.00, 0.00, 0.01, 0.01, 1.02
189, -187500.02, 48867.71, 0.00, 0.00, 0.00, 0.00, 0.00, 0.00, 0.01, 0.01, 1.02
190, -187500.02, 48887.69, 0.00, 0.00, 0.00, 0.00, 0.00, 0.00, 0.01, 0.01, 1.02
191, -187500.02, 48908.36, 0.00, 0.00, 0.00, 0.00, 0.00, 0.00, 0.01, 0.01, 1.02
192, -187500.02, 48891.36, 0.00, 0.00, 0.00, 0.00, 0.00, 0.00, 0.01, 0.01, 1.02
193, -187500.02, 48865.34, 0.00, 0.00, 0.00, 0.00, 0.00, 0.00, 0.01, 0.01, 1.02
194, -187500.02, 48876.22, 0.00, 0.00, 0.00, 0.00, 0.00, 0.00, 0.01, 0.01, 1.02
195, -187500.02, 48910.60, 0.00, 0.00, 0.00, 0.00, 0.00, 0.00, 0.01, 0.01, 1.02
196, -187500.02, 48895.91, 0.00, 0.00, 0.00, 0.00, 0.00, 0.00, 0.01, 0.01, 1.02
197, -187500.02, 48870.95, 0.00, 0.00, 0.00, 0.00, 0.00, 0.00, 0.01, 0.01, 1.02
198, -187500.02, 48880.45, 0.00, 0.00, 0.00, 0.00, 0.00, 0.00, 0.01, 0.01, 1.02
199, -187500.02, 48904.86, 0.00, 0.00, 0.00, 0.00, 0.00, 0.00, 0.01, 0.01, 1.02
200, -187500.02, 48905.21, 0.00, 0.00, 0.00, 0.00, 0.00, 0.00, 0.01, 0.01, 1.02
201, -187500.02, 48880.31, 0.00, 0.00, 0.00, 0.00, 0.00, 0.00, 0.01, 0.01, 1.02
202, -187500.02, 48872.76, 0.00, 0.00, 0.00, 0.00, 0.00, 0.00, 0.01, 0.01, 1.02
203, -187500.02, 48901.75, 0.00, 0.00, 0.00, 0.00, 0.00, 0.00, 0.01, 0.01, 1.02
204, -187500.02, 48900.05, 0.00, 0.00, 0.00, 0.00, 0.00, 0.00, 0.01, 0.01, 1.02
205, -187500.02, 48869.54, 0.00, 0.00, 0.00, 0.00, 0.00, 0.00, 0.01, 0.01, 1.02
206, -187500.02, 48864.38, 0.00, 0.00, 0.00, 0.00, 0.00, 0.00, 0.01, 0.01, 1.02
207, -187500.02, 48891.29, 0.00, 0.00, 0.00, 0.00, 0.00, 0.00, 0.01, 0.01, 1.02
208, -187500.02, 48902.08, 0.00, 0.00, 0.00, 0.00, 0.00, 0.00, 0.01, 0.01, 1.02
209, -187500.02, 48874.97, 0.00, 0.00, 0.00, 0.00, 0.00, 0.00, 0.01, 0.01, 1.02
210, -187500.02, 48859.21, 0.00, 0.00, 0.00, 0.00, 0.00, 0.00, 0.01, 0.01, 1.02
211, -187500.02, 48884.85, 0.00, 0.00, 0.00, 0.00, 0.00, 0.00, 0.01, 0.01, 1.02
212, -187500.02, 48901.57, 0.00, 0.00, 0.00, 0.00, 0.00, 0.00, 0.01, 0.01, 1.02
213, -187500.02, 48875.42, 0.00, 0.00, 0.00, 0.00, 0.00, 0.00, 0.01, 0.01, 1.01
214, -187500.02, 48856.91, 0.00, 0.00, 0.00, 0.00, 0.00, 0.00, 0.01, 0.01, 1.01
215, -187500.02, 48880.56, 0.00, 0.00, 0.00, 0.00, 0.00, 0.00, 0.01, 0.01, 1.01
216, -187500.02, 48904.00, 0.00, 0.00, 0.00, 0.00, 0.00, 0.00, 0.01, 0.01, 1.01
217, -187500.02, 48883.44, 0.00, 0.00, 0.00, 0.00, 0.00, 0.00, 0.01, 0.01, 1.01
218, -187500.02, 48868.13, 0.00, 0.00, 0.00, 0.00, 0.00, 0.00, 0.01, 0.01, 1.02
219, -187500.02, 48883.18, 0.00, 0.00, 0.00, 0.00, 0.00, 0.00, 0.01, 0.01, 1.02
220, -187500.02, 48903.27, 0.00, 0.00, 0.00, 0.00, 0.00, 0.00, 0.01, 0.01, 1.02
221, -187500.02, 48897.05, 0.00, 0.00, 0.00, 0.00, 0.00, 0.00, 0.01, 0.01, 1.02
222, -187500.02, 48873.96, 0.00, 0.00, 0.00, 0.00, 0.00, 0.00, 0.01, 0.01, 1.02
223, -187500.02, 48881.34, 0.00, 0.00, 0.00, 0.00, 0.00, 0.00, 0.01, 0.01, 1.02
224, -187500.02, 48905.64, 0.00, 0.00, 0.00, 0.00, 0.00, 0.00, 0.01, 0.01, 1.02
225, -187500.02, 48901.23, 0.00, 0.00, 0.00, 0.00, 0.00, 0.00, 0.01, 0.01, 1.02
226, -187500.02, 48875.15, 0.00, 0.00, 0.00, 0.00, 0.00, 0.00, 0.01, 0.01, 1.02
227, -187500.02, 48873.56, 0.00, 0.00, 0.00, 0.00, 0.00, 0.00, 0.01, 0.01, 1.02
228, -187500.02, 48907.25, 0.00, 0.00, 0.00, 0.00, 0.00, 0.00, 0.02, 0.01, 1.02
229, -187500.02, 48907.47, 0.00, 0.00, 0.00, 0.00, 0.00, 0.00, 0.02, 0.01, 1.02
230, -187500.02, 48875.53, 0.00, 0.00, 0.00, 0.00, 0.00, 0.00, 0.02, 0.01, 1.02
231, -187500.02, 48867.82, 0.00, 0.00, 0.00, 0.00, 0.00, 0.00, 0.02, 0.01, 1.02
232, -187500.02, 48892.07, 0.00, 0.00, 0.00, 0.00, 0.00, 0.00, 0.02, 0.01, 1.02
233, -187500.02, 48898.53, 0.00, 0.00, 0.00, 0.00, 0.00, 0.00, 0.02, 0.01, 1.02
234, -187500.02, 48874.68, 0.00, 0.00, 0.00, 0.00, 0.00, 0.00, 0.02, 0.01, 1.02
235, -187500.02, 48861.85, 0.00, 0.00, 0.00, 0.00, 0.00, 0.00, 0.02, 0.01, 1.02
236, -187500.02, 48886.10, 0.00, 0.00, 0.00, 0.00, 0.00, 0.00, 0.02, 0.01, 1.02
237, -187500.02, 48898.89, 0.00, 0.00, 0.00, 0.00, 0.00, 0.00, 0.02, 0.01, 1.02
238, -187500.02, 48873.85, 0.00, 0.00, 0.00, 0.00, 0.00, 0.00, 0.02, 0.01, 1.03
239, -187500.02, 48847.97, 0.00, 0.00, 0.00, 0.00, 0.00, 0.00, 0.02, 0.01, 1.03
240, -187500.02, 48870.41, 0.00, 0.00, 0.00, 0.00, 0.00, 0.00, 0.02, 0.01, 1.03
241, -187500.02, 48893.10, 0.00, 0.00, 0.00, 0.00, 0.00, 0.00, 0.02, 0.01, 1.03
242, -187500.02, 48880.58, 0.00, 0.00, 0.00, 0.00, 0.00, 0.00, 0.02, 0.01, 1.03
243, -187500.02, 48864.29, 0.00, 0.00, 0.00, 0.00, 0.00, 0.00, 0.01, 0.01, 1.03
244, -187500.02, 48863.62, 0.00, 0.00, 0.00, 0.00, 0.00, 0.00, 0.01, 0.01, 1.03
245, -187500.02, 48889.03, 0.00, 0.00, 0.00, 0.00, 0.00, 0.00, 0.01, 0.01, 1.03
246, -187500.02, 48879.04, 0.00, 0.00, 0.00, 0.00, 0.00, 0.00, 0.01, 0.01, 1.03
247, -187500.02, 48850.99, 0.00, 0.00, 0.00, 0.00, 0.00, 0.00, 0.01, 0.01, 1.03
248, -187500.02, 48859.01, 0.00, 0.00, 0.00, 0.00, 0.00, 0.00, 0.00, 0.00, 1.03
249, -187500.02, 48887.27, 0.00, 0.00, 0.00, 0.00, 0.00, 0.00, 0.00, 0.00, 1.03
250, -187500.02, 48883.00, 0.00, 0.00, 0.00, 0.00, 0.00, 0.00, 0.00, 0.00, 1.03
251, -187500.02, 48855.01, 0.00, 0.00, 0.00, 0.00, 0.00, 0.00, 0.00, 0.00, 1.03
252, -187500.02, 48848.75, 0.00, 0.00, 0.00, 0.00, 0.00, 0.00, 0.00, 0.00, 1.03
253, -187500.02, 48874.39, 0.00, 0.00, 0.00, 0.00, 0.00, 0.00, 0.01, 0.01, 1.02
254, -187500.02, 48886.71, 0.00, 0.00, 0.00, 0.00, 0.00, 0.00, 0.01, 0.01, 1.02
255, -187500.02, 48861.43, 0.00, 0.00, 0.00, 0.00, 0.00, 0.00, 0.01, 0.01, 1.02
0, -187500.02, 48853.54, 0.00, 0.00, 0.00, 0.00, 0.00, 0.00, 0.01, 0.01, 1.02
1, -187500.02, 48877.41, 0.00, 0.00, 0.00, 0.00, 0.00, 0.00, 0.01, 0.01, 1.02
2, -187500.02, 48892.05, 0.00, 0.00, 0.00, 0.00, 0.00, 0.00, 0.01, 0.01, 1.02
3, -187500.02, 48871.39, 0.00, 0.00, 0.00, 0.00, 0.00, 0.00, 0.01, 0.01, 1.02
4, -187500.02, 48846.05, 0.00, 0.00, 0.00, 0.00, 0.00, 0.00, 0.01, 0.01, 1.02
5, -187500.02, 48871.53, 0.00, 0.00, 0.00, 0.00, 0.00, 0.00, 0.01, 0.01, 1.02
6, -187500.02, 48896.09, 0.00, 0.00, 0.00, 0.00, 0.00, 0.00, 0.01, 0.01, 1.02
7, -187500.02, 48862.95, 0.00, 0.00, 0.00, 0.00, 0.00, 0.00, 0.01, 0.01, 1.02
8, -187500.02, 48846.45, 0.00, 0.00, 0.00, 0.00, 0.00, 0.00, 0.01, 0.01, 1.02
9, -187500.02, 48870.21, 0.00, 0.00, 0.00, 0.00, 0.00, 0.00, 0.01, 0.01, 1.02
10, -187500.02, 48887.91, 0.00, 0.00, 0.00, 0.00, 0.00, 0.00, 0.01, 0.01, 1.02
11, -187500.02, 48870.84, 0.00, 0.00, 0.00, 0.00, 0.00, 0.00, 0.01, 0.01, 1.02
12, -187500.02, 48845.00, 0.00, 0.00, 0.00, 0.00, 0.00, 0.00, 0.01, 0.01, 1.02
13, -187500.02, 48859.32, 0.00, 0.00, 0.00, 0.00, 0.00, 0.00, 0.01, 0.01, 1.02
14, -187500.02, 48884.80, 0.00, 0.00, 0.00, 0.00, 0.00, 0.00, 0.01, 0.01, 1.02
15, -187500.02, 48875.38, 0.00, 0.00, 0.00, 0.00, 0.00, 0.00, 0.01, 0.01, 1.02
16, -187500.02, 48849.36, 0.00, 0.00, 0.00, 0.00, 0.00, 0.00, 0.01, 0.01, 1.02
17, -187500.02, 48850.12, 0.00, 0.00, 0.00, 0.00, 0.00, 0.00, 0.01, 0.01, 1.01
18, -187500.02, 48870.70, 0.00, 0.00, 0.00, 0.00, 0.00, 0.00, 0.01, 0.01, 1.01
19, -187500.02, 48866.81, 0.00, 0.00, 0.00, 0.00, 0.00, 0.00, 0.01, 0.01, 1.01
20, -187500.02, 48845.91, 0.00, 0.00, 0.00, 0.00, 0.00, 0.00, 0.01, 0.01, 1.01
21, -187500.02, 48848.53, 0.00, 0.00, 0.00, 0.00, 0.00, 0.00, 0.01, 0.01, 1.01
22, -187500.02, 48876.07, 0.00, 0.00, 0.00, 0.00, 0.00, 0.00, 0.01, 0.01, 1.02
23, -187500.02, 48883.33, 0.00, 0.00, 0.00, 0.00, 0.00, 0.00, 0.01, 0.01, 1.02
24, -187500.02, 48858.81, 0.00, 0.00, 0.00, 0.00, 0.00, 0.00, 0.01, 0.01, 1.02
25, -187500.02, 48847.86, 0.00, 0.00, 0.00, 0.00, 0.00, 0.00, 0.01, 0.01, 1.02
26, -187500.02, 48875.29, 0.00, 0.00, 0.00, 0.00, 0.00, 0.00, 0.01, 0.01, 1.02
27, -187500.02, 48884.02, 0.00, 0.00, 0.00, 0.00, 0.00, 0.00, 0.01, 0.01, 1.01
28, -187500.02, 48857.56, 0.00, 0.00, 0.00, 0.00, 0.00, 0.00, 0.01, 0.01, 1.01
29, -187500.02, 48848.15, 0.00, 0.00, 0.00, 0.00, 0.00, 0.00, 0.01, 0.01, 1.01
30, -187500.02, 48868.62, 0.00, 0.00, 0.00, 0.00, 0.00, 0.00, 0.01, 0.01, 1.01
31, -187500.02, 48882.39, 0.00, 0.00, 0.00, 0.00, 0.00, 0.00, 0.01, 0.01, 1.01
32, -187500.02, 48862.59, 0.00, 0.00, 0.00, 0.00, 0.00, 0.00, 0.01, 0.01, 1.02
33, -187500.02, 48840.19, 0.00, 0.00, 0.00, 0.00, 0.00, 0.00, 0.01, 0.01, 1.02
34, -187500.02, 48854.00, 0.00, 0.00, 0.00, 0.00, 0.00, 0.00, 0.01, 0.01, 1.02
35, -187500.02, 48880.04, 0.00, 0.00, 0.00, 0.00, 0.00, 0.00, 0.01, 0.01, 1.02
36, -187500.02, 48864.36, 0.00, 0.00, 0.00, 0.00, 0.00, 0.00, 0.01, 0.01, 1.02
37, -187500.02, 48843.32, 0.00, 0.00, 0.00, 0.00, 0.00, 0.00, 0.02, 0.01, 1.02
38, -187500.02, 48844.57, 0.00, 0.00, 0.00, 0.00, 0.00, 0.00, 0.02, 0.01, 1.02
39, -187500.02, 48869.70, 0.00, 0.00, 0.00, 0.00, 0.00, 0.00, 0.02, 0.01, 1.02
40, -187500.02, 48868.15, 0.00, 0.00, 0.00, 0.00, 0.00, 0.00, 0.02, 0.01, 1.02
41, -187500.02, 48838.27, 0.00, 0.00, 0.00, 0.00, 0.00, 0.00, 0.02, 0.01, 1.02
42, -187500.02, 48837.84, 0.00, 0.00, 0.00, 0.00, 0.00, 0.00, 0.01, 0.01, 1.02
43, -187500.02, 48866.45, 0.00, 0.00, 0.00, 0.00, 0.00, 0.00, 0.01, 0.01, 1.02
44, -187500.02, 48867.68, 0.00, 0.00, 0.00, 0.00, 0.00, 0.00, 0.01, 0.01, 1.02
45, -187500.02, 48846.59, 0.00, 0.00, 0.00, 0.00, 0.00, 0.00, 0.01, 0.01, 1.02
46, -187500.02, 48839.36, 0.00, 0.00, 0.00, 0.00, 0.00, 0.00, 0.01, 0.01, 1.02
47, -187500.02, 48873.16, 0.00, 0.00, 0.00, 0.00, 0.00, 0.00, 0.01, 0.01, 1.02
48, -187500.02, 48883.82, 0.00, 0.00, 0.00, 0.00, 0.00, 0.00, 0.01, 0.01, 1.02
49, -187500.02, 48843.05, 0.00, 0.00, 0.00, 0.00, 0.00, 0.00, 0.01, 0.01, 1.02
50, -187500.02, 48829.98, 0.00, 0.00, 0.00, 0.00, 0.00, 0.00, 0.01, 0.01, 1.02
51, -187500.02, 48855.88, 0.00, 0.00, 0.00, 0.00, 0.00, 0.00, 0.01, 0.01, 1.02
52, -187500.02, 48872.82, 0.00, 0.00, 0.00, 0.00, 0.00, 0.00, 0.01, 0.01, 1.02
53, -187500.02, 48844.17, 0.00, 0.00, 0.00, 0.00, 0.00, 0.00, 0.01, 0.01, 1.02
54, -187500.02, 48825.62, 0.00, 0.00, 0.00, 0.00, 0.00, 0.00, 0.01, 0.01, 1.02
55, -187500.02, 48854.86, 0.00, 0.00, 0.00, 0.00, 0.00, 0.00, 0.01, 0.01, 1.02
56, -187500.02, 48875.51, 0.00, 0.00, 0.00, 0.00, 0.00, 0.00, 0.01, 0.01, 1.02
57, -187500.02, 48859.70, 0.00, 0.00, 0.00, 0.00, 0.00, 0.00, 0.01, 0.01, 1.02
58, -187500.02, 48838.52, 0.00, 0.00, 0.00, 0.00, 0.00, 0.00, 0.01, 0.01, 1.02
59, -187500.02, 48849.02, 0.00, 0.00, 0.00, 0.00, 0.00, 0.00, 0.01, 0.01, 1.02
60, -187500.02, 48870.66, 0.00, 0.00, 0.00, 0.00, 0.00, 0.00, 0.01, 0.01, 1.02
61, -187500.02, 48857.13, 0.00, 0.00, 0.00, 0.00, 0.00, 0.00, 0.01, 0.01, 1.02
62, -187500.02, 48830.04, 0.00, 0.00, 0.00, 0.00, 0.00, 0.00, 0.01, 0.01, 1.01
63, -187500.02, 48841.62, 0.00, 0.00, 0.00, 0.00, 0.00, 0.00, 0.01, 0.01, 1.01
64, -187500.02, 48874.39, 0.00, 0.00, 0.00, 0.00, 0.00, 0.00, 0.01, 0.01, 1.01
65, -187500.02, 48867.71, 0.00, 0.00, 0.00, 0.00, 0.00, 0.00, 0.01, 0.01, 1.01
66, -187500.02, 48845.06, 0.00, 0.00, 0.00, 0.00, 0.00, 0.00, 0.01, 0.01, 1.01
67, -187500.02, 48847.23, 0.00, 0.00, 0.00, 0.00, 0.00, 0.00, 0.01, 0.01, 1.01
68, -187500.02, 48870.10, 0.00, 0.00, 0.00, 0.00, 0.00, 0.00, 0.01, 0.01, 1.01
69, -187500.02, 48874.90, 0.00, 0.00, 0.00, 0.00, 0.00, 0.00, 0.01, 0.01, 1.01
70, -187500.02, 48847.39, 0.00, 0.00, 0.00, 0.00, 0.00, 0.00, 0.01, 0.01, 1.01
71, -187500.02, 48839.70, 0.00, 0.00, 0.00, 0.00, 0.00, 0.00, 0.01, 0.01, 1.01
72, -187500.02, 48866.19, 0.00, 0.00, 0.00, 0.00, 0.00, 0.00, 0.01, 0.00, 1.01
73, -187500.02, 48875.13, 0.00, 0.00, 0.00, 0.00, 0.00, 0.00, 0.01, 0.00, 1.01
74, -187500.02, 48851.14, 0.00, 0.00, 0.00, 0.00, 0.00, 0.00, 0.01, 0.00, 1.01
75, -187500.02, 48841.44, 0.00, 0.00, 0.00, 0.00, 0.00, 0.00, 0.01, 0.00, 1.01
76, -187500.02, 48861.43, 0.00, 0.00, 0.00, 0.00, 0.00, 0.00, 0.01, 0.00, 1.01
77, -187500.02, 48872.69, 0.00, 0.00, 0.00, 0.00, 0.00, 0.00, 0.01, 0.01, 1.02
78, -187500.02, 48845.55, 0.00, 0.00, 0.00, 0.00, 0.00, 0.00, 0.01, 0.01, 1.02
79, -187500.02, 48827.63, 0.00, 0.00, 0.00, 0.00, 0.00, 0.00, 0.01, 0.01, 1.02
80, -187500.02, 48839.32, 0.00, 0.00, 0.00, 0.00, 0.00, 0.00, 0.01, 0.01, 1.02
81, -187500.02, 48865.52, 0.00, 0.00, 0.00, 0.00, 0.00, 0.00, 0.01, 0.01, 1.02
82, -187500.02, 48851.66, 0.00, 0.00, 0.00, 0.00, 0.00, 0.00, 0.01, 0.01, 1.01
83, -187500.02, 48832.95, 0.00, 0.00, 0.00, 0.00, 0.00, 0.00, 0.01, 0.01, 1.01
84, -187500.02, 48846.36, 0.00, 0.00, 0.00, 0.00, 0.00, 0.00, 0.01, 0.01, 1.01
85, -187500.02, 48871.77, 0.00, 0.00, 0.00, 0.00, 0.00, 0.00, 0.01, 0.01, 1.01
86, -187500.02, 48860.75, 0.00, 0.00, 0.00, 0.00, 0.00, 0.00, 0.01, 0.01, 1.01
87, -187500.02, 48837.22, 0.00, 0.00, 0.00, 0.00, 0.00, 0.00, 0.01, 0.01, 1.01
88, -187500.02, 48840.73, 0.00, 0.00, 0.00, 0.00, 0.00, 0.00, 0.02, 0.01, 1.02
89, -187500.02, 48868.87, 0.00, 0.00, 0.00, 0.00, 0.00, 0.00, 0.02, 0.01, 1.02
90, -187500.02, 48859.86, 0.00, 0.00, 0.00, 0.00, 0.00, 0.00, 0.02, 0.01, 1.02
91, -187500.02, 48839.72, 0.00, 0.00, 0.00, 0.00, 0.00, 0.00, 0.02, 0.01, 1.02
92, -187500.02, 48839.21, 0.00, 0.00, 0.00, 0.00, 0.00, 0.00, 0.02, 0.01, 1.02
93, -187500.02, 48860.98, 0.00, 0.00, 0.00, 0.00, 0.00, 0.00, 0.01, 0.01, 1.02
94, -187500.02, 48870.10, 0.00, 0.00, 0.00, 0.00, 0.00, 0.00, 0.01, 0.01, 1.02
95, -187500.02, 48842.94, 0.00, 0.00, 0.00, 0.00, 0.00, 0.00, 0.01, 0.01, 1.02
96, -187500.02, 48836.13, 0.00, 0.00, 0.00, 0.00, 0.00, 0.00, 0.01, 0.01, 1.02
97, -187500.02, 48856.84, 0.00, 0.00, 0.00, 0.00, 0.00, 0.00, 0.01, 0.01, 1.02
98, -187500.02, 48861.09, 0.00, 0.00, 0.00, 0.00, 0.00, 0.00, 0.01, 0.01, 1.02
99, -187500.02, 48838.47, 0.00, 0.00, 0.00, 0.00, 0.00, 0.00, 0.01, 0.01, 1.02
100, -187500.02, 48830.76, 0.00, 0.00, 0.00, 0.00, 0.00, 0.00, 0.01, 0.01, 1.02
101, -187500.02, 48857.29, 0.00, 0.00, 0.00, 0.00, 0.00, 0.00, 0.01, 0.01, 1.02
102, -187500.02, 48869.92, 0.00, 0.00, 0.00, 0.00, 0.00, 0.00, 0.01, 0.01, 1.02
103, -187500.02, 48841.73, 0.00, 0.00, 0.00, 0.00, 0.00, 0.00, 0.01, 0.01, 1.02
104, -187500.02, 48819.98, 0.00, 0.00, 0.00, 0.00, 0.00, 0.00, 0.01, 0.01, 1.02
105, -187500.02, 48839.25, 0.00, 0.00, 0.00, 0.00, 0.00, 0.00, 0.01, 0.01, 1.02
106, -187500.02, 48855.64, 0.00, 0.00, 0.00, 0.00, 0.00, 0.00, 0.01, 0.01, 1.02
107, -187500.02, 48850.12, 0.00, 0.00, 0.00, 0.00, 0.00, 0.00, 0.01, 0.01, 1.02
108, -187500.02, 48830.58, 0.00, 0.00, 0.00, 0.00, 0.00, 0.00, 0.01, 0.00, 1.02
109, -187500.02, 48845.04, 0.00, 0.00, 0.00, 0.00, 0.00, 0.00, 0.01, 0.00, 1.02
110, -187500.02, 48868.87, 0.00, 0.00, 0.00, 0.00, 0.00, 0.00, 0.01, 0.00, 1.02
111, -187500.02, 48853.45, 0.00, 0.00, 0.00, 0.00, 0.00, 0.00, 0.01, 0.00, 1.02
112, -187500.02, 48827.34, 0.00, 0.00, 0.00, 0.00, 0.00, 0.00, 0.01, 0.00, 1.02
113, -187500.02, 48836.77, 0.00, 0.00, 0.00, 0.00, 0.00, 0.00, 0.01, -0.00, 1.02
114, -187500.02, 48862.99, 0.00, 0.00, 0.00, 0.00, 0.00, 0.00, 0.01, -0.00, 1.02
115, -187500.02, 48857.11, 0.00, 0.00, 0.00, 0.00, 0.00, 0.00, 0.01, -0.00, 1.02
116, -187500.02, 48832.88, 0.00, 0.00, 0.00, 0.00, 0.00, 0.00, 0.01, -0.00, 1.02
117, -187500.02, 48831.61, 0.00, 0.00, 0.00, 0.00, 0.00, 0.00, 0.01, -0.00, 1.02
118, -187500.02, 48859.75, 0.00, 0.00, 0.00, 0.00, 0.00, 0.00, 0.01, 0.01, 1.02
119, -187500.02, 48859.53, 0.00, 0.00, 0.00, 0.00, 0.00, 0.00, 0.01, 0.01, 1.02
120, -187500.02, 48833.91, 0.00, 0.00, 0.00, 0.00, 0.00, 0.00, 0.01, 0.01, 1.02
121, -187500.02, 48828.25, 0.00, 0.00, 0.00, 0.00, 0.00, 0.00, 0.01, 0.01, 1.02
122, -187500.02, 48853.96, 0.00, 0.00, 0.00, 0.00, 0.00, 0.00, 0.01, 0.01, 1.02
123, -187500.02, 48868.09, 0.00, 0.00, 0.00, 0.00, 0.00, 0.00, 0.01, 0.01, 1.02
124, -187500.02, 48849.60, 0.00, 0.00, 0.00, 0.00, 0.00, 0.00, 0.01, 0.01, 1.02
125, -187500.02, 48832.35, 0.00, 0.00, 0.00, 0.00, 0.00, 0.00, 0.01, 0.01, 1.02
126, -187500.02, 48849.80, 0.00, 0.00, 0.00, 0.00, 0.00, 0.00, 0.01, 0.01, 1.02
127, -187500.02, 48864.29, 0.00, 0.00, 0.00, 0.00, 0.00, 0.00, 0.01, 0.01, 1.02
128, -187500.02, 48851.88, 0.00, 0.00, 0.00, 0.00, 0.00, 0.00, 0.01, 0.00, 1.02
129, -187500.02, 48833.17, 0.00, 0.00, 0.00, 0.00, 0.00, 0.00, 0.01, 0.00, 1.02
130, -187500.02, 48848.20, 0.00, 0.00, 0.00, 0.00, 0.00, 0.00, 0.01, 0.00, 1.02
131, -187500.02, 48869.41, 0.00, 0.00, 0.00, 0.00, 0.00, 0.00, 0.01, 0.00, 1.02
132, -187500.02, 48851.70, 0.00, 0.00, 0.00, 0.00, 0.00, 0.00, 0.01, 0.00, 1.02
133, -187500.02, 48824.03, 0.00, 0.00, 0.00, 0.00, 0.00, 0.00, 0.01, 0.01, 1.02
134, -187500.02, 48838.76, 0.00, 0.00, 0.00, 0.00, 0.00, 0.00, 0.01, 0.01, 1.02
135, -187500.02, 48866.10, 0.00, 0.00, 0.00, 0.00, 0.00, 0.00, 0.01, 0.01, 1.02
136, -187500.02, 48857.63, 0.00, 0.00, 0.00, 0.00, 0.00, 0.00, 0.01, 0.01, 1.02
137, -187500.02, 48835.41, 0.00, 0.00, 0.00, 0.00, 0.00, 0.00, 0.01, 0.01, 1.02
138, -187500.02, 48838.36, 0.00, 0.00, 0.00, 0.00, 0.00, 0.00, 0.01, 0.00, 1.02
139, -187500.02, 48866.05, 0.00, 0.00, 0.00, 0.00, 0.00, 0.00, 0.01, 0.00, 1.02
140, -187500.02, 48862.63, 0.00, 0.00, 0.00, 0.00, 0.00, 0.00, 0.01, 0.00, 1.02
141, -187500.02, 48842.96, 0.00, 0.00, 0.00, 0.00, 0.00, 0.00, 0.01, 0.00, 1.02
142, -187500.02, 48843.21, 0.00, 0.00, 0.00, 0.00, 0.00, 0.00, 0.01, 0.00, 1.02
143, -187500.02, 48864.80, 0.00, 0.00, 0.00, 0.00, 0.00, 0.00, 0.01, 0.01, 1.02
144, -187500.02, 48868.15, 0.00, 0.00, 0.00, 0.00, 0.00, 0.00, 0.01, 0.01, 1.02
145, -187500.02, 48842.83, 0.00, 0.00, 0.00, 0.00, 0.00, 0.00, 0.01, 0.01, 1.02
146, -187500.02, 48838.98, 0.00, 0.00, 0.00, 0.00, 0.00, 0.00, 0.01, 0.01, 1.02
147, -187500.02, 48867.01, 0.00, 0.00, 0.00, 0.00, 0.00, 0.00, 0.01, 0.01, 1.02
148, -187500.02, 48868.33, 0.00, 0.00, 0.00, 0.00, 0.00, 0.00, 0.02, 0.01, 1.02
149, -187500.02, 48846.85, 0.00, 0.00, 0.00, 0.00, 0.00, 0.00, 0.02, 0.01, 1.02
150, -187500.02, 48831.03, 0.00, 0.00, 0.00, 0.00, 0.00, 0.00, 0.02, 0.01, 1.02
151, -187500.02, 48847.34, 0.00, 0.00, 0.00, 0.00, 0.00, 0.00, 0.02, 0.01, 1.02
152, -187500.02, 48868.38, 0.00, 0.00, 0.00, 0.00, 0.00, 0.00, 0.02, 0.01, 1.02
153, -187500.02, 48850.21, 0.00, 0.00, 0.00, 0.00, 0.00, 0.00, 0.01, 0.01, 1.01
154, -187500.02, 48831.92, 0.00, 0.00, 0.00, 0.00, 0.00, 0.00, 0.01, 0.01, 1.01
155, -187500.02, 48847.59, 0.00, 0.00, 0.00, 0.00, 0.00, 0.00, 0.01, 0.01, 1.01
156, -187500.02, 48865.74, 0.00, 0.00, 0.00, 0.00, 0.00, 0.00, 0.01, 0.01, 1.01
157, -187500.02, 48849.54, 0.00, 0.00, 0.00, 0.00, 0.00, 0.00, 0.01, 0.01, 1.01
158, -187500.02, 48826.45, 0.00, 0.00, 0.00, 0.00, 0.00, 0.00, 0.01, 0.01, 1.01
159, -187500.02, 48835.09, 0.00, 0.00, 0.00, 0.00, 0.00, 0.00, 0.01, 0.01, 1.01
160, -187500.02, 48864.96, 0.00, 0.00, 0.00, 0.00, 0.00, 0.00, 0.01, 0.01, 1.01
161, -187500.02, 48853.94, 0.00, 0.00, 0.00, 0.00, 0.00, 0.00, 0.01, 0.01, 1.01
162, -187500.02, 48826.40, 0.00, 0.00, 0.00, 0.00, 0.00, 0.00, 0.01, 0.01, 1.01
163, -187500.02, 48827.70, 0.00, 0.00, 0.00, 0.00, 0.00, 0.00, 0.01, 0.00, 1.01
164, -187500.02, 48852.73, 0.00, 0.00, 0.00, 0.00, 0.00, 0.00, 0.01, 0.00, 1.01
165, -187500.02, 48850.23, 0.00, 0.00, 0.00, 0.00, 0.00, 0.00, 0.01, 0.00, 1.01
166, -187500.02, 48824.43, 0.00, 0.00, 0.00, 0.00, 0.00, 0.00, 0.01, 0.00, 1.01
167, -187500.02, 48824.77, 0.00, 0.00, 0.00, 0.00, 0.00, 0.00, 0.01, 0.00, 1.01
168, -187500.02, 48848.91, 0.00, 0.00, 0.00, 0.00, 0.00, 0.00, 0.02, 0.00, 1.01
169, -187500.02, 48851.95, 0.00, 0.00, 0.00, 0.00, 0.00, 0.00, 0.02, 0.00, 1.01
170, -187500.02, 48830.09, 0.00, 0.00, 0.00, 0.00, 0.00, 0.00, 0.02, 0.00, 1.01
171, -187500.02, 48821.75, 0.00, 0.00, 0.00, 0.00, 0.00, 0.00, 0.02, 0.00, 1.01
172, -187500.02, 48843.93, 0.00, 0.00, 0.00, 0.00, 0.00, 0.00, 0.02, 0.00, 1.01
173, -187500.02, 48857.47, 0.00, 0.00, 0.00, 0.00, 0.00, 0.00, 0.01, 0.01, 1.02
174, -187500.02, 48832.23, 0.00, 0.00, 0.00, 0.00, 0.00, 0.00, 0.01, 0.01, 1.02
175, -187500.02, 48816.57, 0.00, 0.00, 0.00, 0.00, 0.00, 0.00, 0.01, 0.01, 1.02
176, -187500.02, 48835.50, 0.00, 0.00, 0.00, 0.00, 0.00, 0.00, 0.01, 0.01, 1.02
177, -187500.02, 48853.36, 0.00, 0.00, 0.00, 0.00, 0.00, 0.00, 0.01, 0.01, 1.02
178, -187500.02, 48833.22, 0.00, 0.00, 0.00, 0.00, 0.00, 0.00, 0.01, 0.01, 1.01
179, -187500.02, 48821.19, 0.00, 0.00, 0.00, 0.00, 0.00, 0.00, 0.01, 0.01, 1.01
180, -187500.02, 48836.39, 0.00, 0.00, 0.00, 0.00, 0.00, 0.00, 0.01, 0.01, 1.01
181, -187500.02, 48857.02, 0.00, 0.00, 0.00, 0.00, 0.00, 0.00, 0.01, 0.01, 1.01
182, -187500.02, 48846.14, 0.00, 0.00, 0.00, 0.00, 0.00, 0.00, 0.01, 0.01, 1.01
183, -187500.02, 48828.08, 0.00, 0.00, 0.00, 0.00, 0.00, 0.00, 0.01, 0.01, 1.01
184, -187500.02, 48832.77, 0.00, 0.00, 0.00, 0.00, 0.00, 0.00, 0.01, 0.01, 1.01
185, -187500.02, 48856.53, 0.00, 0.00, 0.00, 0.00, 0.00, 0.00, 0.01, 0.01, 1.01
186, -187500.02, 48854.05, 0.00, 0.00, 0.00, 0.00, 0.00, 0.00, 0.01, 0.01, 1.01
187, -187500.02, 48823.56, 0.00, 0.00, 0.00, 0.00, 0.00, 0.00, 0.01, 0.01, 1.01
188, -187500.02, 48814.06, 0.00, 0.00, 0.00, 0.00, 0.00, 0.00, 0.01, 0.02, 1.02
189, -187500.02, 48841.62, 0.00, 0.00, 0.00, 0.00, 0.00, 0.00, 0.01, 0.02, 1.02
190, -187500.02, 48847.81, 0.00, 0.00, 0.00, 0.00, 0.00, 0.00, 0.01, 0.02, 1.02
191, -187500.02, 48825.51, 0.00, 0.00, 0.00, 0.00, 0.00, 0.00, 0.01, 0.02, 1.02
192, -187500.02, 48822.11, 0.00, 0.00, 0.00, 0.00, 0.00, 0.00, 0.01, 0.02, 1.02
193, -187500.02, 48843.77, 0.00, 0.00, 0.00, 0.00, 0.00, 0.00, 0.01, 0.02, 1.02
194, -187500.02, 48849.98, 0.00, 0.00, 0.00, 0.00, 0.00, 0.00, 0.01, 0.02, 1.02
195, -187500.02, 48831.00, 0.00, 0.00, 0.00, 0.00, 0.00, 0.00, 0.01, 0.02, 1.02
196, -187500.02, 48826.11, 0.00, 0.00, 0.00, 0.00, 0.00, 0.00, 0.01, 0.02, 1.02
197, -187500.02, 48843.99, 0.00, 0.00, 0.00, 0.00, 0.00, 0.00, 0.01, 0.02, 1.02
198, -187500.02, 48854.25, 0.00, 0.00, 0.00, 0.00, 0.00, 0.00, 0.01, 0.02, 1.01
199, -187500.02, 48835.68, 0.00, 0.00, 0.00, 0.00, 0.00, 0.00, 0.01, 0.02, 1.01
200, -187500.02, 48820.66, 0.00, 0.00, 0.00, 0.00, 0.00, 0.00, 0.01, 0.02, 1.01
201, -187500.02, 48836.14, 0.00, 0.00, 0.00, 0.00, 0.00, 0.00, 0.01, 0.02, 1.01
202, -187500.02, 48856.73, 0.00, 0.00, 0.00, 0.00, 0.00, 0.00, 0.01, 0.02, 1.01
203, -187500.02, 48845.04, 0.00, 0.00, 0.00, 0.00, 0.00, 0.00, 0.01, 0.01, 1.01
204, -187500.02, 48821.71, 0.00, 0.00, 0.00, 0.00, 0.00, 0.00, 0.01, 0.01, 1.01
205, -187500.02, 48836.08, 0.00, 0.00, 0.00, 0.00, 0.00, 0.00, 0.01, 0.01, 1.01
206, -187500.02, 48862.10, 0.00, 0.00, 0.00, 0.00, 0.00, 0.00, 0.01, 0.01, 1.01
207, -187500.02, 48848.11, 0.00, 0.00, 0.00, 0.00, 0.00, 0.00, 0.01, 0.01, 1.01
208, -187500.02, 48824.68, 0.00, 0.00, 0.00, 0.00, 0.00, 0.00, 0.01, 0.01, 1.01
209, -187500.02, 48829.38, 0.00, 0.00, 0.00, 0.00, 0.00, 0.00, 0.01, 0.01, 1.01
210, -187500.02, 48845.49, 0.00, 0.00, 0.00, 0.00, 0.00, 0.00, 0.01, 0.01, 1.01
211, -187500.02, 48841.31, 0.00, 0.00, 0.00, 0.00, 0.00, 0.00, 0.01, 0.01, 1.01
212, -187500.02, 48816.50, 0.00, 0.00, 0.00, 0.00, 0.00, 0.00, 0.01, 0.01, 1.01
213, -187500.02, 48811.18, 0.00, 0.00, 0.00, 0.00, 0.00, 0.00, 0.01, 0.01, 1.01
214, -187500.02, 48836.19, 0.00, 0.00, 0.00, 0.00, 0.00, 0.00, 0.01, 0.01, 1.01
215, -187500.02, 48846.99, 0.00, 0.00, 0.00, 0.00, 0.00, 0.00, 0.01, 0.01, 1.01
216, -187500.02, 48824.46, 0.00, 0.00, 0.00, 0.00, 0.00, 0.00, 0.01, 0.01, 1.01
217, -187500.02, 48818.24, 0.00, 0.00, 0.00, 0.00, 0.00, 0.00, 0.01, 0.01, 1.01
218, -187500.02, 48843.59, 0.00, 0.00, 0.00, 0.00, 0.00, 0.00, 0.01, 0.01, 1.01
219, -187500.02, 48856.38, 0.00, 0.00, 0.00, 0.00, 0.00, 0.00, 0.01, 0.01, 1.01
220, -187500.02, 48829.08, 0.00, 0.00, 0.00, 0.00, 0.00, 0.00, 0.01, 0.01, 1.01
221, -187500.02, 48822.13, 0.00, 0.00, 0.00, 0.00, 0.00, 0.00, 0.01, 0.01, 1.01
222, -187500.02, 48843.90, 0.00, 0.00, 0.00, 0.00, 0.00, 0.00, 0.01, 0.01, 1.01
223, -187500.02, 48856.13, 0.00, 0.00, 0.00, 0.00, 0.00, 0.00, 0.01, 0.01, 1.02
224, -187500.02, 48836.17, 0.00, 0.00, 0.00, 0.00, 0.00, 0.00, 0.01, 0.01, 1.02
225, -187500.02, 48816.61, 0.00, 0.00, 0.00, 0.00, 0.00, 0.00, 0.01, 0.01, 1.02
226, -187500.02, 48832.93, 0.00, 0.00, 0.00, 0.00, 0.00, 0.00, 0.01, 0.01, 1.02
227, -187500.02, 48847.03, 0.00, 0.00, 0.00, 0.00, 0.00, 0.00, 0.01, 0.01, 1.02
228, -187500.02, 48837.82, 0.00, 0.00, 0.00, 0.00, 0.00, 0.00, 0.01, 0.01, 1.01
229, -187500.02, 48822.04, 0.00, 0.00, 0.00, 0.00, 0.00, 0.00, 0.01, 0.01, 1.01
230, -187500.02, 48832.32, 0.00, 0.00, 0.00, 0.00, 0.00, 0.00, 0.01, 0.01, 1.01
231, -187500.02, 48854.41, 0.00, 0.00, 0.00, 0.00, 0.00, 0.00, 0.01, 0.01, 1.01
232, -187500.02, 48841.78, 0.00, 0.00, 0.00, 0.00, 0.00, 0.00, 0.01, 0.01, 1.01
233, -187500.02, 48821.75, 0.00, 0.00, 0.00, 0.00, 0.00, 0.00, 0.01, 0.01, 1.02
234, -187500.02, 48827.07, 0.00, 0.00, 0.00, 0.00, 0.00, 0.00, 0.01, 0.01, 1.02
235, -187500.02, 48852.66, 0.00, 0.00, 0.00, 0.00, 0.00, 0.00, 0.01, 0.01, 1.02
236, -187500.02, 48846.07, 0.00, 0.00, 0.00, 0.00, 0.00, 0.00, 0.01, 0.01, 1.02
237, -187500.02, 48822.31, 0.00, 0.00, 0.00, 0.00, 0.00, 0.00, 0.01, 0.01, 1.02
238, -187500.02, 48819.70, 0.00, 0.00, 0.00, 0.00, 0.00, 0.00, 0.01, 0.01, 1.02
239, -187500.02, 48842.76, 0.00, 0.00, 0.00, 0.00, 0.00, 0.00, 0.01, 0.01, 1.02
240, -187500.02, 48844.89, 0.00, 0.00, 0.00, 0.00, 0.00, 0.00, 0.01, 0.01, 1.02
241, -187500.02, 48818.51, 0.00, 0.00, 0.00, 0.00, 0.00, 0.00, 0.01, 0.01, 1.02
242, -187500.02, 48810.46, 0.00, 0.00, 0.00, 0.00, 0.00, 0.00, 0.01, 0.01, 1.02
243, -187500.02, 48834.56, 0.00, 0.00, 0.00, 0.00, 0.00, 0.00, 0.01, 0.01, 1.02
244, -187500.02, 48843.50, 0.00, 0.00, 0.00, 0.00, 0.00, 0.00, 0.01, 0.01, 1.02
245, -187500.02, 48820.88, 0.00, 0.00, 0.00, 0.00, 0.00, 0.00, 0.01, 0.01, 1.02
246, -187500.02, 48814.51, 0.00, 0.00, 0.00, 0.00, 0.00, 0.00, 0.01, 0.01, 1.02
247, -187500.02, 48829.04, 0.00, 0.00, 0.00, 0.00, 0.00, 0.00, 0.01, 0.01, 1.02
248, -187500.02, 48843.41, 0.00, 0.00, 0.00, 0.00, 0.00, 0.00, 0.01, 0.01, 1.02
249, -187500.02, 48825.89, 0.00, 0.00, 0.00, 0.00, 0.00, 0.00, 0.01, 0.01, 1.02
250, -187500.02, 48813.05, 0.00, 0.00, 0.00, 0.00, 0.00, 0.00, 0.01, 0.01, 1.02
251, -187500.02, 48825.73, 0.00, 0.00, 0.00, 0.00, 0.00, 0.00, 0.01, 0.01, 1.02
252, -187500.02, 48845.04, 0.00, 0.00, 0.00, 0.00, 0.00, 0.00, 0.01, 0.01, 1.02
253, -187500.02, 48831.81, 0.00, 0.00, 0.00, 0.00, 0.00, 0.00, 0.01, 0.01, 1.02
254, -187500.02, 48809.61, 0.00, 0.00, 0.00, 0.00, 0.00, 0.00, 0.01, 0.01, 1.02
255, -187500.02, 48817.71, 0.00, 0.00, 0.00, 0.00, 0.00, 0.00, 0.01, 0.01, 1.02
0, -187500.02, 48847.25, 0.00, 0.00, 0.00, 0.00, 0.00, 0.00, 0.01, 0.01, 1.02
1, -187500.02, 48839.19, 0.00, 0.00, 0.00, 0.00, 0.00, 0.00, 0.01, 0.01, 1.02
2, -187500.02, 48818.20, 0.00, 0.00, 0.00, 0.00, 0.00, 0.00, 0.01, 0.01, 1.02
3, -187500.02, 48822.60, 0.00, 0.00, 0.00, 0.00, 0.00, 0.00, 0.01, 0.01, 1.02
4, -187500.02, 48846.07, 0.00, 0.00, 0.00, 0.00, 0.00, 0.00, 0.01, 0.01, 1.02
5, -187500.02, 48838.92, 0.00, 0.00, 0.00, 0.00, 0.00, 0.00, 0.01, 0.01, 1.02
6, -187500.02, 48810.26, 0.00, 0.00, 0.00, 0.00, 0.00, 0.00, 0.01, 0.01, 1.02
7, -187500.02, 48808.92, 0.00, 0.00, 0.00, 0.00, 0.00, 0.00, 0.01, 0.01, 1.02
8, -187500.02, 48830.20, 0.00, 0.00, 0.00, 0.00, 0.00, 0.00, 0.01, 0.01, 1.02
9, -187500.02, 48826.42, 0.00, 0.00, 0.00, 0.00, 0.00, 0.00, 0.01, 0.01, 1.02
10, -187500.02, 48805.70, 0.00, 0.00, 0.00, 0.00, 0.00, 0.00, 0.01, 0.01, 1.02
11, -187500.02, 48801.19, 0.00, 0.00, 0.00, 0.00, 0.00, 0.00, 0.01, 0.01, 1.02
12, -187500.02, 48823.09, 0.00, 0.00, 0.00, 0.00, 0.00, 0.00, 0.01, 0.01, 1.02
13, -187500.02, 48833.91, 0.00, 0.00, 0.00, 0.00, 0.00, 0.00, 0.01, 0.01, 1.02
14, -187500.02, 48815.85, 0.00, 0.00, 0.00, 0.00, 0.00, 0.00, 0.01, 0.01, 1.02
15, -187500.02, 48805.82, 0.00, 0.00, 0.00, 0.00, 0.00, 0.00, 0.01, 0.01, 1.02
16, -187500.02, 48825.55, 0.00, 0.00, 0.00, 0.00, 0.00, 0.00, 0.01, 0.01, 1.02
17, -187500.02, 48840.46, 0.00, 0.00, 0.00, 0.00, 0.00, 0.00, 0.01, 0.01, 1.02
18, -187500.02, 48821.37, 0.00, 0.00, 0.00, 0.00, 0.00, 0.00, 0.01, 0.01, 1.02
19, -187500.02, 48808.12, 0.00, 0.00, 0.00, 0.00, 0.00, 0.00, 0.01, 0.01, 1.02
20, -187500.02, 48825.21, 0.00, 0.00, 0.00, 0.00, 0.00, 0.00, 0.01, 0.01, 1.02
21, -187500.02, 48845.49, 0.00, 0.00, 0.00, 0.00, 0.00, 0.00, 0.01, 0.01, 1.02
22, -187500.02, 48831.41, 0.00, 0.00, 0.00, 0.00, 0.00, 0.00, 0.01, 0.01, 1.02
23, -187500.02, 48808.54, 0.00, 0.00, 0.00, 0.00, 0.00, 0.00, 0.01, 0.01, 1.02
24, -187500.02, 48816.97, 0.00, 0.00, 0.00, 0.00, 0.00, 0.00, 0.01, 0.01, 1.02
25, -187500.02, 48838.27, 0.00, 0.00, 0.00, 0.00, 0.00, 0.00, 0.01, 0.01, 1.02
26, -187500.02, 48833.40, 0.00, 0.00, 0.00, 0.00, 0.00, 0.00, 0.01, 0.01, 1.02
27, -187500.02, 48814.22, 0.00, 0.00, 0.00, 0.00, 0.00, 0.00, 0.02, 0.00, 1.02
28, -187500.02, 48814.96, 0.00, 0.00, 0.00, 0.00, 0.00, 0.00, 0.02, 0.00, 1.02
29, -187500.02, 48839.43, 0.00, 0.00, 0.00, 0.00, 0.00, 0.00, 0.02, 0.00, 1.02
30, -187500.02, 48839.03, 0.00, 0.00, 0.00, 0.00, 0.00, 0.00, 0.02, 0.00, 1.02
31, -187500.02, 48807.89, 0.00, 0.00, 0.00, 0.00, 0.00, 0.00, 0.02, 0.00, 1.02
32, -187500.02, 48803.09, 0.00, 0.00, 0.00, 0.00, 0.00, 0.00, 0.01, 0.01, 1.02
33, -187500.02, 48834.36, 0.00, 0.00, 0.00, 0.00, 0.00, 0.00, 0.01, 0.01, 1.02
34, -187500.02, 48839.25, 0.00, 0.00, 0.00, 0.00, 0.00, 0.00, 0.01, 0.01, 1.02
35, -187500.02, 48814.75, 0.00, 0.00, 0.00, 0.00, 0.00, 0.00, 0.01, 0.01, 1.02
36, -187500.02, 48808.09, 0.00, 0.00, 0.00, 0.00, 0.00, 0.00, 0.01, 0.01, 1.02
37, -187500.02, 48825.30, 0.00, 0.00, 0.00, 0.00, 0.00, 0.00, 0.02, 0.00, 1.01
38, -187500.02, 48829.15, 0.00, 0.00, 0.00, 0.00, 0.00, 0.00, 0.02, 0.00, 1.01
39, -187500.02, 48803.45, 0.00, 0.00, 0.00, 0.00, 0.00, 0.00, 0.02, 0.00, 1.01
40, -187500.02, 48797.41, 0.00, 0.00, 0.00, 0.00, 0.00, 0.00, 0.02, 0.00, 1.01
41, -187500.02, 48810.42, 0.00, 0.00, 0.00, 0.00, 0.00, 0.00, 0.02, 0.00, 1.01
42, -187500.02, 48825.86, 0.00, 0.00, 0.00, 0.00, 0.00, 0.00, 0.02, 0.01, 1.01
43, -187500.02, 48809.61, 0.00, 0.00, 0.00, 0.00, 0.00, 0.00, 0.02, 0.01, 1.01
44, -187500.02, 48790.41, 0.00, 0.00, 0.00, 0.00, 0.00, 0.00, 0.02, 0.01, 1.01
45, -187500.02, 48807.54, 0.00, 0.00, 0.00, 0.00, 0.00, 0.00, 0.02, 0.01, 1.01
46, -187500.02, 48818.36, 0.00, 0.00, 0.00, 0.00, 0.00, 0.00, 0.02, 0.01, 1.01
47, -187500.02, 48805.23, 0.00, 0.00, 0.00, 0.00, 0.00, 0.00, 0.01, 0.01, 1.02
48, -187500.02, 48790.30, 0.00, 0.00, 0.00, 0.00, 0.00, 0.00, 0.01, 0.01, 1.02
49, -187500.02, 48791.75, 0.00, 0.00, 0.00, 0.00, 0.00, 0.00, 0.01, 0.01, 1.02
50, -187500.02, 48821.73, 0.00, 0.00, 0.00, 0.00, 0.00, 0.00, 0.01, 0.01, 1.02
51, -187500.02, 48823.45, 0.00, 0.00, 0.00, 0.00, 0.00, 0.00, 0.01, 0.01, 1.02
52, -187500.02, 48800.76, 0.00, 0.00, 0.00, 0.00, 0.00, 0.00, 0.01, 0.00, 1.02
53, -187500.02, 48801.88, 0.00, 0.00, 0.00, 0.00, 0.00, 0.00, 0.01, 0.00, 1.02
54, -187500.02, 48830.13, 0.00, 0.00, 0.00, 0.00, 0.00, 0.00, 0.01, 0.00, 1.02
55, -187500.02, 48837.42, 0.00, 0.00, 0.00, 0.00, 0.00, 0.00, 0.01, 0.00, 1.02
56, -187500.02, 48812.70, 0.00, 0.00, 0.00, 0.00, 0.00, 0.00, 0.01, 0.00, 1.02
57, -187500.02, 48804.63, 0.00, 0.00, 0.00, 0.00, 0.00, 0.00, 0.01, 0.01, 1.02
58, -187500.02, 48828.41, 0.00, 0.00, 0.00, 0.00, 0.00, 0.00, 0.01, 0.01, 1.02
59, -187500.02, 48838.18, 0.00, 0.00, 0.00, 0.00, 0.00, 0.00, 0.01, 0.01, 1.02
60, -187500.02, 48809.23, 0.00, 0.00, 0.00, 0.00, 0.00, 0.00, 0.01, 0.01, 1.02
61, -187500.02, 48802.04, 0.00, 0.00, 0.00, 0.00, 0.00, 0.00, 0.01, 0.01, 1.02
62, -187500.02, 48831.14, 0.00, 0.00, 0.00, 0.00, 0.00, 0.00, 0.01, 0.00, 1.02
63, -187500.02, 48838.14, 0.00, 0.00, 0.00, 0.00, 0.00, 0.00, 0.01, 0.00, 1.02
64, -187500.02, 48814.44, 0.00, 0.00, 0.00, 0.00, 0.00, 0.00, 0.01, 0.00, 1.02
65, -187500.02, 48802.35, 0.00, 0.00, 0.00, 0.00, 0.00, 0.00, 0.01, 0.00, 1.02
66, -187500.02, 48817.46, 0.00, 0.00, 0.00, 0.00, 0.00, 0.00, 0.01, 0.00, 1.02
67, -187500.02, 48834.27, 0.00, 0.00, 0.00, 0.00, 0.00, 0.00, 0.01, 0.01, 1.02
68, -187500.02, 48820.93, 0.00, 0.00, 0.00, 0.00, 0.00, 0.00, 0.01, 0.01, 1.02
69, -187500.02, 48803.78, 0.00, 0.00, 0.00, 0.00, 0.00, 0.00, 0.01, 0.01, 1.02
70, -187500.02, 48812.09, 0.00, 0.00, 0.00, 0.00, 0.00, 0.00, 0.01, 0.01, 1.02
71, -187500.02, 48835.05, 0.00, 0.00, 0.00, 0.00, 0.00, 0.00, 0.01, 0.01, 1.02
72, -187500.02, 48824.70, 0.00, 0.00, 0.00, 0.00, 0.00, 0.00, 0.01, 0.01, 1.02
73, -187500.02, 48799.33, 0.00, 0.00, 0.00, 0.00, 0.00, 0.00, 0.01, 0.01, 1.02
74, -187500.02, 48800.43, 0.00, 0.00, 0.00, 0.00, 0.00, 0.00, 0.01, 0.01, 1.02
75, -187500.02, 48830.20, 0.00, 0.00, 0.00, 0.00, 0.00, 0.00, 0.01, 0.01, 1.02
76, -187500.02, 48831.54, 0.00, 0.00, 0.00, 0.00, 0.00, 0.00, 0.01, 0.01, 1.02
77, -187500.02, 48805.79, 0.00, 0.00, 0.00, 0.00, 0.00, 0.00, 0.01, 0.01, 1.02
78, -187500.02, 48800.92, 0.00, 0.00, 0.00, 0.00, 0.00, 0.00, 0.01, 0.01, 1.02
79, -187500.02, 48825.28, 0.00, 0.00, 0.00, 0.00, 0.00, 0.00, 0.01, 0.01, 1.02
80, -187500.02, 48827.88, 0.00, 0.00, 0.00, 0.00, 0.00, 0.00, 0.01, 0.01, 1.02
81, -187500.02, 48806.66, 0.00, 0.00, 0.00, 0.00, 0.00, 0.00, 0.01, 0.01, 1.02
82, -187500.02, 48804.09, 0.00, 0.00, 0.00, 0.00, 0.00, 0.00, 0.01, 0.01, 1.02
83, -187500.02, 48831.99, 0.00, 0.00, 0.00, 0.00, 0.00, 0.00, 0.01, 0.01, 1.02
84, -187500.02, 48840.86, 0.00, 0.00, 0.00, 0.00, 0.00, 0.00, 0.01, 0.01, 1.02
85, -187500.02, 48814.62, 0.00, 0.00, 0.00, 0.00, 0.00, 0.00, 0.01, 0.01, 1.02
86, -187500.02, 48801.84, 0.00, 0.00, 0.00, 0.00, 0.00, 0.00, 0.01, 0.01, 1.02
87, -187500.02, 48816.86, 0.00, 0.00, 0.00, 0.00, 0.00, 0.00, 0.01, 0.01, 1.02
88, -187500.02, 48838.14, 0.00, 0.00, 0.00, 0.00, 0.00, 0.00, 0.01, 0.01, 1.01
89, -187500.02, 48814.04, 0.00, 0.00, 0.00, 0.00, 0.00, 0.00, 0.01, 0.01, 1.01
90, -187500.02, 48798.04, 0.00, 0.00, 0.00, 0.00, 0.00, 0.00, 0.01, 0.01, 1.01
91, -187500.02, 48820.14, 0.00, 0.00, 0.00, 0.00, 0.00, 0.00, 0.01, 0.01, 1.01
92, -187500.02, 48838.11, 0.00, 0.00, 0.00, 0.00, 0.00, 0.00, 0.01, 0.01, 1.01
93, -187500.02, 48820.97, 0.00, 0.00, 0.00, 0.00, 0.00, 0.00, 0.01, 0.01, 1.01
94, -187500.02, 48806.33, 0.00, 0.00, 0.00, 0.00, 0.00, 0.00, 0.01, 0.01, 1.01
95, -187500.02, 48817.80, 0.00, 0.00, 0.00, 0.00, 0.00, 0.00, 0.01, 0.01, 1.01
96, -187500.02, 48832.19, 0.00, 0.00, 0.00, 0.00, 0.00, 0.00, 0.01, 0.01, 1.01
97, -187500.02, 48824.55, 0.00, 0.00, 0.00, 0.00, 0.00, 0.00, 0.01, 0.01, 1.01
98, -187500.02, 48797.39, 0.00, 0.00, 0.00, 0.00, 0.00, 0.00, 0.01, 0.01, 1.01
99, -187500.02, 48801.81, 0.00, 0.00, 0.00, 0.00, 0.00, 0.00, 0.01, 0.01, 1.01
100, -187500.02, 48827.68, 0.00, 0.00, 0.00, 0.00, 0.00, 0.00, 0.01, 0.01, 1.01
101, -187500.02, 48821.35, 0.00, 0.00, 0.00, 0.00, 0.00, 0.00, 0.01, 0.01, 1.01
102, -187500.02, 48796.83, 0.00, 0.00, 0.00, 0.00, 0.00, 0.00, 0.01, 0.01, 1.01
103, -187500.02, 48795.46, 0.00, 0.00, 0.00, 0.00, 0.00, 0.00, 0.02, 0.01, 1.01
104, -187500.02, 48824.84, 0.00, 0.00, 0.00, 0.00, 0.00, 0.00, 0.02, 0.01, 1.01
105, -187500.02, 48823.76, 0.00, 0.00, 0.00, 0.00, 0.00, 0.00, 0.02, 0.01, 1.01
106, -187500.02, 48804.38, 0.00, 0.00, 0.00, 0.00, 0.00, 0.00, 0.02, 0.01, 1.01
107, -187500.02, 48799.82, 0.00, 0.00, 0.00, 0.00, 0.00, 0.00, 0.02, 0.01, 1.01
108, -187500.02, 48814.49, 0.00, 0.00, 0.00, 0.00, 0.00, 0.00, 0.01, 0.01, 1.02
109, -187500.02, 48826.45, 0.00, 0.00, 0.00, 0.00, 0.00, 0.00, 0.01, 0.01, 1.02
110, -187500.02, 48810.08, 0.00, 0.00, 0.00, 0.00, 0.00, 0.00, 0.01, 0.01, 1.02
111, -187500.02, 48795.33, 0.00, 0.00, 0.00, 0.00, 0.00, 0.00, 0.01, 0.01, 1.02
112, -187500.02, 48810.73, 0.00, 0.00, 0.00, 0.00, 0.00, 0.00, 0.01, 0.01, 1.02
113, -187500.02, 48823.90, 0.00, 0.00, 0.00, 0.00, 0.00, 0.00, 0.01, 0.00, 1.02
114, -187500.02, 48811.36, 0.00, 0.00, 0.00, 0.00, 0.00, 0.00, 0.01, 0.00, 1.02
115, -187500.02, 48793.12, 0.00, 0.00, 0.00, 0.00, 0.00, 0.00, 0.01, 0.00, 1.02
116, -187500.02, 48810.75, 0.00, 0.00, 0.00, 0.00, 0.00, 0.00, 0.01, 0.00, 1.02
117, -187500.02, 48825.02, 0.00, 0.00, 0.00, 0.00, 0.00, 0.00, 0.01, 0.00, 1.02
118, -187500.02, 48808.41, 0.00, 0.00, 0.00, 0.00, 0.00, 0.00, 0.01, 0.00, 1.02
119, -187500.02, 48790.32, 0.00, 0.00, 0.00, 0.00, 0.00, 0.00, 0.01, 0.00, 1.02
120, -187500.02, 48798.08, 0.00, 0.00, 0.00, 0.00, 0.00, 0.00, 0.01, 0.00, 1.02
121, -187500.02, 48825.39, 0.00, 0.00, 0.00, 0.00, 0.00, 0.00, 0.01, 0.00, 1.02
122, -187500.02, 48817.41, 0.00, 0.00, 0.00, 0.00, 0.00, 0.00, 0.01, 0.00, 1.02
123, -187500.02, 48790.86, 0.00, 0.00, 0.00, 0.00, 0.00, 0.00, 0.02, -0.00, 1.02
124, -187500.02, 48789.50, 0.00, 0.00, 0.00, 0.00, 0.00, 0.00, 0.02, -0.00, 1.02
125, -187500.02, 48812.77, 0.00, 0.00, 0.00, 0.00, 0.00, 0.00, 0.02, -0.00, 1.02
126, -187500.02, 48812.39, 0.00, 0.00, 0.00, 0.00, 0.00, 0.00, 0.02, -0.00, 1.02
127, -187500.02, 48789.63, 0.00, 0.00, 0.00, 0.00, 0.00, 0.00, 0.02, -0.00, 1.02
128, -187500.02, 48787.78, 0.00, 0.00, 0.00, 0.00, 0.00, 0.00, 0.01, 0.01, 1.01
129, -187500.02, 48809.64, 0.00, 0.00, 0.00, 0.00, 0.00, 0.00, 0.01, 0.01, 1.01
130, -187500.02, 48814.93, 0.00, 0.00, 0.00, 0.00, 0.00, 0.00, 0.01, 0.01, 1.01
131, -187500.02, 48789.83, 0.00, 0.00, 0.00, 0.00, 0.00, 0.00, 0.01, 0.01, 1.01
132, -187500.02, 48783.73, 0.00, 0.00, 0.00, 0.00, 0.00, 0.00, 0.01, 0.01, 1.01
133, -187500.02, 48805.55, 0.00, 0.00, 0.00, 0.00, 0.00, 0.00, 0.01, 0.01, 1.02
134, -187500.02, 48817.23, 0.00, 0.00, 0.00, 0.00, 0.00, 0.00, 0.01, 0.01, 1.02
135, -187500.02, 48791.02, 0.00, 0.00, 0.00, 0.00, 0.00, 0.00, 0.01, 0.01, 1.02
136, -187500.02, 48778.68, 0.00, 0.00, 0.00, 0.00, 0.00, 0.00, 0.01, 0.01, 1.02
137, -187500.02, 48801.32, 0.00, 0.00, 0.00, 0.00, 0.00, 0.00, 0.01, 0.01, 1.02
138, -187500.02, 48819.09, 0.00, 0.00, 0.00, 0.00, 0.00, 0.00, 0.01, 0.01, 1.02
139, -187500.02, 48803.78, 0.00, 0.00, 0.00, 0.00, 0.00, 0.00, 0.01, 0.01, 1.02
140, -187500.02, 48786.73, 0.00, 0.00, 0.00, 0.00, 0.00, 0.00, 0.01, 0.01, 1.02
141, -187500.02, 48793.41, 0.00, 0.00, 0.00, 0.00, 0.00, 0.00, 0.01, 0.01, 1.02
142, -187500.02, 48816.97, 0.00, 0.00, 0.00, 0.00, 0.00, 0.00, 0.01, 0.01, 1.02
143, -187500.02, 48798.53, 0.00, 0.00, 0.00, 0.00, 0.00, 0.00, 0.01, 0.01, 1.01
144, -187500.02, 48779.51, 0.00, 0.00, 0.00, 0.00, 0.00, 0.00, 0.01, 0.01, 1.01
145, -187500.02, 48790.39, 0.00, 0.00, 0.00, 0.00, 0.00, 0.00, 0.01, 0.01, 1.01
146, -187500.02, 48812.90, 0.00, 0.00, 0.00, 0.00, 0.00, 0.00, 0.01, 0.01, 1.01
147, -187500.02, 48802.46, 0.00, 0.00, 0.00, 0.00, 0.00, 0.00, 0.01, 0.01, 1.01
148, -187500.02, 48781.47, 0.00, 0.00, 0.00, 0.00, 0.00, 0.00, 0.01, 0.01, 1.02
149, -187500.02, 48782.39, 0.00, 0.00, 0.00, 0.00, 0.00, 0.00, 0.01, 0.01, 1.02
150, -187500.02, 48803.64, 0.00, 0.00, 0.00, 0.00, 0.00, 0.00, 0.01, 0.01, 1.02
151, -187500.02, 48806.13, 0.00, 0.00, 0.00, 0.00, 0.00, 0.00, 0.01, 0.01, 1.02
152, -187500.02, 48791.49, 0.00, 0.00, 0.00, 0.00, 0.00, 0.00, 0.01, 0.01, 1.02
153, -187500.02, 48789.03, 0.00, 0.00, 0.00, 0.00, 0.00, 0.00, 0.01, 0.01, 1.02
154, -187500.02, 48806.02, 0.00, 0.00, 0.00, 0.00, 0.00, 0.00, 0.01, 0.01, 1.02
155, -187500.02, 48813.73, 0.00, 0.00, 0.00, 0.00, 0.00, 0.00, 0.01, 0.01, 1.02
156, -187500.02, 48788.94, 0.00, 0.00, 0.00, 0.00, 0.00, 0.00, 0.01, 0.01, 1.02
157, -187500.02, 48779.57, 0.00, 0.00, 0.00, 0.00, 0.00, 0.00, 0.01, 0.01, 1.02
158, -187500.02, 48805.03, 0.00, 0.00, 0.00, 0.00, 0.00, 0.00, 0.02, 0.01, 1.02
159, -187500.02, 48817.68, 0.00, 0.00, 0.00, 0.00, 0.00, 0.00, 0.02, 0.01, 1.02
160, -187500.02, 48797.03, 0.00, 0.00, 0.00, 0.00, 0.00, 0.00, 0.02, 0.01, 1.02
161, -187500.02, 48785.83, 0.00, 0.00, 0.00, 0.00, 0.00, 0.00, 0.02, 0.01, 1.02
162, -187500.02, 48802.86, 0.00, 0.00, 0.00, 0.00, 0.00, 0.00, 0.02, 0.01, 1.02
163, -187500.02, 48821.28, 0.00, 0.00, 0.00, 0.00, 0.00, 0.00, 0.01, 0.01, 1.02
164, -187500.02, 48807.13, 0.00, 0.00, 0.00, 0.00, 0.00, 0.00, 0.01, 0.01, 1.02
165, -187500.02, 48784.54, 0.00, 0.00, 0.00, 0.00, 0.00, 0.00, 0.01, 0.01, 1.02
166, -187500.02, 48795.62, 0.00, 0.00, 0.00, 0.00, 0.00, 0.00, 0.01, 0.01, 1.02
167, -187500.02, 48821.33, 0.00, 0.00, 0.00, 0.00, 0.00, 0.00, 0.01, 0.01, 1.02
168, -187500.02, 48810.75, 0.00, 0.00, 0.00, 0.00, 0.00, 0.00, 0.01, 0.01, 1.02
169, -187500.02, 48783.95, 0.00, 0.00, 0.00, 0.00, 0.00, 0.00, 0.01, 0.01, 1.02
170, -187500.02, 48792.94, 0.00, 0.00, 0.00, 0.00, 0.00, 0.00, 0.01, 0.01, 1.02
171, -187500.02, 48817.37, 0.00, 0.00, 0.00, 0.00, 0.00, 0.00, 0.01, 0.01, 1.02
172, -187500.02, 48802.98, 0.00, 0.00, 0.00, 0.00, 0.00, 0.00, 0.01, 0.01, 1.02
173, -187500.02, 48773.98, 0.00, 0.00, 0.00, 0.00, 0.00, 0.00, 0.01, 0.01, 1.02
174, -187500.02, 48780.69, 0.00, 0.00, 0.00, 0.00, 0.00, 0.00, 0.01, 0.01, 1.02
175, -187500.02, 48819.25, 0.00, 0.00, 0.00, 0.00, 0.00, 0.00, 0.01, 0.01, 1.02
176, -187500.02, 48815.14, 0.00, 0.00, 0.00, 0.00, 0.00, 0.00, 0.01, 0.01, 1.02
177, -187500.02, 48787.93, 0.00, 0.00, 0.00, 0.00, 0.00, 0.00, 0.01, 0.01, 1.02
178, -187500.02, 48787.02, 0.00, 0.00, 0.00, 0.00, 0.00, 0.00, 0.01, 0.01, 1.02
179, -187500.02, 48813.66, 0.00, 0.00, 0.00, 0.00, 0.00, 0.00, 0.01, 0.01, 1.02
180, -187500.02, 48821.33, 0.00, 0.00, 0.00, 0.00, 0.00, 0.00, 0.01, 0.01, 1.02
181, -187500.02, 48791.49, 0.00, 0.00, 0.00, 0.00, 0.00, 0.00, 0.01, 0.01, 1.02
182, -187500.02, 48782.37, 0.00, 0.00, 0.00, 0.00, 0.00, 0.00, 0.01, 0.01, 1.02
183, -187500.02, 48810.69, 0.00, 0.00, 0.00, 0.00, 0.00, 0.00, 0.01, 0.01, 1.02
184, -187500.02, 48824.66, 0.00, 0.00, 0.00, 0.00, 0.00, 0.00, 0.01, 0.01, 1.02
185, -187500.02, 48800.34, 0.00, 0.00, 0.00, 0.00, 0.00, 0.00, 0.01, 0.01, 1.02
186, -187500.02, 48782.79, 0.00, 0.00, 0.00, 0.00, 0.00, 0.00, 0.01, 0.01, 1.02
187, -187500.02, 48810.11, 0.00, 0.00, 0.00, 0.00, 0.00, 0.00, 0.01, 0.01, 1.02
188, -187500.02, 48831.50, 0.00, 0.00, 0.00, 0.00, 0.00, 0.00, 0.01, 0.02, 1.02
189, -187500.02, 48811.20, 0.00, 0.00, 0.00, 0.00, 0.00, 0.00, 0.01, 0.02, 1.02
190, -187500.02, 48794.71, 0.00, 0.00, 0.00, 0.00, 0.00, 0.00, 0.01, 0.02, 1.02
191, -187500.02, 48809.82, 0.00, 0.00, 0.00, 0.00, 0.00, 0.00, 0.01, 0.02, 1.02
192, -187500.02, 48827.59, 0.00, 0.00, 0.00, 0.00, 0.00, 0.00, 0.01, 0.02, 1.02
193, -187500.02, 48815.52, 0.00, 0.00, 0.00, 0.00, 0.00, 0.00, 0.01, 0.01, 1.01
194, -187500.02, 48794.48, 0.00, 0.00, 0.00, 0.00, 0.00, 0.00, 0.01, 0.01, 1.01
195, -187500.02, 48802.17, 0.00, 0.00, 0.00, 0.00, 0.00, 0.00, 0.01, 0.01, 1.01
196, -187500.02, 48823.74, 0.00, 0.00, 0.00, 0.00, 0.00, 0.00, 0.01, 0.01, 1.01
197, -187500.02, 48821.53, 0.00, 0.00, 0.00, 0.00, 0.00, 0.00, 0.01, 0.01, 1.01
198, -187500.02, 48791.26, 0.00, 0.00, 0.00, 0.00, 0.00, 0.00, 0.01, 0.01, 1.02
199, -187500.02, 48787.33, 0.00, 0.00, 0.00, 0.00, 0.00, 0.00, 0.01, 0.01, 1.02
200, -187500.02, 48820.05, 0.00, 0.00, 0.00, 0.00, 0.00, 0.00, 0.01, 0.01, 1.02
201, -187500.02, 48817.50, 0.00, 0.00, 0.00, 0.00, 0.00, 0.00, 0.01, 0.01, 1.02
202, -187500.02, 48794.41, 0.00, 0.00, 0.00, 0.00, 0.00, 0.00, 0.01, 0.01, 1.02
203, -187500.02, 48789.68, 0.00, 0.00, 0.00, 0.00, 0.00, 0.00, 0.01, 0.01, 1.02
204, -187500.02, 48815.14, 0.00, 0.00, 0.00, 0.00, 0.00, 0.00, 0.01, 0.01, 1.02
205, -187500.02, 48820.77, 0.00, 0.00, 0.00, 0.00, 0.00, 0.00, 0.01, 0.01, 1.02
206, -187500.02, 48804.79, 0.00, 0.00, 0.00, 0.00, 0.00, 0.00, 0.01, 0.01, 1.02
207, -187500.02, 48791.22, 0.00, 0.00, 0.00, 0.00, 0.00, 0.00, 0.01, 0.01, 1.02
208, -187500.02, 48815.38, 0.00, 0.00, 0.00, 0.00, 0.00, 0.00, 0.01, 0.01, 1.02
209, -187500.02, 48828.93, 0.00, 0.00, 0.00, 0.00, 0.00, 0.00, 0.01, 0.01, 1.02
210, -187500.02, 48809.93, 0.00, 0.00, 0.00, 0.00, 0.00, 0.00, 0.01, 0.01, 1.02
211, -187500.02, 48794.59, 0.00, 0.00, 0.00, 0.00, 0.00, 0.00, 0.01, 0.01, 1.02
212, -187500.02, 48815.36, 0.00, 0.00, 0.00, 0.00, 0.00, 0.00, 0.01, 0.01, 1.02
213, -187500.02, 48833.13, 0.00, 0.00, 0.00, 0.00, 0.00, 0.00, 0.01, 0.01, 1.02
214, -187500.02, 48818.84, 0.00, 0.00, 0.00, 0.00, 0.00, 0.00, 0.01, 0.01, 1.02
215, -187500.02, 48796.54, 0.00, 0.00, 0.00, 0.00, 0.00, 0.00, 0.01, 0.01, 1.02
216, -187500.02, 48802.11, 0.00, 0.00, 0.00, 0.00, 0.00, 0.00, 0.01, 0.01, 1.02
217, -187500.02, 48820.88, 0.00, 0.00, 0.00, 0.00, 0.00, 0.00, 0.01, 0.01, 1.02
218, -187500.02, 48811.83, 0.00, 0.00, 0.00, 0.00, 0.00, 0.00, 0.01, 0.01, 1.02
219, -187500.02, 48791.71, 0.00, 0.00, 0.00, 0.00, 0.00, 0.00, 0.01, 0.01, 1.02
220, -187500.02, 48800.11, 0.00, 0.00, 0.00, 0.00, 0.00, 0.00, 0.01, 0.01, 1.02
221, -187500.02, 48823.52, 0.00, 0.00, 0.00, 0.00, 0.00, 0.00, 0.01, 0.01, 1.02
222, -187500.02, 48819.85, 0.00, 0.00, 0.00, 0.00, 0.00, 0.00, 0.01, 0.01, 1.02
223, -187500.02, 48797.45, 0.00, 0.00, 0.00, 0.00, 0.00, 0.00, 0.01, 0.01, 1.02
224, -187500.02, 48797.07, 0.00, 0.00, 0.00, 0.00, 0.00, 0.00, 0.01, 0.01, 1.02
