%OpenBCI Raw EEG Data
%
%Sample Rate = 250.0 Hz
%First Column = SampleIndex
%Other Columns = EEG data in microvolts followed by Accel Data (in G) interleaved with Aux Data
0, 0.00, 27408.33, 0.00, 0.00, 0.00, 0.00, 0.00, 0.00, 0.01, -0.19, 1.01
1, 0.00, 27410.97, 0.00, 0.00, 0.00, 0.00, 0.00, 0.00, 0.01, -0.19, 1.01
2, 0.00, 27412.71, 0.00, 0.00, 0.00, 0.00, 0.00, 0.00, 0.00, -0.19, 1.01
3, 0.00, 27406.01, 0.00, 0.00, 0.00, 0.00, 0.00, 0.00, 0.00, -0.19, 1.01
4, 0.00, 27399.55, 0.00, 0.00, 0.00, 0.00, 0.00, 0.00, 0.00, -0.19, 1.01
5, 0.00, 27404.22, 0.00, 0.00, 0.00, 0.00, 0.00, 0.00, 0.00, -0.19, 1.01
6, 0.00, 27410.12, 0.00, 0.00, 0.00, 0.00, 0.00, 0.00, 0.00, -0.19, 1.01
7, 0.00, 27394.92, 0.00, 0.00, 0.00, 0.00, 0.00, 0.00, 0.01, -0.19, 1.01
8, 0.00, 27406.77, 0.00, 0.00, 0.00, 0.00, 0.00, 0.00, 0.01, -0.19, 1.01
9, 0.00, 27408.74, 0.00, 0.00, 0.00, 0.00, 0.00, 0.00, 0.01, -0.19, 1.01
10, 0.00, 27409.65, 0.00, 0.00, 0.00, 0.00, 0.00, 0.00, 0.01, -0.19, 1.01
11, 0.00, 27398.77, 0.00, 0.00, 0.00, 0.00, 0.00, 0.00, 0.01, -0.19, 1.01
12, 0.00, 27415.55, 0.00, 0.00, 0.00, 0.00, 0.00, 0.00, 0.01, -0.19, 1.01
13, 0.00, 27422.62, 0.00, 0.00, 0.00, 0.00, 0.00, 0.00, 0.01, -0.19, 1.01
14, 0.00, 27415.98, 0.00, 0.00, 0.00, 0.00, 0.00, 0.00, 0.01, -0.19, 1.01
15, 0.00, 27408.36, 0.00, 0.00, 0.00, 0.00, 0.00, 0.00, 0.01, -0.19, 1.01
16, 0.00, 27446.80, 0.00, 0.00, 0.00, 0.00, 0.00, 0.00, 0.01, -0.19, 1.01
17, 0.00, 27439.34, 0.00, 0.00, 0.00, 0.00, 0.00, 0.00, 0.01, -0.19, 1.01
18, 0.00, 27421.30, 0.00, 0.00, 0.00, 0.00, 0.00, 0.00, 0.01, -0.19, 1.01
19, 0.00, 27420.87, 0.00, 0.00, 0.00, 0.00, 0.00, 0.00, 0.01, -0.19, 1.01
20, 0.00, 27434.87, 0.00, 0.00, 0.00, 0.00, 0.00, 0.00, 0.01, -0.19, 1.01
21, 0.00, 27441.57, 0.00, 0.00, 0.00, 0.00, 0.00, 0.00, 0.01, -0.19, 1.01
22, 0.00, 27426.93, 0.00, 0.00, 0.00, 0.00, 0.00, 0.00, 0.01, -0.19, 1.01
23, 0.00, 27452.54, 0.00, 0.00, 0.00, 0.00, 0.00, 0.00, 0.01, -0.19, 1.01
24, 0.00, 27461.44, 0.00, 0.00, 0.00, 0.00, 0.00, 0.00, 0.01, -0.19, 1.01
25, 0.00, 27461.75, 0.00, 0.00, 0.00, 0.00, 0.00, 0.00, 0.01, -0.19, 1.01
26, 0.00, 27456.14, 0.00, 0.00, 0.00, 0.00, 0.00, 0.00, 0.01, -0.19, 1.01
27, 0.00, 27445.73, 0.00, 0.00, 0.00, 0.00, 0.00, 0.00, 0.01, -0.19, 1.01
28, 0.00, 27451.50, 0.00, 0.00, 0.00, 0.00, 0.00, 0.00, 0.01, -0.19, 1.01
29, 0.00, 27480.13, 0.00, 0.00, 0.00, 0.00, 0.00, 0.00, 0.01, -0.19, 1.01
30, 0.00, 27465.44, 0.00, 0.00, 0.00, 0.00, 0.00, 0.00, 0.01, -0.19, 1.01
31, 0.00, 27445.21, 0.00, 0.00, 0.00, 0.00, 0.00, 0.00, 0.01, -0.19, 1.01
32, 0.00, 27448.59, 0.00, 0.00, 0.00, 0.00, 0.00, 0.00, 0.01, -0.18, 1.02
33, 0.00, 27460.64, 0.00, 0.00, 0.00, 0.00, 0.00, 0.00, 0.01, -0.18, 1.02
34, 0.00, 27472.95, 0.00, 0.00, 0.00, 0.00, 0.00, 0.00, 0.01, -0.18, 1.02
35, 0.00, 27474.41, 0.00, 0.00, 0.00, 0.00, 0.00, 0.00, 0.01, -0.18, 1.02
36, 0.00, 27463.81, 0.00, 0.00, 0.00, 0.00, 0.00, 0.00, 0.01, -0.18, 1.02
37, 0.00, 27474.52, 0.00, 0.00, 0.00, 0.00, 0.00, 0.00, 0.01, -0.19, 1.01
38, 0.00, 27484.62, 0.00, 0.00, 0.00, 0.00, 0.00, 0.00, 0.01, -0.19, 1.01
39, 0.00, 27462.34, 0.00, 0.00, 0.00, 0.00, 0.00, 0.00, 0.01, -0.19, 1.01
40, 0.00, 27474.00, 0.00, 0.00, 0.00, 0.00, 0.00, 0.00, 0.01, -0.19, 1.01
41, 0.00, 27465.55, 0.00, 0.00, 0.00, 0.00, 0.00, 0.00, 0.01, -0.19, 1.01
42, 0.00, 27467.68, 0.00, 0.00, 0.00, 0.00, 0.00, 0.00, 0.01, -0.18, 1.01
43, 0.00, 27480.02, 0.00, 0.00, 0.00, 0.00, 0.00, 0.00, 0.01, -0.18, 1.01
44, 0.00, 27475.59, 0.00, 0.00, 0.00, 0.00, 0.00, 0.00, 0.01, -0.18, 1.01
45, 0.00, 27485.34, 0.00, 0.00, 0.00, 0.00, 0.00, 0.00, 0.01, -0.18, 1.01
46, 0.00, 27485.02, 0.00, 0.00, 0.00, 0.00, 0.00, 0.00, 0.01, -0.18, 1.01
47, 0.00, 27497.85, 0.00, 0.00, 0.00, 0.00, 0.00, 0.00, 0.00, -0.17, 1.01
48, 0.00, 27495.06, 0.00, 0.00, 0.00, 0.00, 0.00, 0.00, 0.00, -0.17, 1.01
49, 0.00, 27491.55, 0.00, 0.00, 0.00, 0.00, 0.00, 0.00, 0.00, -0.17, 1.01
50, 0.00, 27495.28, 0.00, 0.00, 0.00, 0.00, 0.00, 0.00, 0.00, -0.17, 1.01
51, 0.00, 27497.07, 0.00, 0.00, 0.00, 0.00, 0.00, 0.00, 0.00, -0.17, 1.01
52, 0.00, 27488.93, 0.00, 0.00, 0.00, 0.00, 0.00, 0.00, 0.01, -0.18, 1.02
53, 0.00, 27485.76, 0.00, 0.00, 0.00, 0.00, 0.00, 0.00, 0.01, -0.18, 1.02
54, 0.00, 27487.84, 0.00, 0.00, 0.00, 0.00, 0.00, 0.00, 0.01, -0.18, 1.02
55, 0.00, 27490.07, 0.00, 0.00, 0.00, 0.00, 0.00, 0.00, 0.01, -0.18, 1.02
56, 0.00, 27488.13, 0.00, 0.00, 0.00, 0.00, 0.00, 0.00, 0.01, -0.18, 1.02
57, 0.00, 27487.84, 0.00, 0.00, 0.00, 0.00, 0.00, 0.00, 0.01, -0.18, 1.02
58, 0.00, 27506.14, 0.00, 0.00, 0.00, 0.00, 0.00, 0.00, 0.01, -0.18, 1.02
59, 0.00, 27498.57, 0.00, 0.00, 0.00, 0.00, 0.00, 0.00, 0.01, -0.18, 1.02
60, 0.00, 27503.62, 0.00, 0.00, 0.00, 0.00, 0.00, 0.00, 0.01, -0.18, 1.02
61, 0.00, 27495.91, 0.00, 0.00, 0.00, 0.00, 0.00, 0.00, 0.01, -0.18, 1.02
62, 0.00, 27506.21, 0.00, 0.00, 0.00, 0.00, 0.00, 0.00, 0.01, -0.18, 1.01
63, 0.00, 27513.19, 0.00, 0.00, 0.00, 0.00, 0.00, 0.00, 0.01, -0.18, 1.01
64, 0.00, 27506.19, 0.00, 0.00, 0.00, 0.00, 0.00, 0.00, 0.01, -0.18, 1.01
65, 0.00, 27505.41, 0.00, 0.00, 0.00, 0.00, 0.00, 0.00, 0.01, -0.18, 1.01
66, 0.00, 27520.90, 0.00, 0.00, 0.00, 0.00, 0.00, 0.00, 0.01, -0.18, 1.01
67, 0.00, 27499.95, 0.00, 0.00, 0.00, 0.00, 0.00, 0.00, 0.01, -0.18, 1.01
68, 0.00, 27502.41, 0.00, 0.00, 0.00, 0.00, 0.00, 0.00, 0.01, -0.18, 1.01
69, 0.00, 27525.48, 0.00, 0.00, 0.00, 0.00, 0.00, 0.00, 0.01, -0.18, 1.01
70, 0.00, 27517.03, 0.00, 0.00, 0.00, 0.00, 0.00, 0.00, 0.01, -0.18, 1.01
71, 0.00, 27527.27, 0.00, 0.00, 0.00, 0.00, 0.00, 0.00, 0.01, -0.18, 1.01
72, 0.00, 27526.53, 0.00, 0.00, 0.00, 0.00, 0.00, 0.00, 0.01, -0.18, 1.02
73, 0.00, 27513.63, 0.00, 0.00, 0.00, 0.00, 0.00, 0.00, 0.01, -0.18, 1.02
74, 0.00, 27511.20, 0.00, 0.00, 0.00, 0.00, 0.00, 0.00, 0.01, -0.18, 1.02
75, 0.00, 27521.32, 0.00, 0.00, 0.00, 0.00, 0.00, 0.00, 0.01, -0.18, 1.02
76, 0.00, 27519.45, 0.00, 0.00, 0.00, 0.00, 0.00, 0.00, 0.01, -0.18, 1.02
77, 0.00, 27509.50, 0.00, 0.00, 0.00, 0.00, 0.00, 0.00, 0.01, -0.18, 1.01
78, 0.00, 27532.74, 0.00, 0.00, 0.00, 0.00, 0.00, 0.00, 0.01, -0.18, 1.01
79, 0.00, 27525.46, 0.00, 0.00, 0.00, 0.00, 0.00, 0.00, 0.01, -0.18, 1.01
80, 0.00, 27525.64, 0.00, 0.00, 0.00, 0.00, 0.00, 0.00, 0.01, -0.18, 1.01
81, 0.00, 27512.47, 0.00, 0.00, 0.00, 0.00, 0.00, 0.00, 0.01, -0.18, 1.01
82, 0.00, 27514.35, 0.00, 0.00, 0.00, 0.00, 0.00, 0.00, 0.01, -0.18, 1.02
83, 0.00, 27524.18, 0.00, 0.00, 0.00, 0.00, 0.00, 0.00, 0.01, -0.18, 1.02
84, 0.00, 27523.58, 0.00, 0.00, 0.00, 0.00, 0.00, 0.00, 0.01, -0.18, 1.02
85, 0.00, 27508.36, 0.00, 0.00, 0.00, 0.00, 0.00, 0.00, 0.01, -0.18, 1.02
86, 0.00, 27498.10, 0.00, 0.00, 0.00, 0.00, 0.00, 0.00, 0.01, -0.18, 1.02
87, 0.00, 27524.27, 0.00, 0.00, 0.00, 0.00, 0.00, 0.00, 0.01, -0.18, 1.01
88, 0.00, 27543.67, 0.00, 0.00, 0.00, 0.00, 0.00, 0.00, 0.01, -0.18, 1.01
89, 0.00, 27538.11, 0.00, 0.00, 0.00, 0.00, 0.00, 0.00, 0.01, -0.18, 1.01
90, 0.00, 27538.60, 0.00, 0.00, 0.00, 0.00, 0.00, 0.00, 0.01, -0.18, 1.01
91, 0.00, 27544.14, 0.00, 0.00, 0.00, 0.00, 0.00, 0.00, 0.01, -0.18, 1.01
92, 0.00, 27544.34, 0.00, 0.00, 0.00, 0.00, 0.00, 0.00, 0.01, -0.18, 1.01
93, 0.00, 27554.43, 0.00, 0.00, 0.00, 0.00, 0.00, 0.00, 0.01, -0.18, 1.01
94, 0.00, 27539.54, 0.00, 0.00, 0.00, 0.00, 0.00, 0.00, 0.01, -0.18, 1.01
95, 0.00, 27540.34, 0.00, 0.00, 0.00, 0.00, 0.00, 0.00, 0.01, -0.18, 1.01
96, 0.00, 27534.29, 0.00, 0.00, 0.00, 0.00, 0.00, 0.00, 0.01, -0.18, 1.01
97, 0.00, 27537.82, 0.00, 0.00, 0.00, 0.00, 0.00, 0.00, 0.00, -0.18, 1.01
98, 0.00, 27539.09, 0.00, 0.00, 0.00, 0.00, 0.00, 0.00, 0.00, -0.18, 1.01
99, 0.00, 27551.01, 0.00, 0.00, 0.00, 0.00, 0.00, 0.00, 0.00, -0.18, 1.01
100, 0.00, 27541.77, 0.00, 0.00, 0.00, 0.00, 0.00, 0.00, 0.00, -0.18, 1.01
101, 0.00, 27530.24, 0.00, 0.00, 0.00, 0.00, 0.00, 0.00, 0.00, -0.18, 1.01
102, 0.00, 27532.23, 0.00, 0.00, 0.00, 0.00, 0.00, 0.00, 0.00, -0.18, 1.01
103, 0.00, 27526.93, 0.00, 0.00, 0.00, 0.00, 0.00, 0.00, 0.00, -0.18, 1.01
104, 0.00, 27558.22, 0.00, 0.00, 0.00, 0.00, 0.00, 0.00, 0.00, -0.18, 1.01
105, 0.00, 27565.51, 0.00, 0.00, 0.00, 0.00, 0.00, 0.00, 0.00, -0.18, 1.01
106, 0.00, 27554.65, 0.00, 0.00, 0.00, 0.00, 0.00, 0.00, 0.00, -0.18, 1.01
107, 0.00, 27548.64, 0.00, 0.00, 0.00, 0.00, 0.00, 0.00, 0.01, -0.19, 1.02
108, 0.00, 27562.99, 0.00, 0.00, 0.00, 0.00, 0.00, 0.00, 0.01, -0.19, 1.02
109, 0.00, 27567.75, 0.00, 0.00, 0.00, 0.00, 0.00, 0.00, 0.01, -0.19, 1.02
110, 0.00, 27561.85, 0.00, 0.00, 0.00, 0.00, 0.00, 0.00, 0.01, -0.19, 1.02
111, 0.00, 27554.94, 0.00, 0.00, 0.00, 0.00, 0.00, 0.00, 0.01, -0.19, 1.02
112, 0.00, 27559.81, 0.00, 0.00, 0.00, 0.00, 0.00, 0.00, 0.00, -0.19, 1.01
113, 0.00, 27553.71, 0.00, 0.00, 0.00, 0.00, 0.00, 0.00, 0.00, -0.19, 1.01
114, 0.00, 27565.49, 0.00, 0.00, 0.00, 0.00, 0.00, 0.00, 0.00, -0.19, 1.01
115, 0.00, 27562.40, 0.00, 0.00, 0.00, 0.00, 0.00, 0.00, 0.00, -0.19, 1.01
116, 0.00, 27562.36, 0.00, 0.00, 0.00, 0.00, 0.00, 0.00, 0.00, -0.19, 1.01
117, 0.00, 27572.46, 0.00, 0.00, 0.00, 0.00, 0.00, 0.00, 0.01, -0.18, 1.01
118, 0.00, 27577.25, 0.00, 0.00, 0.00, 0.00, 0.00, 0.00, 0.01, -0.18, 1.01
119, 0.00, 27576.66, 0.00, 0.00, 0.00, 0.00, 0.00, 0.00, 0.01, -0.18, 1.01
120, 0.00, 27569.83, 0.00, 0.00, 0.00, 0.00, 0.00, 0.00, 0.01, -0.18, 1.01
121, 0.00, 27577.60, 0.00, 0.00, 0.00, 0.00, 0.00, 0.00, 0.01, -0.18, 1.01
122, 0.00, 27572.11, 0.00, 0.00, 0.00, 0.00, 0.00, 0.00, 0.01, -0.18, 1.01
123, 0.00, 27584.58, 0.00, 0.00, 0.00, 0.00, 0.00, 0.00, 0.01, -0.18, 1.01
124, 0.00, 27587.17, 0.00, 0.00, 0.00, 0.00, 0.00, 0.00, 0.01, -0.18, 1.01
125, 0.00, 27577.78, 0.00, 0.00, 0.00, 0.00, 0.00, 0.00, 0.01, -0.18, 1.01
126, 0.00, 27589.38, 0.00, 0.00, 0.00, 0.00, 0.00, 0.00, 0.01, -0.18, 1.01
127, 0.00, 27592.06, 0.00, 0.00, 0.00, 0.00, 0.00, 0.00, 0.02, -0.18, 1.02
128, 0.00, 27595.66, 0.00, 0.00, 0.00, 0.00, 0.00, 0.00, 0.02, -0.18, 1.02
129, 0.00, 27593.61, 0.00, 0.00, 0.00, 0.00, 0.00, 0.00, 0.02, -0.18, 1.02
130, 0.00, 27595.78, 0.00, 0.00, 0.00, 0.00, 0.00, 0.00, 0.02, -0.18, 1.02
131, 0.00, 27593.99, 0.00, 0.00, 0.00, 0.00, 0.00, 0.00, 0.02, -0.18, 1.02
132, 0.00, 27602.19, 0.00, 0.00, 0.00, 0.00, 0.00, 0.00, 0.01, -0.18, 1.02
133, 0.00, 27601.97, 0.00, 0.00, 0.00, 0.00, 0.00, 0.00, 0.01, -0.18, 1.02
134, 0.00, 27598.26, 0.00, 0.00, 0.00, 0.00, 0.00, 0.00, 0.01, -0.18, 1.02
135, 0.00, 27588.15, 0.00, 0.00, 0.00, 0.00, 0.00, 0.00, 0.01, -0.18, 1.02
136, 0.00, 27587.95, 0.00, 0.00, 0.00, 0.00, 0.00, 0.00, 0.01, -0.18, 1.02
137, 0.00, 27601.07, 0.00, 0.00, 0.00, 0.00, 0.00, 0.00, 0.01, -0.18, 1.02
138, 0.00, 27615.89, 0.00, 0.00, 0.00, 0.00, 0.00, 0.00, 0.01, -0.18, 1.01
139, 0.00, 27610.86, 0.00, 0.00, 0.00, 0.00, 0.00, 0.00, 0.01, -0.18, 1.01
140, 0.00, 27584.71, 0.00, 0.00, 0.00, 0.00, 0.00, 0.00, 0.01, -0.18, 1.01
141, 0.00, 27603.33, 0.00, 0.00, 0.00, 0.00, 0.00, 0.00, 0.01, -0.18, 1.01
142, 0.00, 27613.43, 0.00, 0.00, 0.00, 0.00, 0.00, 0.00, 0.01, -0.18, 1.01
143, 0.00, 27614.82, 0.00, 0.00, 0.00, 0.00, 0.00, 0.00, 0.01, -0.18, 1.02
144, 0.00, 27599.98, 0.00, 0.00, 0.00, 0.00, 0.00, 0.00, 0.01, -0.18, 1.02
145, 0.00, 27612.07, 0.00, 0.00, 0.00, 0.00, 0.00, 0.00, 0.01, -0.18, 1.02
146, 0.00, 27626.62, 0.00, 0.00, 0.00, 0.00, 0.00, 0.00, 0.01, -0.18, 1.02
147, 0.00, 27617.57, 0.00, 0.00, 0.00, 0.00, 0.00, 0.00, 0.01, -0.18, 1.02
148, 0.00, 27598.50, 0.00, 0.00, 0.00, 0.00, 0.00, 0.00, 0.01, -0.18, 1.02
149, 0.00, 27613.88, 0.00, 0.00, 0.00, 0.00, 0.00, 0.00, 0.01, -0.18, 1.02
150, 0.00, 27627.29, 0.00, 0.00, 0.00, 0.00, 0.00, 0.00, 0.01, -0.18, 1.02
151, 0.00, 27626.00, 0.00, 0.00, 0.00, 0.00, 0.00, 0.00, 0.01, -0.18, 1.02
152, 0.00, 27612.70, 0.00, 0.00, 0.00, 0.00, 0.00, 0.00, 0.01, -0.18, 1.02
153, 0.00, 27615.04, 0.00, 0.00, 0.00, 0.00, 0.00, 0.00, 0.01, -0.18, 1.02
154, 0.00, 27624.12, 0.00, 0.00, 0.00, 0.00, 0.00, 0.00, 0.01, -0.18, 1.02
155, 0.00, 27628.83, 0.00, 0.00, 0.00, 0.00, 0.00, 0.00, 0.01, -0.18, 1.02
156, 0.00, 27616.43, 0.00, 0.00, 0.00, 0.00, 0.00, 0.00, 0.01, -0.18, 1.02
157, 0.00, 27611.60, 0.00, 0.00, 0.00, 0.00, 0.00, 0.00, 0.01, -0.18, 1.02
158, 0.00, 27620.92, 0.00, 0.00, 0.00, 0.00, 0.00, 0.00, 0.00, -0.18, 1.01
159, 0.00, 27630.85, 0.00, 0.00, 0.00, 0.00, 0.00, 0.00, 0.00, -0.18, 1.01
160, 0.00, 27659.41, 0.00, 0.00, 0.00, 0.00, 0.00, 0.00, 0.00, -0.18, 1.01
161, 0.00, 27646.56, 0.00, 0.00, 0.00, 0.00, 0.00, 0.00, 0.00, -0.18, 1.01
162, 0.00, 27623.00, 0.00, 0.00, 0.00, 0.00, 0.00, 0.00, 0.00, -0.18, 1.01
163, 0.00, 27638.11, 0.00, 0.00, 0.00, 0.00, 0.00, 0.00, 0.01, -0.19, 1.01
164, 0.00, 27632.43, 0.00, 0.00, 0.00, 0.00, 0.00, 0.00, 0.01, -0.19, 1.01
165, 0.00, 27627.89, 0.00, 0.00, 0.00, 0.00, 0.00, 0.00, 0.01, -0.19, 1.01
166, 0.00, 27633.35, 0.00, 0.00, 0.00, 0.00, 0.00, 0.00, 0.01, -0.19, 1.01
167, 0.00, 27646.85, 0.00, 0.00, 0.00, 0.00, 0.00, 0.00, 0.01, -0.19, 1.01
168, 0.00, 27641.57, 0.00, 0.00, 0.00, 0.00, 0.00, 0.00, 0.01, -0.18, 1.02
169, 0.00, 27627.78, 0.00, 0.00, 0.00, 0.00, 0.00, 0.00, 0.01, -0.18, 1.02
170, 0.00, 27634.98, 0.00, 0.00, 0.00, 0.00, 0.00, 0.00, 0.01, -0.18, 1.02
171, 0.00, 27653.53, 0.00, 0.00, 0.00, 0.00, 0.00, 0.00, 0.01, -0.18, 1.02
172, 0.00, 27678.70, 0.00, 0.00, 0.00, 0.00, 0.00, 0.00, 0.01, -0.18, 1.02
173, 0.00, 27665.16, 0.00, 0.00, 0.00, 0.00, 0.00, 0.00, 0.02, -0.19, 1.01
174, 0.00, 27654.52, 0.00, 0.00, 0.00, 0.00, 0.00, 0.00, 0.02, -0.19, 1.01
175, 0.00, 27663.81, 0.00, 0.00, 0.00, 0.00, 0.00, 0.00, 0.02, -0.19, 1.01
176, 0.00, 27662.41, 0.00, 0.00, 0.00, 0.00, 0.00, 0.00, 0.02, -0.19, 1.01
177, 0.00, 27652.75, 0.00, 0.00, 0.00, 0.00, 0.00, 0.00, 0.02, -0.19, 1.01
178, 0.00, 27657.51, 0.00, 0.00, 0.00, 0.00, 0.00, 0.00, 0.01, -0.19, 1.01
179, 0.00, 27685.79, 0.00, 0.00, 0.00, 0.00, 0.00, 0.00, 0.01, -0.19, 1.01
180, 0.00, 27691.98, 0.00, 0.00, 0.00, 0.00, 0.00, 0.00, 0.01, -0.19, 1.01
181, 0.00, 27686.55, 0.00, 0.00, 0.00, 0.00, 0.00, 0.00, 0.01, -0.19, 1.01
182, 0.00, 27688.42, 0.00, 0.00, 0.00, 0.00, 0.00, 0.00, 0.01, -0.19, 1.01
183, 0.00, 27695.22, 0.00, 0.00, 0.00, 0.00, 0.00, 0.00, 0.01, -0.19, 1.01
184, 0.00, 27700.36, 0.00, 0.00, 0.00, 0.00, 0.00, 0.00, 0.01, -0.19, 1.01
185, 0.00, 27688.54, 0.00, 0.00, 0.00, 0.00, 0.00, 0.00, 0.01, -0.19, 1.01
186, 0.00, 27681.61, 0.00, 0.00, 0.00, 0.00, 0.00, 0.00, 0.01, -0.19, 1.01
187, 0.00, 27679.24, 0.00, 0.00, 0.00, 0.00, 0.00, 0.00, 0.01, -0.19, 1.01
188, 0.00, 27699.80, 0.00, 0.00, 0.00, 0.00, 0.00, 0.00, 0.01, -0.18, 1.02
189, 0.00, 27701.19, 0.00, 0.00, 0.00, 0.00, 0.00, 0.00, 0.01, -0.18, 1.02
190, 0.00, 27696.92, 0.00, 0.00, 0.00, 0.00, 0.00, 0.00, 0.01, -0.18, 1.02
191, 0.00, 27702.39, 0.00, 0.00, 0.00, 0.00, 0.00, 0.00, 0.01, -0.18, 1.02
192, 0.00, 27701.70, 0.00, 0.00, 0.00, 0.00, 0.00, 0.00, 0.01, -0.18, 1.02
193, 0.00, 27695.93, 0.00, 0.00, 0.00, 0.00, 0.00, 0.00, 0.01, -0.19, 1.01
194, 0.00, 27685.03, 0.00, 0.00, 0.00, 0.00, 0.00, 0.00, 0.01, -0.19, 1.01
195, 0.00, 27675.01, 0.00, 0.00, 0.00, 0.00, 0.00, 0.00, 0.01, -0.19, 1.01
196, 0.00, 27689.03, 0.00, 0.00, 0.00, 0.00, 0.00, 0.00, 0.01, -0.19, 1.01
197, 0.00, 27704.05, 0.00, 0.00, 0.00, 0.00, 0.00, 0.00, 0.01, -0.19, 1.01
198, 0.00, 27705.17, 0.00, 0.00, 0.00, 0.00, 0.00, 0.00, 0.01, -0.19, 1.02
199, 0.00, 27698.82, 0.00, 0.00, 0.00, 0.00, 0.00, 0.00, 0.01, -0.19, 1.02
200, 0.00, 27708.14, 0.00, 0.00, 0.00, 0.00, 0.00, 0.00, 0.01, -0.19, 1.02
201, 0.00, 27715.16, 0.00, 0.00, 0.00, 0.00, 0.00, 0.00, 0.01, -0.19, 1.02
202, 0.00, 27703.13, 0.00, 0.00, 0.00, 0.00, 0.00, 0.00, 0.01, -0.19, 1.02
203, 0.00, 27697.10, 0.00, 0.00, 0.00, 0.00, 0.00, 0.00, 0.01, -0.19, 1.02
204, 0.00, 27701.25, 0.00, 0.00, 0.00, 0.00, 0.00, 0.00, 0.01, -0.19, 1.02
205, 0.00, 27711.98, 0.00, 0.00, 0.00, 0.00, 0.00, 0.00, 0.01, -0.19, 1.02
206, 0.00, 27720.01, 0.00, 0.00, 0.00, 0.00, 0.00, 0.00, 0.01, -0.19, 1.02
207, 0.00, 27720.83, 0.00, 0.00, 0.00, 0.00, 0.00, 0.00, 0.01, -0.19, 1.02
208, 0.00, 27724.75, 0.00, 0.00, 0.00, 0.00, 0.00, 0.00, 0.02, -0.19, 1.02
209, 0.00, 27715.94, 0.00, 0.00, 0.00, 0.00, 0.00, 0.00, 0.02, -0.19, 1.02
210, 0.00, 27721.37, 0.00, 0.00, 0.00, 0.00, 0.00, 0.00, 0.02, -0.19, 1.02
211, 0.00, 27730.65, 0.00, 0.00, 0.00, 0.00, 0.00, 0.00, 0.02, -0.19, 1.02
212, 0.00, 27736.48, 0.00, 0.00, 0.00, 0.00, 0.00, 0.00, 0.02, -0.19, 1.02
213, 0.00, 27724.41, 0.00, 0.00, 0.00, 0.00, 0.00, 0.00, 0.01, -0.18, 1.02
214, 0.00, 27732.72, 0.00, 0.00, 0.00, 0.00, 0.00, 0.00, 0.01, -0.18, 1.02
215, 0.00, 27724.61, 0.00, 0.00, 0.00, 0.00, 0.00, 0.00, 0.01, -0.18, 1.02
216, 0.00, 27723.29, 0.00, 0.00, 0.00, 0.00, 0.00, 0.00, 0.01, -0.18, 1.02
217, 0.00, 27723.67, 0.00, 0.00, 0.00, 0.00, 0.00, 0.00, 0.01, -0.18, 1.02
218, 0.00, 27721.41, 0.00, 0.00, 0.00, 0.00, 0.00, 0.00, 0.01, -0.18, 1.02
219, 0.00, 27715.25, 0.00, 0.00, 0.00, 0.00, 0.00, 0.00, 0.01, -0.18, 1.02
220, 0.00, 27720.07, 0.00, 0.00, 0.00, 0.00, 0.00, 0.00, 0.01, -0.18, 1.02
221, 0.00, 27729.26, 0.00, 0.00, 0.00, 0.00, 0.00, 0.00, 0.01, -0.18, 1.02
222, 0.00, 27726.62, 0.00, 0.00, 0.00, 0.00, 0.00, 0.00, 0.01, -0.18, 1.02
223, 0.00, 27733.51, 0.00, 0.00, 0.00, 0.00, 0.00, 0.00, 0.01, -0.19, 1.02
224, 0.00, 27734.20, 0.00, 0.00, 0.00, 0.00, 0.00, 0.00, 0.01, -0.19, 1.02
225, 0.00, 27733.71, 0.00, 0.00, 0.00, 0.00, 0.00, 0.00, 0.01, -0.19, 1.02
226, 0.00, 27742.29, 0.00, 0.00, 0.00, 0.00, 0.00, 0.00, 0.01, -0.19, 1.02
227, 0.00, 27752.42, 0.00, 0.00, 0.00, 0.00, 0.00, 0.00, 0.01, -0.19, 1.02
228, 0.00, 27750.03, 0.00, 0.00, 0.00, 0.00, 0.00, 0.00, 0.02, -0.18, 1.00
229, 0.00, 27755.32, 0.00, 0.00, 0.00, 0.00, 0.00, 0.00, 0.02, -0.18, 1.00
230, 0.00, 27766.36, 0.00, 0.00, 0.00, 0.00, 0.00, 0.00, 0.02, -0.18, 1.00
231, 0.00, 27768.44, 0.00, 0.00, 0.00, 0.00, 0.00, 0.00, 0.02, -0.18, 1.00
232, 0.00, 27774.34, 0.00, 0.00, 0.00, 0.00, 0.00, 0.00, 0.02, -0.18, 1.00
233, 0.00, 27748.66, 0.00, 0.00, 0.00, 0.00, 0.00, 0.00, 0.01, -0.21, 1.02
234, 0.00, 27763.17, 0.00, 0.00, 0.00, 0.00, 0.00, 0.00, 0.01, -0.21, 1.02
235, 0.00, 27778.37, 0.00, 0.00, 0.00, 0.00, 0.00, 0.00, 0.01, -0.21, 1.02
236, 0.00, 27761.83, 0.00, 0.00, 0.00, 0.00, 0.00, 0.00, 0.01, -0.21, 1.02
237, 0.00, 27776.62, 0.00, 0.00, 0.00, 0.00, 0.00, 0.00, 0.01, -0.21, 1.02
238, 0.00, 27785.99, 0.00, 0.00, 0.00, 0.00, 0.00, 0.00, 0.01, -0.19, 1.01
239, 0.00, 27768.22, 0.00, 0.00, 0.00, 0.00, 0.00, 0.00, 0.01, -0.19, 1.01
240, 0.00, 27778.43, 0.00, 0.00, 0.00, 0.00, 0.00, 0.00, 0.01, -0.19, 1.01
241, 0.00, 27773.07, 0.00, 0.00, 0.00, 0.00, 0.00, 0.00, 0.01, -0.19, 1.01
242, 0.00, 27795.27, 0.00, 0.00, 0.00, 0.00, 0.00, 0.00, 0.01, -0.19, 1.01
243, 0.00, 27788.09, 0.00, 0.00, 0.00, 0.00, 0.00, 0.00, 0.01, -0.19, 1.01
244, 0.00, 27783.98, 0.00, 0.00, 0.00, 0.00, 0.00, 0.00, 0.01, -0.19, 1.01
245, 0.00, 27787.75, 0.00, 0.00, 0.00, 0.00, 0.00, 0.00, 0.01, -0.19, 1.01
246, 0.00, 27792.13, 0.00, 0.00, 0.00, 0.00, 0.00, 0.00, 0.01, -0.19, 1.01
247, 0.00, 27785.32, 0.00, 0.00, 0.00, 0.00, 0.00, 0.00, 0.01, -0.19, 1.01
248, 0.00, 27782.59, 0.00, 0.00, 0.00, 0.00, 0.00, 0.00, 0.01, -0.19, 1.01
249, 0.00, 27781.23, 0.00, 0.00, 0.00, 0.00, 0.00, 0.00, 0.01, -0.19, 1.01
250, 0.00, 27787.04, 0.00, 0.00, 0.00, 0.00, 0.00, 0.00, 0.01, -0.19, 1.01
251, 0.00, 27803.78, 0.00, 0.00, 0.00, 0.00, 0.00, 0.00, 0.01, -0.19, 1.01
252, 0.00, 27810.40, 0.00, 0.00, 0.00, 0.00, 0.00, 0.00, 0.01, -0.19, 1.01
253, 0.00, 27807.09, 0.00, 0.00, 0.00, 0.00, 0.00, 0.00, 0.01, -0.19, 1.02
254, 0.00, 27799.94, 0.00, 0.00, 0.00, 0.00, 0.00, 0.00, 0.01, -0.19, 1.02
255, 0.00, 27808.21, 0.00, 0.00, 0.00, 0.00, 0.00, 0.00, 0.01, -0.19, 1.02
0, 0.00, 27814.11, 0.00, 0.00, 0.00, 0.00, 0.00, 0.00, 0.01, -0.19, 1.02
1, 0.00, 27816.99, 0.00, 0.00, 0.00, 0.00, 0.00, 0.00, 0.01, -0.19, 1.02
2, 0.00, 27829.02, 0.00, 0.00, 0.00, 0.00, 0.00, 0.00, 0.00, -0.18, 1.02
3, 0.00, 27836.41, 0.00, 0.00, 0.00, 0.00, 0.00, 0.00, 0.00, -0.18, 1.02
4, 0.00, 27807.33, 0.00, 0.00, 0.00, 0.00, 0.00, 0.00, 0.00, -0.18, 1.02
5, 0.00, 27816.95, 0.00, 0.00, 0.00, 0.00, 0.00, 0.00, 0.00, -0.18, 1.02
6, 0.00, 27832.50, 0.00, 0.00, 0.00, 0.00, 0.00, 0.00, 0.00, -0.18, 1.02
7, 0.00, 27831.99, 0.00, 0.00, 0.00, 0.00, 0.00, 0.00, 0.00, -0.19, 1.02
8, 0.00, 27831.97, 0.00, 0.00, 0.00, 0.00, 0.00, 0.00, 0.00, -0.19, 1.02
9, 0.00, 27808.05, 0.00, 0.00, 0.00, 0.00, 0.00, 0.00, 0.00, -0.19, 1.02
10, 0.00, 27816.37, 0.00, 0.00, 0.00, 0.00, 0.00, 0.00, 0.00, -0.19, 1.02
11, 0.00, 27818.13, 0.00, 0.00, 0.00, 0.00, 0.00, 0.00, 0.00, -0.19, 1.02
12, 0.00, 27844.69, 0.00, 0.00, 0.00, 0.00, 0.00, 0.00, 0.01, -0.18, 1.02
13, 0.00, 27837.51, 0.00, 0.00, 0.00, 0.00, 0.00, 0.00, 0.01, -0.18, 1.02
14, 0.00, 27812.34, 0.00, 0.00, 0.00, 0.00, 0.00, 0.00, 0.01, -0.18, 1.02
15, 0.00, 27831.14, 0.00, 0.00, 0.00, 0.00, 0.00, 0.00, 0.01, -0.18, 1.02
16, 0.00, 27862.86, 0.00, 0.00, 0.00, 0.00, 0.00, 0.00, 0.01, -0.18, 1.02
17, 0.00, 27862.16, 0.00, 0.00, 0.00, 0.00, 0.00, 0.00, 0.00, -0.19, 1.02
18, 0.00, 27829.22, 0.00, 0.00, 0.00, 0.00, 0.00, 0.00, 0.00, -0.19, 1.02
19, 0.00, 27831.03, 0.00, 0.00, 0.00, 0.00, 0.00, 0.00, 0.00, -0.19, 1.02
20, 0.00, 27838.05, 0.00, 0.00, 0.00, 0.00, 0.00, 0.00, 0.00, -0.19, 1.02
21, 0.00, 27829.69, 0.00, 0.00, 0.00, 0.00, 0.00, 0.00, 0.00, -0.19, 1.02
22, 0.00, 27822.06, 0.00, 0.00, 0.00, 0.00, 0.00, 0.00, 0.01, -0.18, 1.01
23, 0.00, 27839.95, 0.00, 0.00, 0.00, 0.00, 0.00, 0.00, 0.01, -0.18, 1.01
24, 0.00, 27830.29, 0.00, 0.00, 0.00, 0.00, 0.00, 0.00, 0.01, -0.18, 1.01
25, 0.00, 27825.06, 0.00, 0.00, 0.00, 0.00, 0.00, 0.00, 0.01, -0.18, 1.01
26, 0.00, 27816.52, 0.00, 0.00, 0.00, 0.00, 0.00, 0.00, 0.01, -0.18, 1.01
27, 0.00, 27829.89, 0.00, 0.00, 0.00, 0.00, 0.00, 0.00, 0.01, -0.18, 1.01
28, 0.00, 27809.75, 0.00, 0.00, 0.00, 0.00, 0.00, 0.00, 0.01, -0.18, 1.01
29, 0.00, 27821.19, 0.00, 0.00, 0.00, 0.00, 0.00, 0.00, 0.01, -0.18, 1.01
30, 0.00, 27839.74, 0.00, 0.00, 0.00, 0.00, 0.00, 0.00, 0.01, -0.18, 1.01
31, 0.00, 27830.49, 0.00, 0.00, 0.00, 0.00, 0.00, 0.00, 0.01, -0.18, 1.01
32, 0.00, 27840.13, 0.00, 0.00, 0.00, 0.00, 0.00, 0.00, 0.01, -0.18, 1.01
33, 0.00, 27841.31, 0.00, 0.00, 0.00, 0.00, 0.00, 0.00, 0.01, -0.18, 1.01
34, 0.00, 27840.26, 0.00, 0.00, 0.00, 0.00, 0.00, 0.00, 0.01, -0.18, 1.01
35, 0.00, 27844.66, 0.00, 0.00, 0.00, 0.00, 0.00, 0.00, 0.01, -0.18, 1.01
36, 0.00, 27843.08, 0.00, 0.00, 0.00, 0.00, 0.00, 0.00, 0.01, -0.18, 1.01
37, 0.00, 27852.84, 0.00, 0.00, 0.00, 0.00, 0.00, 0.00, 0.01, -0.18, 1.01
38, 0.00, 27849.74, 0.00, 0.00, 0.00, 0.00, 0.00, 0.00, 0.01, -0.18, 1.01
39, 0.00, 27839.74, 0.00, 0.00, 0.00, 0.00, 0.00, 0.00, 0.01, -0.18, 1.01
40, 0.00, 27846.85, 0.00, 0.00, 0.00, 0.00, 0.00, 0.00, 0.01, -0.18, 1.01
41, 0.00, 27848.26, 0.00, 0.00, 0.00, 0.00, 0.00, 0.00, 0.01, -0.18, 1.01
42, 0.00, 27846.43, 0.00, 0.00, 0.00, 0.00, 0.00, 0.00, 0.01, -0.18, 1.01
43, 0.00, 27849.22, 0.00, 0.00, 0.00, 0.00, 0.00, 0.00, 0.01, -0.18, 1.01
44, 0.00, 27862.21, 0.00, 0.00, 0.00, 0.00, 0.00, 0.00, 0.01, -0.18, 1.01
45, 0.00, 27869.92, 0.00, 0.00, 0.00, 0.00, 0.00, 0.00, 0.01, -0.18, 1.01
46, 0.00, 27880.94, 0.00, 0.00, 0.00, 0.00, 0.00, 0.00, 0.01, -0.18, 1.01
47, 0.00, 27884.56, 0.00, 0.00, 0.00, 0.00, 0.00, 0.00, 0.01, -0.17, 1.01
48, 0.00, 27861.20, 0.00, 0.00, 0.00, 0.00, 0.00, 0.00, 0.01, -0.17, 1.01
49, 0.00, 27871.71, 0.00, 0.00, 0.00, 0.00, 0.00, 0.00, 0.01, -0.17, 1.01
50, 0.00, 27872.78, 0.00, 0.00, 0.00, 0.00, 0.00, 0.00, 0.01, -0.17, 1.01
51, 0.00, 27875.26, 0.00, 0.00, 0.00, 0.00, 0.00, 0.00, 0.01, -0.17, 1.01
52, 0.00, 27886.15, 0.00, 0.00, 0.00, 0.00, 0.00, 0.00, 0.01, -0.18, 1.01
53, 0.00, 27895.13, 0.00, 0.00, 0.00, 0.00, 0.00, 0.00, 0.01, -0.18, 1.01
54, 0.00, 27881.86, 0.00, 0.00, 0.00, 0.00, 0.00, 0.00, 0.01, -0.18, 1.01
55, 0.00, 27875.08, 0.00, 0.00, 0.00, 0.00, 0.00, 0.00, 0.01, -0.18, 1.01
56, 0.00, 27879.69, 0.00, 0.00, 0.00, 0.00, 0.00, 0.00, 0.01, -0.18, 1.01
57, 0.00, 27889.75, 0.00, 0.00, 0.00, 0.00, 0.00, 0.00, 0.01, -0.18, 1.01
58, 0.00, 27898.93, 0.00, 0.00, 0.00, 0.00, 0.00, 0.00, 0.01, -0.18, 1.01
59, 0.00, 27896.29, 0.00, 0.00, 0.00, 0.00, 0.00, 0.00, 0.01, -0.18, 1.01
60, 0.00, 27887.18, 0.00, 0.00, 0.00, 0.00, 0.00, 0.00, 0.01, -0.18, 1.01
61, 0.00, 27887.35, 0.00, 0.00, 0.00, 0.00, 0.00, 0.00, 0.01, -0.18, 1.01
62, 0.00, 27887.96, 0.00, 0.00, 0.00, 0.00, 0.00, 0.00, 0.01, -0.18, 1.01
63, 0.00, 27874.61, 0.00, 0.00, 0.00, 0.00, 0.00, 0.00, 0.01, -0.19, 1.01
64, 0.00, 27888.18, 0.00, 0.00, 0.00, 0.00, 0.00, 0.00, 0.01, -0.19, 1.01
65, 0.00, 27891.49, 0.00, 0.00, 0.00, 0.00, 0.00, 0.00, 0.01, -0.19, 1.01
66, 0.00, 27918.98, 0.00, 0.00, 0.00, 0.00, 0.00, 0.00, 0.01, -0.19, 1.01
67, 0.00, 27928.41, 0.00, 0.00, 0.00, 0.00, 0.00, 0.00, 0.01, -0.19, 1.01
68, 0.00, 27913.95, 0.00, 0.00, 0.00, 0.00, 0.00, 0.00, 0.01, -0.18, 1.00
69, 0.00, 27901.88, 0.00, 0.00, 0.00, 0.00, 0.00, 0.00, 0.01, -0.18, 1.00
70, 0.00, 27907.07, 0.00, 0.00, 0.00, 0.00, 0.00, 0.00, 0.01, -0.18, 1.00
71, 0.00, 27905.10, 0.00, 0.00, 0.00, 0.00, 0.00, 0.00, 0.01, -0.18, 1.00
72, 0.00, 27935.46, 0.00, 0.00, 0.00, 0.00, 0.00, 0.00, 0.01, -0.18, 1.00
73, 0.00, 27947.77, 0.00, 0.00, 0.00, 0.00, 0.00, 0.00, 0.01, -0.18, 1.02
74, 0.00, 27962.34, 0.00, 0.00, 0.00, 0.00, 0.00, 0.00, 0.01, -0.18, 1.02
75, 0.00, 27969.65, 0.00, 0.00, 0.00, 0.00, 0.00, 0.00, 0.01, -0.18, 1.02
76, 0.00, 27964.56, 0.00, 0.00, 0.00, 0.00, 0.00, 0.00, 0.01, -0.18, 1.02
77, 0.00, 27965.83, 0.00, 0.00, 0.00, 0.00, 0.00, 0.00, 0.01, -0.18, 1.02
78, 0.00, 27964.18, 0.00, 0.00, 0.00, 0.00, 0.00, 0.00, 0.01, -0.18, 1.02
79, 0.00, 27969.23, 0.00, 0.00, 0.00, 0.00, 0.00, 0.00, 0.01, -0.18, 1.02
80, 0.00, 27969.50, 0.00, 0.00, 0.00, 0.00, 0.00, 0.00, 0.01, -0.18, 1.02
81, 0.00, 27957.25, 0.00, 0.00, 0.00, 0.00, 0.00, 0.00, 0.01, -0.18, 1.02
82, 0.00, 27972.60, 0.00, 0.00, 0.00, 0.00, 0.00, 0.00, 0.01, -0.18, 1.02
83, 0.00, 27979.09, 0.00, 0.00, 0.00, 0.00, 0.00, 0.00, 0.01, -0.18, 1.02
84, 0.00, 27967.13, 0.00, 0.00, 0.00, 0.00, 0.00, 0.00, 0.01, -0.18, 1.02
85, 0.00, 27970.70, 0.00, 0.00, 0.00, 0.00, 0.00, 0.00, 0.01, -0.18, 1.02
86, 0.00, 27971.15, 0.00, 0.00, 0.00, 0.00, 0.00, 0.00, 0.01, -0.18, 1.02
87, 0.00, 27964.33, 0.00, 0.00, 0.00, 0.00, 0.00, 0.00, 0.01, -0.18, 1.02
88, 0.00, 27979.20, 0.00, 0.00, 0.00, 0.00, 0.00, 0.00, 0.01, -0.18, 1.01
89, 0.00, 27984.67, 0.00, 0.00, 0.00, 0.00, 0.00, 0.00, 0.01, -0.18, 1.01
90, 0.00, 27997.32, 0.00, 0.00, 0.00, 0.00, 0.00, 0.00, 0.01, -0.18, 1.01
91, 0.00, 27981.16, 0.00, 0.00, 0.00, 0.00, 0.00, 0.00, 0.01, -0.18, 1.01
92, 0.00, 27981.34, 0.00, 0.00, 0.00, 0.00, 0.00, 0.00, 0.01, -0.18, 1.01
93, 0.00, 27997.93, 0.00, 0.00, 0.00, 0.00, 0.00, 0.00, 0.01, -0.18, 1.01
94, 0.00, 28011.79, 0.00, 0.00, 0.00, 0.00, 0.00, 0.00, 0.01, -0.18, 1.01
95, 0.00, 28013.57, 0.00, 0.00, 0.00, 0.00, 0.00, 0.00, 0.01, -0.18, 1.01
96, 0.00, 28001.10, 0.00, 0.00, 0.00, 0.00, 0.00, 0.00, 0.01, -0.18, 1.01
97, 0.00, 27999.45, 0.00, 0.00, 0.00, 0.00, 0.00, 0.00, 0.01, -0.18, 1.01
98, 0.00, 27985.70, 0.00, 0.00, 0.00, 0.00, 0.00, 0.00, 0.01, -0.18, 1.00
99, 0.00, 28014.42, 0.00, 0.00, 0.00, 0.00, 0.00, 0.00, 0.01, -0.18, 1.00
100, 0.00, 28016.57, 0.00, 0.00, 0.00, 0.00, 0.00, 0.00, 0.01, -0.18, 1.00
101, 0.00, 28010.40, 0.00, 0.00, 0.00, 0.00, 0.00, 0.00, 0.01, -0.18, 1.00
102, 0.00, 28026.79, 0.00, 0.00, 0.00, 0.00, 0.00, 0.00, 0.01, -0.18, 1.00
103, 0.00, 28013.20, 0.00, 0.00, 0.00, 0.00, 0.00, 0.00, 0.01, -0.19, 1.01
104, 0.00, 28011.50, 0.00, 0.00, 0.00, 0.00, 0.00, 0.00, 0.01, -0.19, 1.01
105, 0.00, 28015.99, 0.00, 0.00, 0.00, 0.00, 0.00, 0.00, 0.01, -0.19, 1.01
106, 0.00, 28016.66, 0.00, 0.00, 0.00, 0.00, 0.00, 0.00, 0.01, -0.19, 1.01
107, 0.00, 28003.02, 0.00, 0.00, 0.00, 0.00, 0.00, 0.00, 0.01, -0.19, 1.01
108, 0.00, 27996.61, 0.00, 0.00, 0.00, 0.00, 0.00, 0.00, 0.01, -0.19, 1.02
109, 0.00, 28004.92, 0.00, 0.00, 0.00, 0.00, 0.00, 0.00, 0.01, -0.19, 1.02
110, 0.00, 28012.93, 0.00, 0.00, 0.00, 0.00, 0.00, 0.00, 0.01, -0.19, 1.02
111, 0.00, 28008.54, 0.00, 0.00, 0.00, 0.00, 0.00, 0.00, 0.01, -0.19, 1.02
112, 0.00, 28011.32, 0.00, 0.00, 0.00, 0.00, 0.00, 0.00, 0.01, -0.19, 1.02
113, 0.00, 28007.27, 0.00, 0.00, 0.00, 0.00, 0.00, 0.00, 0.01, -0.18, 1.02
114, 0.00, 28018.87, 0.00, 0.00, 0.00, 0.00, 0.00, 0.00, 0.01, -0.18, 1.02
115, 0.00, 28020.26, 0.00, 0.00, 0.00, 0.00, 0.00, 0.00, 0.01, -0.18, 1.02
116, 0.00, 28030.79, 0.00, 0.00, 0.00, 0.00, 0.00, 0.00, 0.01, -0.18, 1.02
117, 0.00, 28032.93, 0.00, 0.00, 0.00, 0.00, 0.00, 0.00, 0.01, -0.18, 1.02
118, 0.00, 28034.65, 0.00, 0.00, 0.00, 0.00, 0.00, 0.00, 0.01, -0.18, 1.02
119, 0.00, 28032.51, 0.00, 0.00, 0.00, 0.00, 0.00, 0.00, 0.01, -0.18, 1.02
120, 0.00, 28007.43, 0.00, 0.00, 0.00, 0.00, 0.00, 0.00, 0.01, -0.18, 1.02
121, 0.00, 28026.56, 0.00, 0.00, 0.00, 0.00, 0.00, 0.00, 0.01, -0.18, 1.02
122, 0.00, 28026.87, 0.00, 0.00, 0.00, 0.00, 0.00, 0.00, 0.01, -0.18, 1.02
123, 0.00, 28022.36, 0.00, 0.00, 0.00, 0.00, 0.00, 0.00, 0.01, -0.18, 1.02
124, 0.00, 28035.37, 0.00, 0.00, 0.00, 0.00, 0.00, 0.00, 0.01, -0.18, 1.02
125, 0.00, 28035.86, 0.00, 0.00, 0.00, 0.00, 0.00, 0.00, 0.01, -0.18, 1.02
126, 0.00, 28034.29, 0.00, 0.00, 0.00, 0.00, 0.00, 0.00, 0.01, -0.18, 1.02
127, 0.00, 28042.45, 0.00, 0.00, 0.00, 0.00, 0.00, 0.00, 0.01, -0.18, 1.02
128, 0.00, 28036.57, 0.00, 0.00, 0.00, 0.00, 0.00, 0.00, 0.01, -0.18, 1.02
129, 0.00, 28028.44, 0.00, 0.00, 0.00, 0.00, 0.00, 0.00, 0.01, -0.18, 1.02
130, 0.00, 28045.80, 0.00, 0.00, 0.00, 0.00, 0.00, 0.00, 0.01, -0.18, 1.02
131, 0.00, 28022.89, 0.00, 0.00, 0.00, 0.00, 0.00, 0.00, 0.01, -0.18, 1.02
132, 0.00, 28043.03, 0.00, 0.00, 0.00, 0.00, 0.00, 0.00, 0.01, -0.18, 1.02
133, 0.00, 28041.29, 0.00, 0.00, 0.00, 0.00, 0.00, 0.00, 0.00, -0.18, 1.02
134, 0.00, 28035.37, 0.00, 0.00, 0.00, 0.00, 0.00, 0.00, 0.00, -0.18, 1.02
135, 0.00, 28034.74, 0.00, 0.00, 0.00, 0.00, 0.00, 0.00, 0.00, -0.18, 1.02
136, 0.00, 28062.32, 0.00, 0.00, 0.00, 0.00, 0.00, 0.00, 0.00, -0.18, 1.02
137, 0.00, 28063.98, 0.00, 0.00, 0.00, 0.00, 0.00, 0.00, 0.00, -0.18, 1.02
138, 0.00, 28048.22, 0.00, 0.00, 0.00, 0.00, 0.00, 0.00, 0.00, -0.18, 1.01
139, 0.00, 28048.71, 0.00, 0.00, 0.00, 0.00, 0.00, 0.00, 0.00, -0.18, 1.01
140, 0.00, 28061.38, 0.00, 0.00, 0.00, 0.00, 0.00, 0.00, 0.00, -0.18, 1.01
141, 0.00, 28060.20, 0.00, 0.00, 0.00, 0.00, 0.00, 0.00, 0.00, -0.18, 1.01
142, 0.00, 28061.00, 0.00, 0.00, 0.00, 0.00, 0.00, 0.00, 0.00, -0.18, 1.01
143, 0.00, 28064.29, 0.00, 0.00, 0.00, 0.00, 0.00, 0.00, 0.00, -0.19, 1.01
144, 0.00, 28066.73, 0.00, 0.00, 0.00, 0.00, 0.00, 0.00, 0.00, -0.19, 1.01
145, 0.00, 28074.93, 0.00, 0.00, 0.00, 0.00, 0.00, 0.00, 0.00, -0.19, 1.01
146, 0.00, 28079.24, 0.00, 0.00, 0.00, 0.00, 0.00, 0.00, 0.00, -0.19, 1.01
147, 0.00, 28060.80, 0.00, 0.00, 0.00, 0.00, 0.00, 0.00, 0.00, -0.19, 1.01
148, 0.00, 28079.58, 0.00, 0.00, 0.00, 0.00, 0.00, 0.00, 0.00, -0.19, 1.01
149, 0.00, 28092.54, 0.00, 0.00, 0.00, 0.00, 0.00, 0.00, 0.00, -0.19, 1.01
150, 0.00, 28089.75, 0.00, 0.00, 0.00, 0.00, 0.00, 0.00, 0.00, -0.19, 1.01
151, 0.00, 28084.54, 0.00, 0.00, 0.00, 0.00, 0.00, 0.00, 0.00, -0.19, 1.01
152, 0.00, 28057.96, 0.00, 0.00, 0.00, 0.00, 0.00, 0.00, 0.00, -0.19, 1.01
153, 0.00, 28070.64, 0.00, 0.00, 0.00, 0.00, 0.00, 0.00, 0.00, -0.18, 1.01
154, 0.00, 28086.20, 0.00, 0.00, 0.00, 0.00, 0.00, 0.00, 0.00, -0.18, 1.01
155, 0.00, 28072.96, 0.00, 0.00, 0.00, 0.00, 0.00, 0.00, 0.00, -0.18, 1.01
156, 0.00, 28080.58, 0.00, 0.00, 0.00, 0.00, 0.00, 0.00, 0.00, -0.18, 1.01
157, 0.00, 28087.34, 0.00, 0.00, 0.00, 0.00, 0.00, 0.00, 0.00, -0.18, 1.01
158, 0.00, 28111.10, 0.00, 0.00, 0.00, 0.00, 0.00, 0.00, 0.00, -0.18, 1.02
159, 0.00, 28082.89, 0.00, 0.00, 0.00, 0.00, 0.00, 0.00, 0.00, -0.18, 1.02
160, 0.00, 28078.01, 0.00, 0.00, 0.00, 0.00, 0.00, 0.00, 0.00, -0.18, 1.02
161, 0.00, 28095.78, 0.00, 0.00, 0.00, 0.00, 0.00, 0.00, 0.00, -0.18, 1.02
162, 0.00, 28095.90, 0.00, 0.00, 0.00, 0.00, 0.00, 0.00, 0.00, -0.18, 1.02
163, 0.00, 28098.51, 0.00, 0.00, 0.00, 0.00, 0.00, 0.00, 0.01, -0.19, 1.02
164, 0.00, 28083.29, 0.00, 0.00, 0.00, 0.00, 0.00, 0.00, 0.01, -0.19, 1.02
165, 0.00, 28079.49, 0.00, 0.00, 0.00, 0.00, 0.00, 0.00, 0.01, -0.19, 1.02
166, 0.00, 28119.70, 0.00, 0.00, 0.00, 0.00, 0.00, 0.00, 0.01, -0.19, 1.02
167, 0.00, 28104.37, 0.00, 0.00, 0.00, 0.00, 0.00, 0.00, 0.01, -0.19, 1.02
168, 0.00, 28100.52, 0.00, 0.00, 0.00, 0.00, 0.00, 0.00, 0.01, -0.18, 1.02
169, 0.00, 28110.67, 0.00, 0.00, 0.00, 0.00, 0.00, 0.00, 0.01, -0.18, 1.02
170, 0.00, 28124.30, 0.00, 0.00, 0.00, 0.00, 0.00, 0.00, 0.01, -0.18, 1.02
171, 0.00, 28109.80, 0.00, 0.00, 0.00, 0.00, 0.00, 0.00, 0.01, -0.18, 1.02
172, 0.00, 28103.34, 0.00, 0.00, 0.00, 0.00, 0.00, 0.00, 0.01, -0.18, 1.02
173, 0.00, 28104.37, 0.00, 0.00, 0.00, 0.00, 0.00, 0.00, 0.00, -0.19, 1.01
174, 0.00, 28098.85, 0.00, 0.00, 0.00, 0.00, 0.00, 0.00, 0.00, -0.19, 1.01
175, 0.00, 28121.04, 0.00, 0.00, 0.00, 0.00, 0.00, 0.00, 0.00, -0.19, 1.01
176, 0.00, 28109.73, 0.00, 0.00, 0.00, 0.00, 0.00, 0.00, 0.00, -0.19, 1.01
177, 0.00, 28124.37, 0.00, 0.00, 0.00, 0.00, 0.00, 0.00, 0.00, -0.19, 1.01
178, 0.00, 28137.83, 0.00, 0.00, 0.00, 0.00, 0.00, 0.00, 0.01, -0.19, 1.01
179, 0.00, 28132.55, 0.00, 0.00, 0.00, 0.00, 0.00, 0.00, 0.01, -0.19, 1.01
180, 0.00, 28115.57, 0.00, 0.00, 0.00, 0.00, 0.00, 0.00, 0.01, -0.19, 1.01
181, 0.00, 28114.40, 0.00, 0.00, 0.00, 0.00, 0.00, 0.00, 0.01, -0.19, 1.01
182, 0.00, 28125.40, 0.00, 0.00, 0.00, 0.00, 0.00, 0.00, 0.01, -0.19, 1.01
183, 0.00, 28112.86, 0.00, 0.00, 0.00, 0.00, 0.00, 0.00, 0.01, -0.19, 1.01
184, 0.00, 28102.51, 0.00, 0.00, 0.00, 0.00, 0.00, 0.00, 0.01, -0.19, 1.01
185, 0.00, 28111.92, 0.00, 0.00, 0.00, 0.00, 0.00, 0.00, 0.01, -0.19, 1.01
186, 0.00, 28133.54, 0.00, 0.00, 0.00, 0.00, 0.00, 0.00, 0.01, -0.19, 1.01
187, 0.00, 28128.55, 0.00, 0.00, 0.00, 0.00, 0.00, 0.00, 0.01, -0.19, 1.01
188, 0.00, 28142.01, 0.00, 0.00, 0.00, 0.00, 0.00, 0.00, 0.01, -0.19, 1.01
189, 0.00, 28125.45, 0.00, 0.00, 0.00, 0.00, 0.00, 0.00, 0.01, -0.19, 1.01
190, 0.00, 28103.72, 0.00, 0.00, 0.00, 0.00, 0.00, 0.00, 0.01, -0.19, 1.01
191, 0.00, 28142.05, 0.00, 0.00, 0.00, 0.00, 0.00, 0.00, 0.01, -0.19, 1.01
192, 0.00, 28127.97, 0.00, 0.00, 0.00, 0.00, 0.00, 0.00, 0.01, -0.19, 1.01
193, 0.00, 28127.28, 0.00, 0.00, 0.00, 0.00, 0.00, 0.00, 0.01, -0.19, 1.02
194, 0.00, 28120.66, 0.00, 0.00, 0.00, 0.00, 0.00, 0.00, 0.01, -0.19, 1.02
195, 0.00, 28115.34, 0.00, 0.00, 0.00, 0.00, 0.00, 0.00, 0.01, -0.19, 1.02
196, 0.00, 28133.51, 0.00, 0.00, 0.00, 0.00, 0.00, 0.00, 0.01, -0.19, 1.02
197, 0.00, 28138.45, 0.00, 0.00, 0.00, 0.00, 0.00, 0.00, 0.01, -0.19, 1.02
198, 0.00, 28138.52, 0.00, 0.00, 0.00, 0.00, 0.00, 0.00, 0.01, -0.18, 1.02
199, 0.00, 28140.31, 0.00, 0.00, 0.00, 0.00, 0.00, 0.00, 0.01, -0.18, 1.02
200, 0.00, 28149.27, 0.00, 0.00, 0.00, 0.00, 0.00, 0.00, 0.01, -0.18, 1.02
201, 0.00, 28140.58, 0.00, 0.00, 0.00, 0.00, 0.00, 0.00, 0.01, -0.18, 1.02
202, 0.00, 28136.58, 0.00, 0.00, 0.00, 0.00, 0.00, 0.00, 0.01, -0.18, 1.02
203, 0.00, 28138.03, 0.00, 0.00, 0.00, 0.00, 0.00, 0.00, 0.01, -0.19, 1.01
204, 0.00, 28140.49, 0.00, 0.00, 0.00, 0.00, 0.00, 0.00, 0.01, -0.19, 1.01
205, 0.00, 28130.63, 0.00, 0.00, 0.00, 0.00, 0.00, 0.00, 0.01, -0.19, 1.01
206, 0.00, 28126.00, 0.00, 0.00, 0.00, 0.00, 0.00, 0.00, 0.01, -0.19, 1.01
207, 0.00, 28142.19, 0.00, 0.00, 0.00, 0.00, 0.00, 0.00, 0.01, -0.19, 1.01
208, 0.00, 28146.86, 0.00, 0.00, 0.00, 0.00, 0.00, 0.00, 0.01, -0.19, 1.01
209, 0.00, 28157.90, 0.00, 0.00, 0.00, 0.00, 0.00, 0.00, 0.01, -0.19, 1.01
210, 0.00, 28134.23, 0.00, 0.00, 0.00, 0.00, 0.00, 0.00, 0.01, -0.19, 1.01
211, 0.00, 28139.39, 0.00, 0.00, 0.00, 0.00, 0.00, 0.00, 0.01, -0.19, 1.01
212, 0.00, 28145.52, 0.00, 0.00, 0.00, 0.00, 0.00, 0.00, 0.01, -0.19, 1.01
213, 0.00, 28141.09, 0.00, 0.00, 0.00, 0.00, 0.00, 0.00, 0.01, -0.20, 1.03
214, 0.00, 28147.08, 0.00, 0.00, 0.00, 0.00, 0.00, 0.00, 0.01, -0.20, 1.03
215, 0.00, 28154.23, 0.00, 0.00, 0.00, 0.00, 0.00, 0.00, 0.01, -0.20, 1.03
216, 0.00, 28165.19, 0.00, 0.00, 0.00, 0.00, 0.00, 0.00, 0.01, -0.20, 1.03
217, 0.00, 28152.31, 0.00, 0.00, 0.00, 0.00, 0.00, 0.00, 0.01, -0.20, 1.03
218, 0.00, 28131.44, 0.00, 0.00, 0.00, 0.00, 0.00, 0.00, 0.01, -0.19, 1.02
219, 0.00, 28136.69, 0.00, 0.00, 0.00, 0.00, 0.00, 0.00, 0.01, -0.19, 1.02
220, 0.00, 28150.30, 0.00, 0.00, 0.00, 0.00, 0.00, 0.00, 0.01, -0.19, 1.02
221, 0.00, 28169.97, 0.00, 0.00, 0.00, 0.00, 0.00, 0.00, 0.01, -0.19, 1.02
222, 0.00, 28163.78, 0.00, 0.00, 0.00, 0.00, 0.00, 0.00, 0.01, -0.19, 1.02
223, 0.00, 28156.71, 0.00, 0.00, 0.00, 0.00, 0.00, 0.00, 0.00, -0.18, 1.02
224, 0.00, 28174.78, 0.00, 0.00, 0.00, 0.00, 0.00, 0.00, 0.00, -0.18, 1.02
225, 0.00, 28168.14, 0.00, 0.00, 0.00, 0.00, 0.00, 0.00, 0.00, -0.18, 1.02
226, 0.00, 28166.55, 0.00, 0.00, 0.00, 0.00, 0.00, 0.00, 0.00, -0.18, 1.02
227, 0.00, 28165.37, 0.00, 0.00, 0.00, 0.00, 0.00, 0.00, 0.00, -0.18, 1.02
228, 0.00, 28175.78, 0.00, 0.00, 0.00, 0.00, 0.00, 0.00, 0.00, -0.19, 1.02
229, 0.00, 28173.57, 0.00, 0.00, 0.00, 0.00, 0.00, 0.00, 0.00, -0.19, 1.02
230, 0.00, 28151.15, 0.00, 0.00, 0.00, 0.00, 0.00, 0.00, 0.00, -0.19, 1.02
231, 0.00, 28147.13, 0.00, 0.00, 0.00, 0.00, 0.00, 0.00, 0.00, -0.19, 1.02
232, 0.00, 28173.52, 0.00, 0.00, 0.00, 0.00, 0.00, 0.00, 0.00, -0.19, 1.02
233, 0.00, 28179.25, 0.00, 0.00, 0.00, 0.00, 0.00, 0.00, 0.01, -0.19, 1.02
234, 0.00, 28172.99, 0.00, 0.00, 0.00, 0.00, 0.00, 0.00, 0.01, -0.19, 1.02
235, 0.00, 28166.86, 0.00, 0.00, 0.00, 0.00, 0.00, 0.00, 0.01, -0.19, 1.02
236, 0.00, 28177.99, 0.00, 0.00, 0.00, 0.00, 0.00, 0.00, 0.01, -0.19, 1.02
237, 0.00, 28170.24, 0.00, 0.00, 0.00, 0.00, 0.00, 0.00, 0.01, -0.19, 1.02
238, 0.00, 28171.87, 0.00, 0.00, 0.00, 0.00, 0.00, 0.00, 0.01, -0.18, 1.01
239, 0.00, 28175.58, 0.00, 0.00, 0.00, 0.00, 0.00, 0.00, 0.01, -0.18, 1.01
240, 0.00, 28183.07, 0.00, 0.00, 0.00, 0.00, 0.00, 0.00, 0.01, -0.18, 1.01
241, 0.00, 28177.53, 0.00, 0.00, 0.00, 0.00, 0.00, 0.00, 0.01, -0.18, 1.01
242, 0.00, 28169.63, 0.00, 0.00, 0.00, 0.00, 0.00, 0.00, 0.01, -0.18, 1.01
243, 0.00, 28172.52, 0.00, 0.00, 0.00, 0.00, 0.00, 0.00, 0.01, -0.18, 1.01
244, 0.00, 28180.21, 0.00, 0.00, 0.00, 0.00, 0.00, 0.00, 0.02, -0.19, 1.01
245, 0.00, 28184.10, 0.00, 0.00, 0.00, 0.00, 0.00, 0.00, 0.02, -0.19, 1.01
246, 0.00, 28154.01, 0.00, 0.00, 0.00, 0.00, 0.00, 0.00, 0.02, -0.19, 1.01
247, 0.00, 28167.98, 0.00, 0.00, 0.00, 0.00, 0.00, 0.00, 0.02, -0.19, 1.01
248, 0.00, 28195.05, 0.00, 0.00, 0.00, 0.00, 0.00, 0.00, 0.02, -0.19, 1.01
249, 0.00, 28190.33, 0.00, 0.00, 0.00, 0.00, 0.00, 0.00, 0.00, -0.19, 1.02
250, 0.00, 28195.94, 0.00, 0.00, 0.00, 0.00, 0.00, 0.00, 0.00, -0.19, 1.02
251, 0.00, 28179.94, 0.00, 0.00, 0.00, 0.00, 0.00, 0.00, 0.00, -0.19, 1.02
252, 0.00, 28177.75, 0.00, 0.00, 0.00, 0.00, 0.00, 0.00, 0.00, -0.19, 1.02
253, 0.00, 28205.35, 0.00, 0.00, 0.00, 0.00, 0.00, 0.00, 0.00, -0.19, 1.02
254, 0.00, 28224.04, 0.00, 0.00, 0.00, 0.00, 0.00, 0.00, 0.01, -0.18, 1.03
255, 0.00, 28200.77, 0.00, 0.00, 0.00, 0.00, 0.00, 0.00, 0.01, -0.18, 1.03
0, 0.00, 28168.58, 0.00, 0.00, 0.00, 0.00, 0.00, 0.00, 0.01, -0.18, 1.03
1, 0.00, 28169.10, 0.00, 0.00, 0.00, 0.00, 0.00, 0.00, 0.01, -0.18, 1.03
2, 0.00, 28176.27, 0.00, 0.00, 0.00, 0.00, 0.00, 0.00, 0.01, -0.18, 1.03
3, 0.00, 28149.81, 0.00, 0.00, 0.00, 0.00, 0.00, 0.00, 0.00, -0.18, 1.02
4, 0.00, 28142.95, 0.00, 0.00, 0.00, 0.00, 0.00, 0.00, 0.00, -0.18, 1.02
5, 0.00, 28149.70, 0.00, 0.00, 0.00, 0.00, 0.00, 0.00, 0.00, -0.18, 1.02
6, 0.00, 28155.46, 0.00, 0.00, 0.00, 0.00, 0.00, 0.00, 0.00, -0.18, 1.02
7, 0.00, 28148.67, 0.00, 0.00, 0.00, 0.00, 0.00, 0.00, 0.00, -0.18, 1.02
8, 0.00, 28135.46, 0.00, 0.00, 0.00, 0.00, 0.00, 0.00, 0.01, -0.18, 1.01
9, 0.00, 28136.29, 0.00, 0.00, 0.00, 0.00, 0.00, 0.00, 0.01, -0.18, 1.01
10, 0.00, 28133.92, 0.00, 0.00, 0.00, 0.00, 0.00, 0.00, 0.01, -0.18, 1.01
11, 0.00, 28135.10, 0.00, 0.00, 0.00, 0.00, 0.00, 0.00, 0.01, -0.18, 1.01
12, 0.00, 28135.32, 0.00, 0.00, 0.00, 0.00, 0.00, 0.00, 0.01, -0.18, 1.01
13, 0.00, 28133.07, 0.00, 0.00, 0.00, 0.00, 0.00, 0.00, 0.00, -0.19, 1.01
14, 0.00, 28152.94, 0.00, 0.00, 0.00, 0.00, 0.00, 0.00, 0.00, -0.19, 1.01
15, 0.00, 28165.90, 0.00, 0.00, 0.00, 0.00, 0.00, 0.00, 0.00, -0.19, 1.01
16, 0.00, 28161.01, 0.00, 0.00, 0.00, 0.00, 0.00, 0.00, 0.00, -0.19, 1.01
17, 0.00, 28159.82, 0.00, 0.00, 0.00, 0.00, 0.00, 0.00, 0.00, -0.19, 1.01
18, 0.00, 28173.46, 0.00, 0.00, 0.00, 0.00, 0.00, 0.00, 0.00, -0.19, 1.01
19, 0.00, 28177.21, 0.00, 0.00, 0.00, 0.00, 0.00, 0.00, 0.00, -0.19, 1.01
20, 0.00, 28177.53, 0.00, 0.00, 0.00, 0.00, 0.00, 0.00, 0.00, -0.19, 1.01
21, 0.00, 28175.31, 0.00, 0.00, 0.00, 0.00, 0.00, 0.00, 0.00, -0.19, 1.01
22, 0.00, 28182.84, 0.00, 0.00, 0.00, 0.00, 0.00, 0.00, 0.00, -0.19, 1.01
23, 0.00, 28191.00, 0.00, 0.00, 0.00, 0.00, 0.00, 0.00, 0.00, -0.18, 1.01
24, 0.00, 28178.75, 0.00, 0.00, 0.00, 0.00, 0.00, 0.00, 0.00, -0.18, 1.01
25, 0.00, 28181.21, 0.00, 0.00, 0.00, 0.00, 0.00, 0.00, 0.00, -0.18, 1.01
26, 0.00, 28179.87, 0.00, 0.00, 0.00, 0.00, 0.00, 0.00, 0.00, -0.18, 1.01
27, 0.00, 28207.32, 0.00, 0.00, 0.00, 0.00, 0.00, 0.00, 0.00, -0.18, 1.01
28, 0.00, 28192.59, 0.00, 0.00, 0.00, 0.00, 0.00, 0.00, 0.01, -0.19, 1.02
29, 0.00, 28179.51, 0.00, 0.00, 0.00, 0.00, 0.00, 0.00, 0.01, -0.19, 1.02
30, 0.00, 28197.42, 0.00, 0.00, 0.00, 0.00, 0.00, 0.00, 0.01, -0.19, 1.02
31, 0.00, 28194.51, 0.00, 0.00, 0.00, 0.00, 0.00, 0.00, 0.01, -0.19, 1.02
32, 0.00, 28179.40, 0.00, 0.00, 0.00, 0.00, 0.00, 0.00, 0.01, -0.19, 1.02
33, 0.00, 28183.49, 0.00, 0.00, 0.00, 0.00, 0.00, 0.00, 0.02, -0.19, 1.03
34, 0.00, 28186.51, 0.00, 0.00, 0.00, 0.00, 0.00, 0.00, 0.02, -0.19, 1.03
35, 0.00, 28209.58, 0.00, 0.00, 0.00, 0.00, 0.00, 0.00, 0.02, -0.19, 1.03
36, 0.00, 28205.46, 0.00, 0.00, 0.00, 0.00, 0.00, 0.00, 0.02, -0.19, 1.03
37, 0.00, 28203.47, 0.00, 0.00, 0.00, 0.00, 0.00, 0.00, 0.02, -0.19, 1.03
38, 0.00, 28200.66, 0.00, 0.00, 0.00, 0.00, 0.00, 0.00, 0.02, -0.19, 1.02
39, 0.00, 28216.15, 0.00, 0.00, 0.00, 0.00, 0.00, 0.00, 0.02, -0.19, 1.02
40, 0.00, 28204.46, 0.00, 0.00, 0.00, 0.00, 0.00, 0.00, 0.02, -0.19, 1.02
41, 0.00, 28188.68, 0.00, 0.00, 0.00, 0.00, 0.00, 0.00, 0.02, -0.19, 1.02
42, 0.00, 28202.87, 0.00, 0.00, 0.00, 0.00, 0.00, 0.00, 0.02, -0.19, 1.02
43, 0.00, 28220.64, 0.00, 0.00, 0.00, 0.00, 0.00, 0.00, 0.01, -0.18, 1.02
44, 0.00, 28208.26, 0.00, 0.00, 0.00, 0.00, 0.00, 0.00, 0.01, -0.18, 1.02
45, 0.00, 28214.94, 0.00, 0.00, 0.00, 0.00, 0.00, 0.00, 0.01, -0.18, 1.02
46, 0.00, 28215.19, 0.00, 0.00, 0.00, 0.00, 0.00, 0.00, 0.01, -0.18, 1.02
47, 0.00, 28212.66, 0.00, 0.00, 0.00, 0.00, 0.00, 0.00, 0.01, -0.18, 1.02
48, 0.00, 28217.82, 0.00, 0.00, 0.00, 0.00, 0.00, 0.00, 0.01, -0.18, 1.02
49, 0.00, 28209.09, 0.00, 0.00, 0.00, 0.00, 0.00, 0.00, 0.01, -0.18, 1.02
50, 0.00, 28210.43, 0.00, 0.00, 0.00, 0.00, 0.00, 0.00, 0.01, -0.18, 1.02
51, 0.00, 28214.43, 0.00, 0.00, 0.00, 0.00, 0.00, 0.00, 0.01, -0.18, 1.02
52, 0.00, 28200.50, 0.00, 0.00, 0.00, 0.00, 0.00, 0.00, 0.01, -0.18, 1.02
53, 0.00, 28227.82, 0.00, 0.00, 0.00, 0.00, 0.00, 0.00, 0.00, -0.18, 1.02
54, 0.00, 28229.87, 0.00, 0.00, 0.00, 0.00, 0.00, 0.00, 0.00, -0.18, 1.02
55, 0.00, 28236.64, 0.00, 0.00, 0.00, 0.00, 0.00, 0.00, 0.00, -0.18, 1.02
56, 0.00, 28238.43, 0.00, 0.00, 0.00, 0.00, 0.00, 0.00, 0.00, -0.18, 1.02
57, 0.00, 28227.71, 0.00, 0.00, 0.00, 0.00, 0.00, 0.00, 0.00, -0.18, 1.02
58, 0.00, 28224.93, 0.00, 0.00, 0.00, 0.00, 0.00, 0.00, -0.00, -0.19, 1.01
59, 0.00, 28230.56, 0.00, 0.00, 0.00, 0.00, 0.00, 0.00, -0.00, -0.19, 1.01
60, 0.00, 28215.90, 0.00, 0.00, 0.00, 0.00, 0.00, 0.00, -0.00, -0.19, 1.01
61, 0.00, 28222.74, 0.00, 0.00, 0.00, 0.00, 0.00, 0.00, -0.00, -0.19, 1.01
62, 0.00, 28236.09, 0.00, 0.00, 0.00, 0.00, 0.00, 0.00, -0.00, -0.19, 1.01
63, 0.00, 28241.27, 0.00, 0.00, 0.00, 0.00, 0.00, 0.00, -0.00, -0.18, 1.02
64, 0.00, 28234.14, 0.00, 0.00, 0.00, 0.00, 0.00, 0.00, -0.00, -0.18, 1.02
65, 0.00, 28242.84, 0.00, 0.00, 0.00, 0.00, 0.00, 0.00, -0.00, -0.18, 1.02
66, 0.00, 28238.61, 0.00, 0.00, 0.00, 0.00, 0.00, 0.00, -0.00, -0.18, 1.02
67, 0.00, 28243.46, 0.00, 0.00, 0.00, 0.00, 0.00, 0.00, -0.00, -0.18, 1.02
68, 0.00, 28242.39, 0.00, 0.00, 0.00, 0.00, 0.00, 0.00, 0.01, -0.18, 1.01
69, 0.00, 28248.71, 0.00, 0.00, 0.00, 0.00, 0.00, 0.00, 0.01, -0.18, 1.01
70, 0.00, 28242.52, 0.00, 0.00, 0.00, 0.00, 0.00, 0.00, 0.01, -0.18, 1.01
71, 0.00, 28233.72, 0.00, 0.00, 0.00, 0.00, 0.00, 0.00, 0.01, -0.18, 1.01
72, 0.00, 28248.67, 0.00, 0.00, 0.00, 0.00, 0.00, 0.00, 0.01, -0.18, 1.01
73, 0.00, 28252.54, 0.00, 0.00, 0.00, 0.00, 0.00, 0.00, 0.01, -0.19, 1.01
74, 0.00, 28253.88, 0.00, 0.00, 0.00, 0.00, 0.00, 0.00, 0.01, -0.19, 1.01
75, 0.00, 28249.72, 0.00, 0.00, 0.00, 0.00, 0.00, 0.00, 0.01, -0.19, 1.01
76, 0.00, 28254.91, 0.00, 0.00, 0.00, 0.00, 0.00, 0.00, 0.01, -0.19, 1.01
77, 0.00, 28251.35, 0.00, 0.00, 0.00, 0.00, 0.00, 0.00, 0.01, -0.19, 1.01
78, 0.00, 28257.50, 0.00, 0.00, 0.00, 0.00, 0.00, 0.00, 0.02, -0.19, 1.01
79, 0.00, 28224.24, 0.00, 0.00, 0.00, 0.00, 0.00, 0.00, 0.02, -0.19, 1.01
80, 0.00, 28219.48, 0.00, 0.00, 0.00, 0.00, 0.00, 0.00, 0.02, -0.19, 1.01
81, 0.00, 28258.04, 0.00, 0.00, 0.00, 0.00, 0.00, 0.00, 0.02, -0.19, 1.01
82, 0.00, 28272.79, 0.00, 0.00, 0.00, 0.00, 0.00, 0.00, 0.02, -0.19, 1.01
83, 0.00, 28257.95, 0.00, 0.00, 0.00, 0.00, 0.00, 0.00, 0.02, -0.18, 1.01
84, 0.00, 28263.51, 0.00, 0.00, 0.00, 0.00, 0.00, 0.00, 0.02, -0.18, 1.01
85, 0.00, 28276.10, 0.00, 0.00, 0.00, 0.00, 0.00, 0.00, 0.02, -0.18, 1.01
86, 0.00, 28259.09, 0.00, 0.00, 0.00, 0.00, 0.00, 0.00, 0.02, -0.18, 1.01
87, 0.00, 28235.24, 0.00, 0.00, 0.00, 0.00, 0.00, 0.00, 0.02, -0.18, 1.01
88, 0.00, 28250.23, 0.00, 0.00, 0.00, 0.00, 0.00, 0.00, 0.02, -0.18, 1.01
89, 0.00, 28269.55, 0.00, 0.00, 0.00, 0.00, 0.00, 0.00, 0.02, -0.18, 1.01
90, 0.00, 28252.98, 0.00, 0.00, 0.00, 0.00, 0.00, 0.00, 0.02, -0.18, 1.01
91, 0.00, 28258.48, 0.00, 0.00, 0.00, 0.00, 0.00, 0.00, 0.02, -0.18, 1.01
92, 0.00, 28270.04, 0.00, 0.00, 0.00, 0.00, 0.00, 0.00, 0.02, -0.18, 1.01
93, 0.00, 28272.23, 0.00, 0.00, 0.00, 0.00, 0.00, 0.00, 0.01, -0.19, 1.02
94, 0.00, 28279.40, 0.00, 0.00, 0.00, 0.00, 0.00, 0.00, 0.01, -0.19, 1.02
95, 0.00, 28259.09, 0.00, 0.00, 0.00, 0.00, 0.00, 0.00, 0.01, -0.19, 1.02
96, 0.00, 28260.34, 0.00, 0.00, 0.00, 0.00, 0.00, 0.00, 0.01, -0.19, 1.02
97, 0.00, 28266.35, 0.00, 0.00, 0.00, 0.00, 0.00, 0.00, 0.01, -0.19, 1.02
98, 0.00, 28273.35, 0.00, 0.00, 0.00, 0.00, 0.00, 0.00, 0.01, -0.18, 1.01
99, 0.00, 28272.92, 0.00, 0.00, 0.00, 0.00, 0.00, 0.00, 0.01, -0.18, 1.01
100, 0.00, 28268.83, 0.00, 0.00, 0.00, 0.00, 0.00, 0.00, 0.01, -0.18, 1.01
101, 0.00, 28282.71, 0.00, 0.00, 0.00, 0.00, 0.00, 0.00, 0.01, -0.18, 1.01
102, 0.00, 28284.75, 0.00, 0.00, 0.00, 0.00, 0.00, 0.00, 0.01, -0.18, 1.01
103, 0.00, 28286.65, 0.00, 0.00, 0.00, 0.00, 0.00, 0.00, 0.01, -0.18, 1.02
104, 0.00, 28298.89, 0.00, 0.00, 0.00, 0.00, 0.00, 0.00, 0.01, -0.18, 1.02
105, 0.00, 28304.84, 0.00, 0.00, 0.00, 0.00, 0.00, 0.00, 0.01, -0.18, 1.02
106, 0.00, 28304.53, 0.00, 0.00, 0.00, 0.00, 0.00, 0.00, 0.01, -0.18, 1.02
107, 0.00, 28289.80, 0.00, 0.00, 0.00, 0.00, 0.00, 0.00, 0.01, -0.18, 1.02
108, 0.00, 28268.81, 0.00, 0.00, 0.00, 0.00, 0.00, 0.00, 0.01, -0.18, 1.01
109, 0.00, 28292.12, 0.00, 0.00, 0.00, 0.00, 0.00, 0.00, 0.01, -0.18, 1.01
110, 0.00, 28306.65, 0.00, 0.00, 0.00, 0.00, 0.00, 0.00, 0.01, -0.18, 1.01
111, 0.00, 28304.21, 0.00, 0.00, 0.00, 0.00, 0.00, 0.00, 0.01, -0.18, 1.01
112, 0.00, 28291.00, 0.00, 0.00, 0.00, 0.00, 0.00, 0.00, 0.01, -0.18, 1.01
113, 0.00, 28293.46, 0.00, 0.00, 0.00, 0.00, 0.00, 0.00, 0.01, -0.18, 1.02
114, 0.00, 28292.37, 0.00, 0.00, 0.00, 0.00, 0.00, 0.00, 0.01, -0.18, 1.02
115, 0.00, 28296.48, 0.00, 0.00, 0.00, 0.00, 0.00, 0.00, 0.01, -0.18, 1.02
116, 0.00, 28284.03, 0.00, 0.00, 0.00, 0.00, 0.00, 0.00, 0.01, -0.18, 1.02
117, 0.00, 28286.65, 0.00, 0.00, 0.00, 0.00, 0.00, 0.00, 0.01, -0.18, 1.02
118, 0.00, 28308.75, 0.00, 0.00, 0.00, 0.00, 0.00, 0.00, 0.01, -0.19, 1.02
119, 0.00, 28301.62, 0.00, 0.00, 0.00, 0.00, 0.00, 0.00, 0.01, -0.19, 1.02
120, 0.00, 28299.90, 0.00, 0.00, 0.00, 0.00, 0.00, 0.00, 0.01, -0.19, 1.02
121, 0.00, 28310.79, 0.00, 0.00, 0.00, 0.00, 0.00, 0.00, 0.01, -0.19, 1.02
122, 0.00, 28306.85, 0.00, 0.00, 0.00, 0.00, 0.00, 0.00, 0.01, -0.19, 1.02
123, 0.00, 28305.35, 0.00, 0.00, 0.00, 0.00, 0.00, 0.00, 0.01, -0.19, 1.01
124, 0.00, 28307.77, 0.00, 0.00, 0.00, 0.00, 0.00, 0.00, 0.01, -0.19, 1.01
125, 0.00, 28304.37, 0.00, 0.00, 0.00, 0.00, 0.00, 0.00, 0.01, -0.19, 1.01
126, 0.00, 28305.71, 0.00, 0.00, 0.00, 0.00, 0.00, 0.00, 0.01, -0.19, 1.01
127, 0.00, 28311.63, 0.00, 0.00, 0.00, 0.00, 0.00, 0.00, 0.01, -0.19, 1.01
128, 0.00, 28322.03, 0.00, 0.00, 0.00, 0.00, 0.00, 0.00, 0.01, -0.19, 1.02
129, 0.00, 28322.95, 0.00, 0.00, 0.00, 0.00, 0.00, 0.00, 0.01, -0.19, 1.02
130, 0.00, 28302.27, 0.00, 0.00, 0.00, 0.00, 0.00, 0.00, 0.01, -0.19, 1.02
131, 0.00, 28298.45, 0.00, 0.00, 0.00, 0.00, 0.00, 0.00, 0.01, -0.19, 1.02
132, 0.00, 28325.74, 0.00, 0.00, 0.00, 0.00, 0.00, 0.00, 0.01, -0.19, 1.02
133, 0.00, 28327.42, 0.00, 0.00, 0.00, 0.00, 0.00, 0.00, 0.02, -0.19, 1.02
134, 0.00, 28327.53, 0.00, 0.00, 0.00, 0.00, 0.00, 0.00, 0.02, -0.19, 1.02
135, 0.00, 28326.54, 0.00, 0.00, 0.00, 0.00, 0.00, 0.00, 0.02, -0.19, 1.02
136, 0.00, 28327.57, 0.00, 0.00, 0.00, 0.00, 0.00, 0.00, 0.02, -0.19, 1.02
137, 0.00, 28320.49, 0.00, 0.00, 0.00, 0.00, 0.00, 0.00, 0.02, -0.19, 1.02
138, 0.00, 28317.11, 0.00, 0.00, 0.00, 0.00, 0.00, 0.00, 0.01, -0.19, 1.01
139, 0.00, 28335.17, 0.00, 0.00, 0.00, 0.00, 0.00, 0.00, 0.01, -0.19, 1.01
140, 0.00, 28313.80, 0.00, 0.00, 0.00, 0.00, 0.00, 0.00, 0.01, -0.19, 1.01
141, 0.00, 28337.85, 0.00, 0.00, 0.00, 0.00, 0.00, 0.00, 0.01, -0.19, 1.01
142, 0.00, 28332.45, 0.00, 0.00, 0.00, 0.00, 0.00, 0.00, 0.01, -0.19, 1.01
143, 0.00, 28333.65, 0.00, 0.00, 0.00, 0.00, 0.00, 0.00, 0.01, -0.19, 1.01
144, 0.00, 28335.82, 0.00, 0.00, 0.00, 0.00, 0.00, 0.00, 0.01, -0.19, 1.01
145, 0.00, 28325.49, 0.00, 0.00, 0.00, 0.00, 0.00, 0.00, 0.01, -0.19, 1.01
146, 0.00, 28340.54, 0.00, 0.00, 0.00, 0.00, 0.00, 0.00, 0.01, -0.19, 1.01
147, 0.00, 28347.06, 0.00, 0.00, 0.00, 0.00, 0.00, 0.00, 0.01, -0.19, 1.01
148, 0.00, 28349.14, 0.00, 0.00, 0.00, 0.00, 0.00, 0.00, 0.01, -0.19, 1.01
149, 0.00, 28327.93, 0.00, 0.00, 0.00, 0.00, 0.00, 0.00, 0.01, -0.19, 1.01
150, 0.00, 28323.71, 0.00, 0.00, 0.00, 0.00, 0.00, 0.00, 0.01, -0.19, 1.01
151, 0.00, 28336.94, 0.00, 0.00, 0.00, 0.00, 0.00, 0.00, 0.01, -0.19, 1.01
152, 0.00, 28352.14, 0.00, 0.00, 0.00, 0.00, 0.00, 0.00, 0.01, -0.19, 1.01
153, 0.00, 28342.88, 0.00, 0.00, 0.00, 0.00, 0.00, 0.00, 0.00, -0.18, 1.01
154, 0.00, 28346.35, 0.00, 0.00, 0.00, 0.00, 0.00, 0.00, 0.00, -0.18, 1.01
155, 0.00, 28344.71, 0.00, 0.00, 0.00, 0.00, 0.00, 0.00, 0.00, -0.18, 1.01
156, 0.00, 28347.73, 0.00, 0.00, 0.00, 0.00, 0.00, 0.00, 0.00, -0.18, 1.01
157, 0.00, 28343.93, 0.00, 0.00, 0.00, 0.00, 0.00, 0.00, 0.00, -0.18, 1.01
158, 0.00, 28333.67, 0.00, 0.00, 0.00, 0.00, 0.00, 0.00, 0.01, -0.18, 1.01
159, 0.00, 28344.67, 0.00, 0.00, 0.00, 0.00, 0.00, 0.00, 0.01, -0.18, 1.01
160, 0.00, 28351.76, 0.00, 0.00, 0.00, 0.00, 0.00, 0.00, 0.01, -0.18, 1.01
161, 0.00, 28357.46, 0.00, 0.00, 0.00, 0.00, 0.00, 0.00, 0.01, -0.18, 1.01
162, 0.00, 28347.06, 0.00, 0.00, 0.00, 0.00, 0.00, 0.00, 0.01, -0.18, 1.01
163, 0.00, 28349.30, 0.00, 0.00, 0.00, 0.00, 0.00, 0.00, 0.01, -0.18, 1.01
164, 0.00, 28365.35, 0.00, 0.00, 0.00, 0.00, 0.00, 0.00, 0.00, -0.18, 1.01
165, 0.00, 28371.20, 0.00, 0.00, 0.00, 0.00, 0.00, 0.00, 0.00, -0.18, 1.01
166, 0.00, 28360.07, 0.00, 0.00, 0.00, 0.00, 0.00, 0.00, 0.00, -0.18, 1.01
167, 0.00, 28335.19, 0.00, 0.00, 0.00, 0.00, 0.00, 0.00, 0.00, -0.18, 1.01
168, 0.00, 28352.36, 0.00, 0.00, 0.00, 0.00, 0.00, 0.00, 0.00, -0.18, 1.01
169, 0.00, 28371.83, 0.00, 0.00, 0.00, 0.00, 0.00, 0.00, 0.01, -0.18, 1.01
170, 0.00, 28354.28, 0.00, 0.00, 0.00, 0.00, 0.00, 0.00, 0.01, -0.18, 1.01
171, 0.00, 28357.41, 0.00, 0.00, 0.00, 0.00, 0.00, 0.00, 0.01, -0.18, 1.01
172, 0.00, 28360.72, 0.00, 0.00, 0.00, 0.00, 0.00, 0.00, 0.01, -0.18, 1.01
173, 0.00, 28366.78, 0.00, 0.00, 0.00, 0.00, 0.00, 0.00, 0.01, -0.18, 1.01
174, 0.00, 28365.23, 0.00, 0.00, 0.00, 0.00, 0.00, 0.00, 0.01, -0.19, 1.01
175, 0.00, 28367.11, 0.00, 0.00, 0.00, 0.00, 0.00, 0.00, 0.01, -0.19, 1.01
176, 0.00, 28367.69, 0.00, 0.00, 0.00, 0.00, 0.00, 0.00, 0.01, -0.19, 1.01
177, 0.00, 28374.82, 0.00, 0.00, 0.00, 0.00, 0.00, 0.00, 0.01, -0.19, 1.01
178, 0.00, 28381.66, 0.00, 0.00, 0.00, 0.00, 0.00, 0.00, 0.01, -0.19, 1.01
179, 0.00, 28376.72, 0.00, 0.00, 0.00, 0.00, 0.00, 0.00, 0.02, -0.19, 1.02
180, 0.00, 28371.02, 0.00, 0.00, 0.00, 0.00, 0.00, 0.00, 0.02, -0.19, 1.02
181, 0.00, 28377.57, 0.00, 0.00, 0.00, 0.00, 0.00, 0.00, 0.02, -0.19, 1.02
182, 0.00, 28385.46, 0.00, 0.00, 0.00, 0.00, 0.00, 0.00, 0.02, -0.19, 1.02
183, 0.00, 28368.74, 0.00, 0.00, 0.00, 0.00, 0.00, 0.00, 0.02, -0.19, 1.02
184, 0.00, 28376.12, 0.00, 0.00, 0.00, 0.00, 0.00, 0.00, 0.01, -0.19, 1.02
185, 0.00, 28378.42, 0.00, 0.00, 0.00, 0.00, 0.00, 0.00, 0.01, -0.19, 1.02
186, 0.00, 28397.53, 0.00, 0.00, 0.00, 0.00, 0.00, 0.00, 0.01, -0.19, 1.02
187, 0.00, 28391.65, 0.00, 0.00, 0.00, 0.00, 0.00, 0.00, 0.01, -0.19, 1.02
188, 0.00, 28396.06, 0.00, 0.00, 0.00, 0.00, 0.00, 0.00, 0.01, -0.19, 1.02
189, 0.00, 28407.01, 0.00, 0.00, 0.00, 0.00, 0.00, 0.00, 0.01, -0.19, 1.01
190, 0.00, 28397.09, 0.00, 0.00, 0.00, 0.00, 0.00, 0.00, 0.01, -0.19, 1.01
191, 0.00, 28388.21, 0.00, 0.00, 0.00, 0.00, 0.00, 0.00, 0.01, -0.19, 1.01
192, 0.00, 28377.53, 0.00, 0.00, 0.00, 0.00, 0.00, 0.00, 0.01, -0.19, 1.01
193, 0.00, 28382.15, 0.00, 0.00, 0.00, 0.00, 0.00, 0.00, 0.01, -0.19, 1.01
194, 0.00, 28385.78, 0.00, 0.00, 0.00, 0.00, 0.00, 0.00, 0.01, -0.18, 1.01
195, 0.00, 28393.80, 0.00, 0.00, 0.00, 0.00, 0.00, 0.00, 0.01, -0.18, 1.01
196, 0.00, 28398.25, 0.00, 0.00, 0.00, 0.00, 0.00, 0.00, 0.01, -0.18, 1.01
197, 0.00, 28388.97, 0.00, 0.00, 0.00, 0.00, 0.00, 0.00, 0.01, -0.18, 1.01
198, 0.00, 28398.52, 0.00, 0.00, 0.00, 0.00, 0.00, 0.00, 0.01, -0.18, 1.01
199, 0.00, 28398.52, 0.00, 0.00, 0.00, 0.00, 0.00, 0.00, 0.01, -0.18, 1.01
200, 0.00, 28386.16, 0.00, 0.00, 0.00, 0.00, 0.00, 0.00, 0.01, -0.18, 1.01
201, 0.00, 28395.72, 0.00, 0.00, 0.00, 0.00, 0.00, 0.00, 0.01, -0.18, 1.01
202, 0.00, 28424.15, 0.00, 0.00, 0.00, 0.00, 0.00, 0.00, 0.01, -0.18, 1.01
203, 0.00, 28419.50, 0.00, 0.00, 0.00, 0.00, 0.00, 0.00, 0.01, -0.18, 1.01
204, 0.00, 28396.50, 0.00, 0.00, 0.00, 0.00, 0.00, 0.00, 0.00, -0.18, 1.01
205, 0.00, 28388.97, 0.00, 0.00, 0.00, 0.00, 0.00, 0.00, 0.00, -0.18, 1.01
206, 0.00, 28427.64, 0.00, 0.00, 0.00, 0.00, 0.00, 0.00, 0.00, -0.18, 1.01
207, 0.00, 28430.84, 0.00, 0.00, 0.00, 0.00, 0.00, 0.00, 0.00, -0.18, 1.01
208, 0.00, 28424.18, 0.00, 0.00, 0.00, 0.00, 0.00, 0.00, 0.00, -0.18, 1.01
209, 0.00, 28413.16, 0.00, 0.00, 0.00, 0.00, 0.00, 0.00, 0.01, -0.19, 1.02
210, 0.00, 28414.99, 0.00, 0.00, 0.00, 0.00, 0.00, 0.00, 0.01, -0.19, 1.02
211, 0.00, 28418.19, 0.00, 0.00, 0.00, 0.00, 0.00, 0.00, 0.01, -0.19, 1.02
212, 0.00, 28428.67, 0.00, 0.00, 0.00, 0.00, 0.00, 0.00, 0.01, -0.19, 1.02
213, 0.00, 28422.12, 0.00, 0.00, 0.00, 0.00, 0.00, 0.00, 0.01, -0.19, 1.02
214, 0.00, 28437.59, 0.00, 0.00, 0.00, 0.00, 0.00, 0.00, 0.01, -0.18, 1.02
215, 0.00, 28431.04, 0.00, 0.00, 0.00, 0.00, 0.00, 0.00, 0.01, -0.18, 1.02
216, 0.00, 28427.06, 0.00, 0.00, 0.00, 0.00, 0.00, 0.00, 0.01, -0.18, 1.02
217, 0.00, 28420.82, 0.00, 0.00, 0.00, 0.00, 0.00, 0.00, 0.01, -0.18, 1.02
218, 0.00, 28409.02, 0.00, 0.00, 0.00, 0.00, 0.00, 0.00, 0.01, -0.18, 1.02
219, 0.00, 28417.85, 0.00, 0.00, 0.00, 0.00, 0.00, 0.00, 0.01, -0.18, 1.01
220, 0.00, 28430.55, 0.00, 0.00, 0.00, 0.00, 0.00, 0.00, 0.01, -0.18, 1.01
221, 0.00, 28422.05, 0.00, 0.00, 0.00, 0.00, 0.00, 0.00, 0.01, -0.18, 1.01
222, 0.00, 28444.05, 0.00, 0.00, 0.00, 0.00, 0.00, 0.00, 0.01, -0.18, 1.01
223, 0.00, 28459.09, 0.00, 0.00, 0.00, 0.00, 0.00, 0.00, 0.01, -0.18, 1.01
224, 0.00, 28444.18, 0.00, 0.00, 0.00, 0.00, 0.00, 0.00, 0.01, -0.18, 1.01
225, 0.00, 28433.74, 0.00, 0.00, 0.00, 0.00, 0.00, 0.00, 0.01, -0.18, 1.01
226, 0.00, 28439.91, 0.00, 0.00, 0.00, 0.00, 0.00, 0.00, 0.01, -0.18, 1.01
227, 0.00, 28437.61, 0.00, 0.00, 0.00, 0.00, 0.00, 0.00, 0.01, -0.18, 1.01
228, 0.00, 28433.50, 0.00, 0.00, 0.00, 0.00, 0.00, 0.00, 0.01, -0.18, 1.01
229, 0.00, 28442.86, 0.00, 0.00, 0.00, 0.00, 0.00, 0.00, 0.01, -0.19, 1.01
230, 0.00, 28446.24, 0.00, 0.00, 0.00, 0.00, 0.00, 0.00, 0.01, -0.19, 1.01
231, 0.00, 28470.18, 0.00, 0.00, 0.00, 0.00, 0.00, 0.00, 0.01, -0.19, 1.01
232, 0.00, 28458.98, 0.00, 0.00, 0.00, 0.00, 0.00, 0.00, 0.01, -0.19, 1.01
233, 0.00, 28440.43, 0.00, 0.00, 0.00, 0.00, 0.00, 0.00, 0.01, -0.19, 1.01
234, 0.00, 28444.76, 0.00, 0.00, 0.00, 0.00, 0.00, 0.00, 0.01, -0.19, 1.02
235, 0.00, 28444.63, 0.00, 0.00, 0.00, 0.00, 0.00, 0.00, 0.01, -0.19, 1.02
236, 0.00, 28463.07, 0.00, 0.00, 0.00, 0.00, 0.00, 0.00, 0.01, -0.19, 1.02
237, 0.00, 28461.77, 0.00, 0.00, 0.00, 0.00, 0.00, 0.00, 0.01, -0.19, 1.02
238, 0.00, 28458.96, 0.00, 0.00, 0.00, 0.00, 0.00, 0.00, 0.01, -0.19, 1.02
239, 0.00, 28472.17, 0.00, 0.00, 0.00, 0.00, 0.00, 0.00, 0.01, -0.18, 1.02
240, 0.00, 28472.41, 0.00, 0.00, 0.00, 0.00, 0.00, 0.00, 0.01, -0.18, 1.02
241, 0.00, 28476.48, 0.00, 0.00, 0.00, 0.00, 0.00, 0.00, 0.01, -0.18, 1.02
242, 0.00, 28462.55, 0.00, 0.00, 0.00, 0.00, 0.00, 0.00, 0.01, -0.18, 1.02
243, 0.00, 28469.91, 0.00, 0.00, 0.00, 0.00, 0.00, 0.00, 0.01, -0.18, 1.02
244, 0.00, 28477.57, 0.00, 0.00, 0.00, 0.00, 0.00, 0.00, 0.01, -0.18, 1.02
245, 0.00, 28454.51, 0.00, 0.00, 0.00, 0.00, 0.00, 0.00, 0.01, -0.18, 1.02
246, 0.00, 28450.08, 0.00, 0.00, 0.00, 0.00, 0.00, 0.00, 0.01, -0.18, 1.02
247, 0.00, 28472.21, 0.00, 0.00, 0.00, 0.00, 0.00, 0.00, 0.01, -0.18, 1.02
248, 0.00, 28486.29, 0.00, 0.00, 0.00, 0.00, 0.00, 0.00, 0.01, -0.18, 1.02
249, 0.00, 28483.34, 0.00, 0.00, 0.00, 0.00, 0.00, 0.00, 0.01, -0.18, 1.02
250, 0.00, 28464.07, 0.00, 0.00, 0.00, 0.00, 0.00, 0.00, 0.01, -0.18, 1.02
251, 0.00, 28457.32, 0.00, 0.00, 0.00, 0.00, 0.00, 0.00, 0.01, -0.18, 1.02
252, 0.00, 28486.56, 0.00, 0.00, 0.00, 0.00, 0.00, 0.00, 0.01, -0.18, 1.02
253, 0.00, 28503.12, 0.00, 0.00, 0.00, 0.00, 0.00, 0.00, 0.01, -0.18, 1.02
254, 0.00, 28483.45, 0.00, 0.00, 0.00, 0.00, 0.00, 0.00, 0.01, -0.18, 1.01
255, 0.00, 28474.65, 0.00, 0.00, 0.00, 0.00, 0.00, 0.00, 0.01, -0.18, 1.01
0, 0.00, 28486.47, 0.00, 0.00, 0.00, 0.00, 0.00, 0.00, 0.01, -0.18, 1.01
1, 0.00, 28487.32, 0.00, 0.00, 0.00, 0.00, 0.00, 0.00, 0.01, -0.18, 1.01
2, 0.00, 28464.45, 0.00, 0.00, 0.00, 0.00, 0.00, 0.00, 0.01, -0.18, 1.01
3, 0.00, 28470.71, 0.00, 0.00, 0.00, 0.00, 0.00, 0.00, 0.01, -0.19, 1.01
4, 0.00, 28492.30, 0.00, 0.00, 0.00, 0.00, 0.00, 0.00, 0.01, -0.19, 1.01
5, 0.00, 28494.52, 0.00, 0.00, 0.00, 0.00, 0.00, 0.00, 0.01, -0.19, 1.01
6, 0.00, 28485.80, 0.00, 0.00, 0.00, 0.00, 0.00, 0.00, 0.01, -0.19, 1.01
7, 0.00, 28476.05, 0.00, 0.00, 0.00, 0.00, 0.00, 0.00, 0.01, -0.19, 1.01
8, 0.00, 28473.60, 0.00, 0.00, 0.00, 0.00, 0.00, 0.00, 0.01, -0.19, 1.01
9, 0.00, 28490.29, 0.00, 0.00, 0.00, 0.00, 0.00, 0.00, 0.01, -0.19, 1.01
10, 0.00, 28490.45, 0.00, 0.00, 0.00, 0.00, 0.00, 0.00, 0.01, -0.19, 1.01
11, 0.00, 28496.73, 0.00, 0.00, 0.00, 0.00, 0.00, 0.00, 0.01, -0.19, 1.01
12, 0.00, 28496.15, 0.00, 0.00, 0.00, 0.00, 0.00, 0.00, 0.01, -0.19, 1.01
13, 0.00, 28502.03, 0.00, 0.00, 0.00, 0.00, 0.00, 0.00, 0.01, -0.18, 1.01
14, 0.00, 28499.75, 0.00, 0.00, 0.00, 0.00, 0.00, 0.00, 0.01, -0.18, 1.01
15, 0.00, 28482.00, 0.00, 0.00, 0.00, 0.00, 0.00, 0.00, 0.01, -0.18, 1.01
16, 0.00, 28488.30, 0.00, 0.00, 0.00, 0.00, 0.00, 0.00, 0.01, -0.18, 1.01
17, 0.00, 28496.75, 0.00, 0.00, 0.00, 0.00, 0.00, 0.00, 0.01, -0.18, 1.01
18, 0.00, 28490.07, 0.00, 0.00, 0.00, 0.00, 0.00, 0.00, 0.01, -0.19, 1.01
19, 0.00, 28475.63, 0.00, 0.00, 0.00, 0.00, 0.00, 0.00, 0.01, -0.19, 1.01
20, 0.00, 28488.15, 0.00, 0.00, 0.00, 0.00, 0.00, 0.00, 0.01, -0.19, 1.01
21, 0.00, 28505.13, 0.00, 0.00, 0.00, 0.00, 0.00, 0.00, 0.01, -0.19, 1.01
22, 0.00, 28522.52, 0.00, 0.00, 0.00, 0.00, 0.00, 0.00, 0.01, -0.19, 1.01
23, 0.00, 28538.21, 0.00, 0.00, 0.00, 0.00, 0.00, 0.00, 0.01, -0.19, 1.01
24, 0.00, 28526.37, 0.00, 0.00, 0.00, 0.00, 0.00, 0.00, 0.01, -0.19, 1.01
25, 0.00, 28505.71, 0.00, 0.00, 0.00, 0.00, 0.00, 0.00, 0.01, -0.19, 1.01
26, 0.00, 28502.54, 0.00, 0.00, 0.00, 0.00, 0.00, 0.00, 0.01, -0.19, 1.01
27, 0.00, 28516.91, 0.00, 0.00, 0.00, 0.00, 0.00, 0.00, 0.01, -0.19, 1.01
28, 0.00, 28524.13, 0.00, 0.00, 0.00, 0.00, 0.00, 0.00, 0.01, -0.18, 1.01
29, 0.00, 28522.70, 0.00, 0.00, 0.00, 0.00, 0.00, 0.00, 0.01, -0.18, 1.01
30, 0.00, 28539.44, 0.00, 0.00, 0.00, 0.00, 0.00, 0.00, 0.01, -0.18, 1.01
31, 0.00, 28538.84, 0.00, 0.00, 0.00, 0.00, 0.00, 0.00, 0.01, -0.18, 1.01
32, 0.00, 28542.91, 0.00, 0.00, 0.00, 0.00, 0.00, 0.00, 0.01, -0.18, 1.01
33, 0.00, 28533.30, 0.00, 0.00, 0.00, 0.00, 0.00, 0.00, 0.01, -0.19, 1.01
34, 0.00, 28529.97, 0.00, 0.00, 0.00, 0.00, 0.00, 0.00, 0.01, -0.19, 1.01
35, 0.00, 28535.33, 0.00, 0.00, 0.00, 0.00, 0.00, 0.00, 0.01, -0.19, 1.01
36, 0.00, 28533.92, 0.00, 0.00, 0.00, 0.00, 0.00, 0.00, 0.01, -0.19, 1.01
37, 0.00, 28542.26, 0.00, 0.00, 0.00, 0.00, 0.00, 0.00, 0.01, -0.19, 1.01
38, 0.00, 28542.48, 0.00, 0.00, 0.00, 0.00, 0.00, 0.00, 0.01, -0.18, 1.01
39, 0.00, 28533.81, 0.00, 0.00, 0.00, 0.00, 0.00, 0.00, 0.01, -0.18, 1.01
40, 0.00, 28532.16, 0.00, 0.00, 0.00, 0.00, 0.00, 0.00, 0.01, -0.18, 1.01
41, 0.00, 28534.77, 0.00, 0.00, 0.00, 0.00, 0.00, 0.00, 0.01, -0.18, 1.01
42, 0.00, 28546.87, 0.00, 0.00, 0.00, 0.00, 0.00, 0.00, 0.01, -0.18, 1.01
43, 0.00, 28550.75, 0.00, 0.00, 0.00, 0.00, 0.00, 0.00, 0.01, -0.18, 1.01
44, 0.00, 28541.01, 0.00, 0.00, 0.00, 0.00, 0.00, 0.00, 0.01, -0.18, 1.01
45, 0.00, 28534.84, 0.00, 0.00, 0.00, 0.00, 0.00, 0.00, 0.01, -0.18, 1.01
46, 0.00, 28571.63, 0.00, 0.00, 0.00, 0.00, 0.00, 0.00, 0.01, -0.18, 1.01
47, 0.00, 28571.36, 0.00, 0.00, 0.00, 0.00, 0.00, 0.00, 0.01, -0.18, 1.01
48, 0.00, 28559.78, 0.00, 0.00, 0.00, 0.00, 0.00, 0.00, 0.00, -0.18, 1.01
49, 0.00, 28564.84, 0.00, 0.00, 0.00, 0.00, 0.00, 0.00, 0.00, -0.18, 1.01
50, 0.00, 28569.95, 0.00, 0.00, 0.00, 0.00, 0.00, 0.00, 0.00, -0.18, 1.01
51, 0.00, 28560.23, 0.00, 0.00, 0.00, 0.00, 0.00, 0.00, 0.00, -0.18, 1.01
52, 0.00, 28558.35, 0.00, 0.00, 0.00, 0.00, 0.00, 0.00, 0.00, -0.18, 1.01
53, 0.00, 28560.41, 0.00, 0.00, 0.00, 0.00, 0.00, 0.00, 0.01, -0.18, 1.01
54, 0.00, 28567.47, 0.00, 0.00, 0.00, 0.00, 0.00, 0.00, 0.01, -0.18, 1.01
55, 0.00, 28585.69, 0.00, 0.00, 0.00, 0.00, 0.00, 0.00, 0.01, -0.18, 1.01
56, 0.00, 28582.05, 0.00, 0.00, 0.00, 0.00, 0.00, 0.00, 0.01, -0.18, 1.01
57, 0.00, 28575.61, 0.00, 0.00, 0.00, 0.00, 0.00, 0.00, 0.01, -0.18, 1.01
58, 0.00, 28580.33, 0.00, 0.00, 0.00, 0.00, 0.00, 0.00, 0.01, -0.18, 1.01
59, 0.00, 28580.24, 0.00, 0.00, 0.00, 0.00, 0.00, 0.00, 0.01, -0.18, 1.01
60, 0.00, 28581.15, 0.00, 0.00, 0.00, 0.00, 0.00, 0.00, 0.01, -0.18, 1.01
61, 0.00, 28585.78, 0.00, 0.00, 0.00, 0.00, 0.00, 0.00, 0.01, -0.18, 1.01
62, 0.00, 28591.93, 0.00, 0.00, 0.00, 0.00, 0.00, 0.00, 0.01, -0.18, 1.01
63, 0.00, 28596.02, 0.00, 0.00, 0.00, 0.00, 0.00, 0.00, 0.01, -0.18, 1.01
64, 0.00, 28589.62, 0.00, 0.00, 0.00, 0.00, 0.00, 0.00, 0.01, -0.18, 1.01
65, 0.00, 28589.42, 0.00, 0.00, 0.00, 0.00, 0.00, 0.00, 0.01, -0.18, 1.01
66, 0.00, 28586.54, 0.00, 0.00, 0.00, 0.00, 0.00, 0.00, 0.01, -0.18, 1.01
67, 0.00, 28590.70, 0.00, 0.00, 0.00, 0.00, 0.00, 0.00, 0.01, -0.18, 1.01
68, 0.00, 28599.71, 0.00, 0.00, 0.00, 0.00, 0.00, 0.00, 0.01, -0.19, 1.02
69, 0.00, 28598.43, 0.00, 0.00, 0.00, 0.00, 0.00, 0.00, 0.01, -0.19, 1.02
70, 0.00, 28584.46, 0.00, 0.00, 0.00, 0.00, 0.00, 0.00, 0.01, -0.19, 1.02
71, 0.00, 28592.26, 0.00, 0.00, 0.00, 0.00, 0.00, 0.00, 0.01, -0.19, 1.02
72, 0.00, 28594.68, 0.00, 0.00, 0.00, 0.00, 0.00, 0.00, 0.01, -0.19, 1.02
73, 0.00, 28591.30, 0.00, 0.00, 0.00, 0.00, 0.00, 0.00, 0.01, -0.19, 1.02
74, 0.00, 28591.14, 0.00, 0.00, 0.00, 0.00, 0.00, 0.00, 0.01, -0.19, 1.02
75, 0.00, 28610.88, 0.00, 0.00, 0.00, 0.00, 0.00, 0.00, 0.01, -0.19, 1.02
76, 0.00, 28604.33, 0.00, 0.00, 0.00, 0.00, 0.00, 0.00, 0.01, -0.19, 1.02
77, 0.00, 28593.67, 0.00, 0.00, 0.00, 0.00, 0.00, 0.00, 0.01, -0.19, 1.02
78, 0.00, 28595.44, 0.00, 0.00, 0.00, 0.00, 0.00, 0.00, 0.00, -0.19, 1.02
79, 0.00, 28606.57, 0.00, 0.00, 0.00, 0.00, 0.00, 0.00, 0.00, -0.19, 1.02
80, 0.00, 28602.36, 0.00, 0.00, 0.00, 0.00, 0.00, 0.00, 0.00, -0.19, 1.02
81, 0.00, 28588.48, 0.00, 0.00, 0.00, 0.00, 0.00, 0.00, 0.00, -0.19, 1.02
82, 0.00, 28602.92, 0.00, 0.00, 0.00, 0.00, 0.00, 0.00, 0.00, -0.19, 1.02
83, 0.00, 28606.50, 0.00, 0.00, 0.00, 0.00, 0.00, 0.00, 0.00, -0.18, 1.02
84, 0.00, 28602.92, 0.00, 0.00, 0.00, 0.00, 0.00, 0.00, 0.00, -0.18, 1.02
85, 0.00, 28603.97, 0.00, 0.00, 0.00, 0.00, 0.00, 0.00, 0.00, -0.18, 1.02
86, 0.00, 28590.52, 0.00, 0.00, 0.00, 0.00, 0.00, 0.00, 0.00, -0.18, 1.02
87, 0.00, 28608.02, 0.00, 0.00, 0.00, 0.00, 0.00, 0.00, 0.00, -0.18, 1.02
88, 0.00, 28623.06, 0.00, 0.00, 0.00, 0.00, 0.00, 0.00, 0.00, -0.18, 1.02
89, 0.00, 28603.37, 0.00, 0.00, 0.00, 0.00, 0.00, 0.00, 0.00, -0.19, 1.02
90, 0.00, 28612.00, 0.00, 0.00, 0.00, 0.00, 0.00, 0.00, 0.00, -0.19, 1.02
91, 0.00, 28621.83, 0.00, 0.00, 0.00, 0.00, 0.00, 0.00, 0.00, -0.19, 1.02
92, 0.00, 28613.65, 0.00, 0.00, 0.00, 0.00, 0.00, 0.00, 0.00, -0.19, 1.02
93, 0.00, 28608.31, 0.00, 0.00, 0.00, 0.00, 0.00, 0.00, 0.00, -0.19, 1.02
94, 0.00, 28611.37, 0.00, 0.00, 0.00, 0.00, 0.00, 0.00, 0.00, -0.19, 1.01
95, 0.00, 28616.83, 0.00, 0.00, 0.00, 0.00, 0.00, 0.00, 0.00, -0.19, 1.01
96, 0.00, 28621.72, 0.00, 0.00, 0.00, 0.00, 0.00, 0.00, 0.00, -0.19, 1.01
97, 0.00, 28627.40, 0.00, 0.00, 0.00, 0.00, 0.00, 0.00, 0.00, -0.19, 1.01
98, 0.00, 28623.84, 0.00, 0.00, 0.00, 0.00, 0.00, 0.00, 0.00, -0.19, 1.01
99, 0.00, 28636.52, 0.00, 0.00, 0.00, 0.00, 0.00, 0.00, 0.01, -0.19, 1.02
100, 0.00, 28637.81, 0.00, 0.00, 0.00, 0.00, 0.00, 0.00, 0.01, -0.19, 1.02
101, 0.00, 28622.91, 0.00, 0.00, 0.00, 0.00, 0.00, 0.00, 0.01, -0.19, 1.02
102, 0.00, 28634.01, 0.00, 0.00, 0.00, 0.00, 0.00, 0.00, 0.01, -0.19, 1.02
103, 0.00, 28628.38, 0.00, 0.00, 0.00, 0.00, 0.00, 0.00, 0.01, -0.19, 1.02
104, 0.00, 28637.97, 0.00, 0.00, 0.00, 0.00, 0.00, 0.00, 0.01, -0.18, 1.01
105, 0.00, 28633.77, 0.00, 0.00, 0.00, 0.00, 0.00, 0.00, 0.01, -0.18, 1.01
106, 0.00, 28646.69, 0.00, 0.00, 0.00, 0.00, 0.00, 0.00, 0.01, -0.18, 1.01
107, 0.00, 28649.21, 0.00, 0.00, 0.00, 0.00, 0.00, 0.00, 0.01, -0.18, 1.01
108, 0.00, 28655.25, 0.00, 0.00, 0.00, 0.00, 0.00, 0.00, 0.01, -0.18, 1.01
109, 0.00, 28650.33, 0.00, 0.00, 0.00, 0.00, 0.00, 0.00, 0.01, -0.19, 1.01
110, 0.00, 28622.99, 0.00, 0.00, 0.00, 0.00, 0.00, 0.00, 0.01, -0.19, 1.01
111, 0.00, 28628.67, 0.00, 0.00, 0.00, 0.00, 0.00, 0.00, 0.01, -0.19, 1.01
112, 0.00, 28646.87, 0.00, 0.00, 0.00, 0.00, 0.00, 0.00, 0.01, -0.19, 1.01
113, 0.00, 28658.45, 0.00, 0.00, 0.00, 0.00, 0.00, 0.00, 0.01, -0.19, 1.01
114, 0.00, 28660.39, 0.00, 0.00, 0.00, 0.00, 0.00, 0.00, 0.01, -0.18, 1.02
115, 0.00, 28656.57, 0.00, 0.00, 0.00, 0.00, 0.00, 0.00, 0.01, -0.18, 1.02
116, 0.00, 28647.71, 0.00, 0.00, 0.00, 0.00, 0.00, 0.00, 0.01, -0.18, 1.02
117, 0.00, 28662.45, 0.00, 0.00, 0.00, 0.00, 0.00, 0.00, 0.01, -0.18, 1.02
118, 0.00, 28660.48, 0.00, 0.00, 0.00, 0.00, 0.00, 0.00, 0.01, -0.18, 1.02
119, 0.00, 28654.44, 0.00, 0.00, 0.00, 0.00, 0.00, 0.00, 0.01, -0.18, 1.02
120, 0.00, 28653.50, 0.00, 0.00, 0.00, 0.00, 0.00, 0.00, 0.01, -0.18, 1.02
121, 0.00, 28665.89, 0.00, 0.00, 0.00, 0.00, 0.00, 0.00, 0.01, -0.18, 1.02
122, 0.00, 28667.83, 0.00, 0.00, 0.00, 0.00, 0.00, 0.00, 0.01, -0.18, 1.02
123, 0.00, 28668.70, 0.00, 0.00, 0.00, 0.00, 0.00, 0.00, 0.01, -0.18, 1.02
124, 0.00, 28672.10, 0.00, 0.00, 0.00, 0.00, 0.00, 0.00, 0.01, -0.18, 1.01
125, 0.00, 28672.10, 0.00, 0.00, 0.00, 0.00, 0.00, 0.00, 0.01, -0.18, 1.01
126, 0.00, 28682.09, 0.00, 0.00, 0.00, 0.00, 0.00, 0.00, 0.01, -0.18, 1.01
127, 0.00, 28656.01, 0.00, 0.00, 0.00, 0.00, 0.00, 0.00, 0.01, -0.18, 1.01
128, 0.00, 28655.74, 0.00, 0.00, 0.00, 0.00, 0.00, 0.00, 0.01, -0.18, 1.01
129, 0.00, 28683.57, 0.00, 0.00, 0.00, 0.00, 0.00, 0.00, 0.01, -0.19, 1.02
130, 0.00, 28681.76, 0.00, 0.00, 0.00, 0.00, 0.00, 0.00, 0.01, -0.19, 1.02
131, 0.00, 28670.27, 0.00, 0.00, 0.00, 0.00, 0.00, 0.00, 0.01, -0.19, 1.02
132, 0.00, 28655.56, 0.00, 0.00, 0.00, 0.00, 0.00, 0.00, 0.01, -0.19, 1.02
133, 0.00, 28666.11, 0.00, 0.00, 0.00, 0.00, 0.00, 0.00, 0.01, -0.19, 1.02
134, 0.00, 28687.28, 0.00, 0.00, 0.00, 0.00, 0.00, 0.00, 0.01, -0.19, 1.01
135, 0.00, 28671.23, 0.00, 0.00, 0.00, 0.00, 0.00, 0.00, 0.01, -0.19, 1.01
136, 0.00, 28664.37, 0.00, 0.00, 0.00, 0.00, 0.00, 0.00, 0.01, -0.19, 1.01
137, 0.00, 28677.47, 0.00, 0.00, 0.00, 0.00, 0.00, 0.00, 0.01, -0.19, 1.01
138, 0.00, 28687.41, 0.00, 0.00, 0.00, 0.00, 0.00, 0.00, 0.01, -0.19, 1.01
139, 0.00, 28678.18, 0.00, 0.00, 0.00, 0.00, 0.00, 0.00, 0.01, -0.19, 1.01
140, 0.00, 28670.78, 0.00, 0.00, 0.00, 0.00, 0.00, 0.00, 0.01, -0.19, 1.01
141, 0.00, 28683.61, 0.00, 0.00, 0.00, 0.00, 0.00, 0.00, 0.01, -0.19, 1.01
142, 0.00, 28682.76, 0.00, 0.00, 0.00, 0.00, 0.00, 0.00, 0.01, -0.19, 1.01
143, 0.00, 28672.19, 0.00, 0.00, 0.00, 0.00, 0.00, 0.00, 0.01, -0.19, 1.01
144, 0.00, 28675.72, 0.00, 0.00, 0.00, 0.00, 0.00, 0.00, 0.01, -0.19, 1.01
145, 0.00, 28676.91, 0.00, 0.00, 0.00, 0.00, 0.00, 0.00, 0.01, -0.19, 1.01
146, 0.00, 28684.62, 0.00, 0.00, 0.00, 0.00, 0.00, 0.00, 0.01, -0.19, 1.01
147, 0.00, 28686.72, 0.00, 0.00, 0.00, 0.00, 0.00, 0.00, 0.01, -0.19, 1.01
148, 0.00, 28692.17, 0.00, 0.00, 0.00, 0.00, 0.00, 0.00, 0.01, -0.19, 1.01
149, 0.00, 28678.45, 0.00, 0.00, 0.00, 0.00, 0.00, 0.00, 0.01, -0.19, 1.02
150, 0.00, 28689.56, 0.00, 0.00, 0.00, 0.00, 0.00, 0.00, 0.01, -0.19, 1.02
151, 0.00, 28693.94, 0.00, 0.00, 0.00, 0.00, 0.00, 0.00, 0.01, -0.19, 1.02
152, 0.00, 28687.70, 0.00, 0.00, 0.00, 0.00, 0.00, 0.00, 0.01, -0.19, 1.02
153, 0.00, 28675.01, 0.00, 0.00, 0.00, 0.00, 0.00, 0.00, 0.01, -0.19, 1.02
154, 0.00, 28665.17, 0.00, 0.00, 0.00, 0.00, 0.00, 0.00, 0.01, -0.19, 1.01
155, 0.00, 28683.57, 0.00, 0.00, 0.00, 0.00, 0.00, 0.00, 0.01, -0.19, 1.01
156, 0.00, 28697.74, 0.00, 0.00, 0.00, 0.00, 0.00, 0.00, 0.01, -0.19, 1.01
157, 0.00, 28697.25, 0.00, 0.00, 0.00, 0.00, 0.00, 0.00, 0.01, -0.19, 1.01
158, 0.00, 28699.26, 0.00, 0.00, 0.00, 0.00, 0.00, 0.00, 0.01, -0.19, 1.01
159, 0.00, 28710.81, 0.00, 0.00, 0.00, 0.00, 0.00, 0.00, 0.01, -0.19, 1.01
160, 0.00, 28704.91, 0.00, 0.00, 0.00, 0.00, 0.00, 0.00, 0.01, -0.19, 1.01
161, 0.00, 28699.82, 0.00, 0.00, 0.00, 0.00, 0.00, 0.00, 0.01, -0.19, 1.01
162, 0.00, 28702.41, 0.00, 0.00, 0.00, 0.00, 0.00, 0.00, 0.01, -0.19, 1.01
163, 0.00, 28709.96, 0.00, 0.00, 0.00, 0.00, 0.00, 0.00, 0.01, -0.19, 1.01
164, 0.00, 28700.02, 0.00, 0.00, 0.00, 0.00, 0.00, 0.00, 0.01, -0.19, 1.01
165, 0.00, 28713.27, 0.00, 0.00, 0.00, 0.00, 0.00, 0.00, 0.01, -0.19, 1.01
166, 0.00, 28729.97, 0.00, 0.00, 0.00, 0.00, 0.00, 0.00, 0.01, -0.19, 1.01
167, 0.00, 28722.66, 0.00, 0.00, 0.00, 0.00, 0.00, 0.00, 0.01, -0.19, 1.01
168, 0.00, 28721.12, 0.00, 0.00, 0.00, 0.00, 0.00, 0.00, 0.01, -0.19, 1.01
169, 0.00, 28711.96, 0.00, 0.00, 0.00, 0.00, 0.00, 0.00, 0.01, -0.18, 1.02
170, 0.00, 28706.99, 0.00, 0.00, 0.00, 0.00, 0.00, 0.00, 0.01, -0.18, 1.02
171, 0.00, 28720.34, 0.00, 0.00, 0.00, 0.00, 0.00, 0.00, 0.01, -0.18, 1.02
172, 0.00, 28718.55, 0.00, 0.00, 0.00, 0.00, 0.00, 0.00, 0.01, -0.18, 1.02
173, 0.00, 28686.14, 0.00, 0.00, 0.00, 0.00, 0.00, 0.00, 0.01, -0.18, 1.02
174, 0.00, 28713.61, 0.00, 0.00, 0.00, 0.00, 0.00, 0.00, 0.01, -0.18, 1.02
175, 0.00, 28736.72, 0.00, 0.00, 0.00, 0.00, 0.00, 0.00, 0.01, -0.18, 1.02
176, 0.00, 28739.49, 0.00, 0.00, 0.00, 0.00, 0.00, 0.00, 0.01, -0.18, 1.02
177, 0.00, 28730.84, 0.00, 0.00, 0.00, 0.00, 0.00, 0.00, 0.01, -0.18, 1.02
178, 0.00, 28721.12, 0.00, 0.00, 0.00, 0.00, 0.00, 0.00, 0.01, -0.18, 1.02
179, 0.00, 28724.40, 0.00, 0.00, 0.00, 0.00, 0.00, 0.00, 0.01, -0.18, 1.02
180, 0.00, 28735.51, 0.00, 0.00, 0.00, 0.00, 0.00, 0.00, 0.01, -0.18, 1.02
181, 0.00, 28737.32, 0.00, 0.00, 0.00, 0.00, 0.00, 0.00, 0.01, -0.18, 1.02
182, 0.00, 28728.38, 0.00, 0.00, 0.00, 0.00, 0.00, 0.00, 0.01, -0.18, 1.02
183, 0.00, 28728.45, 0.00, 0.00, 0.00, 0.00, 0.00, 0.00, 0.01, -0.18, 1.02
184, 0.00, 28729.10, 0.00, 0.00, 0.00, 0.00, 0.00, 0.00, 0.01, -0.18, 1.01
185, 0.00, 28728.05, 0.00, 0.00, 0.00, 0.00, 0.00, 0.00, 0.01, -0.18, 1.01
186, 0.00, 28723.78, 0.00, 0.00, 0.00, 0.00, 0.00, 0.00, 0.01, -0.18, 1.01
187, 0.00, 28735.22, 0.00, 0.00, 0.00, 0.00, 0.00, 0.00, 0.01, -0.18, 1.01
188, 0.00, 28740.95, 0.00, 0.00, 0.00, 0.00, 0.00, 0.00, 0.01, -0.18, 1.01
189, 0.00, 28759.29, 0.00, 0.00, 0.00, 0.00, 0.00, 0.00, 0.01, -0.19, 1.02
190, 0.00, 28744.41, 0.00, 0.00, 0.00, 0.00, 0.00, 0.00, 0.01, -0.19, 1.02
191, 0.00, 28745.62, 0.00, 0.00, 0.00, 0.00, 0.00, 0.00, 0.01, -0.19, 1.02
192, 0.00, 28751.76, 0.00, 0.00, 0.00, 0.00, 0.00, 0.00, 0.01, -0.19, 1.02
193, 0.00, 28757.53, 0.00, 0.00, 0.00, 0.00, 0.00, 0.00, 0.01, -0.19, 1.02
194, 0.00, 28743.58, 0.00, 0.00, 0.00, 0.00, 0.00, 0.00, 0.02, -0.19, 1.01
195, 0.00, 28736.25, 0.00, 0.00, 0.00, 0.00, 0.00, 0.00, 0.02, -0.19, 1.01
196, 0.00, 28752.50, 0.00, 0.00, 0.00, 0.00, 0.00, 0.00, 0.02, -0.19, 1.01
197, 0.00, 28767.68, 0.00, 0.00, 0.00, 0.00, 0.00, 0.00, 0.02, -0.19, 1.01
198, 0.00, 28760.86, 0.00, 0.00, 0.00, 0.00, 0.00, 0.00, 0.02, -0.19, 1.01
199, 0.00, 28756.05, 0.00, 0.00, 0.00, 0.00, 0.00, 0.00, 0.01, -0.19, 1.01
200, 0.00, 28759.63, 0.00, 0.00, 0.00, 0.00, 0.00, 0.00, 0.01, -0.19, 1.01
201, 0.00, 28765.40, 0.00, 0.00, 0.00, 0.00, 0.00, 0.00, 0.01, -0.19, 1.01
202, 0.00, 28743.87, 0.00, 0.00, 0.00, 0.00, 0.00, 0.00, 0.01, -0.19, 1.01
203, 0.00, 28759.38, 0.00, 0.00, 0.00, 0.00, 0.00, 0.00, 0.01, -0.19, 1.01
204, 0.00, 28761.64, 0.00, 0.00, 0.00, 0.00, 0.00, 0.00, 0.01, -0.19, 1.01
205, 0.00, 28767.23, 0.00, 0.00, 0.00, 0.00, 0.00, 0.00, 0.01, -0.19, 1.01
206, 0.00, 28763.07, 0.00, 0.00, 0.00, 0.00, 0.00, 0.00, 0.01, -0.19, 1.01
207, 0.00, 28759.41, 0.00, 0.00, 0.00, 0.00, 0.00, 0.00, 0.01, -0.19, 1.01
208, 0.00, 28767.68, 0.00, 0.00, 0.00, 0.00, 0.00, 0.00, 0.01, -0.19, 1.01
209, 0.00, 28778.27, 0.00, 0.00, 0.00, 0.00, 0.00, 0.00, 0.01, -0.18, 1.01
210, 0.00, 28769.15, 0.00, 0.00, 0.00, 0.00, 0.00, 0.00, 0.01, -0.18, 1.01
211, 0.00, 28756.59, 0.00, 0.00, 0.00, 0.00, 0.00, 0.00, 0.01, -0.18, 1.01
212, 0.00, 28765.11, 0.00, 0.00, 0.00, 0.00, 0.00, 0.00, 0.01, -0.18, 1.01
213, 0.00, 28770.29, 0.00, 0.00, 0.00, 0.00, 0.00, 0.00, 0.01, -0.18, 1.01
214, 0.00, 28769.78, 0.00, 0.00, 0.00, 0.00, 0.00, 0.00, 0.01, -0.19, 1.01
215, 0.00, 28794.07, 0.00, 0.00, 0.00, 0.00, 0.00, 0.00, 0.01, -0.19, 1.01
216, 0.00, 28795.26, 0.00, 0.00, 0.00, 0.00, 0.00, 0.00, 0.01, -0.19, 1.01
217, 0.00, 28780.80, 0.00, 0.00, 0.00, 0.00, 0.00, 0.00, 0.01, -0.19, 1.01
218, 0.00, 28773.87, 0.00, 0.00, 0.00, 0.00, 0.00, 0.00, 0.01, -0.19, 1.01
219, 0.00, 28767.50, 0.00, 0.00, 0.00, 0.00, 0.00, 0.00, 0.01, -0.18, 1.00
220, 0.00, 28740.61, 0.00, 0.00, 0.00, 0.00, 0.00, 0.00, 0.01, -0.18, 1.00
221, 0.00, 28748.72, 0.00, 0.00, 0.00, 0.00, 0.00, 0.00, 0.01, -0.18, 1.00
222, 0.00, 28752.19, 0.00, 0.00, 0.00, 0.00, 0.00, 0.00, 0.01, -0.18, 1.00
223, 0.00, 28714.70, 0.00, 0.00, 0.00, 0.00, 0.00, 0.00, 0.01, -0.18, 1.00
224, 0.00, 28734.35, 0.00, 0.00, 0.00, 0.00, 0.00, 0.00, 0.01, -0.18, 1.01
225, 0.00, 28733.19, 0.00, 0.00, 0.00, 0.00, 0.00, 0.00, 0.01, -0.18, 1.01
226, 0.00, 28733.66, 0.00, 0.00, 0.00, 0.00, 0.00, 0.00, 0.01, -0.18, 1.01
227, 0.00, 28718.24, 0.00, 0.00, 0.00, 0.00, 0.00, 0.00, 0.01, -0.18, 1.01
228, 0.00, 28723.00, 0.00, 0.00, 0.00, 0.00, 0.00, 0.00, 0.01, -0.18, 1.01
229, 0.00, 28748.25, 0.00, 0.00, 0.00, 0.00, 0.00, 0.00, 0.01, -0.18, 1.01
230, 0.00, 28750.36, 0.00, 0.00, 0.00, 0.00, 0.00, 0.00, 0.01, -0.18, 1.01
231, 0.00, 28748.70, 0.00, 0.00, 0.00, 0.00, 0.00, 0.00, 0.01, -0.18, 1.01
232, 0.00, 28737.95, 0.00, 0.00, 0.00, 0.00, 0.00, 0.00, 0.01, -0.18, 1.01
233, 0.00, 28750.85, 0.00, 0.00, 0.00, 0.00, 0.00, 0.00, 0.01, -0.18, 1.01
234, 0.00, 28756.08, 0.00, 0.00, 0.00, 0.00, 0.00, 0.00, 0.00, -0.19, 1.00
235, 0.00, 28757.80, 0.00, 0.00, 0.00, 0.00, 0.00, 0.00, 0.00, -0.19, 1.00
236, 0.00, 28754.40, 0.00, 0.00, 0.00, 0.00, 0.00, 0.00, 0.00, -0.19, 1.00
237, 0.00, 28743.11, 0.00, 0.00, 0.00, 0.00, 0.00, 0.00, 0.00, -0.19, 1.00
238, 0.00, 28770.54, 0.00, 0.00, 0.00, 0.00, 0.00, 0.00, 0.00, -0.19, 1.00
239, 0.00, 28775.28, 0.00, 0.00, 0.00, 0.00, 0.00, 0.00, 0.00, -0.19, 1.01
240, 0.00, 28765.08, 0.00, 0.00, 0.00, 0.00, 0.00, 0.00, 0.00, -0.19, 1.01
241, 0.00, 28766.89, 0.00, 0.00, 0.00, 0.00, 0.00, 0.00, 0.00, -0.19, 1.01
242, 0.00, 28781.07, 0.00, 0.00, 0.00, 0.00, 0.00, 0.00, 0.00, -0.19, 1.01
243, 0.00, 28781.33, 0.00, 0.00, 0.00, 0.00, 0.00, 0.00, 0.00, -0.19, 1.01
244, 0.00, 28774.05, 0.00, 0.00, 0.00, 0.00, 0.00, 0.00, 0.01, -0.18, 1.01
245, 0.00, 28766.67, 0.00, 0.00, 0.00, 0.00, 0.00, 0.00, 0.01, -0.18, 1.01
246, 0.00, 28771.97, 0.00, 0.00, 0.00, 0.00, 0.00, 0.00, 0.01, -0.18, 1.01
247, 0.00, 28787.64, 0.00, 0.00, 0.00, 0.00, 0.00, 0.00, 0.01, -0.18, 1.01
248, 0.00, 28783.57, 0.00, 0.00, 0.00, 0.00, 0.00, 0.00, 0.01, -0.18, 1.01
249, 0.00, 28788.26, 0.00, 0.00, 0.00, 0.00, 0.00, 0.00, 0.01, -0.19, 1.01
250, 0.00, 28795.37, 0.00, 0.00, 0.00, 0.00, 0.00, 0.00, 0.01, -0.19, 1.01
251, 0.00, 28806.68, 0.00, 0.00, 0.00, 0.00, 0.00, 0.00, 0.01, -0.19, 1.01
252, 0.00, 28793.58, 0.00, 0.00, 0.00, 0.00, 0.00, 0.00, 0.01, -0.19, 1.01
253, 0.00, 28795.73, 0.00, 0.00, 0.00, 0.00, 0.00, 0.00, 0.01, -0.19, 1.01
254, 0.00, 28801.92, 0.00, 0.00, 0.00, 0.00, 0.00, 0.00, 0.00, -0.18, 1.01
255, 0.00, 28797.49, 0.00, 0.00, 0.00, 0.00, 0.00, 0.00, 0.00, -0.18, 1.01
0, 0.00, 28790.52, 0.00, 0.00, 0.00, 0.00, 0.00, 0.00, 0.00, -0.18, 1.01
1, 0.00, 28797.23, 0.00, 0.00, 0.00, 0.00, 0.00, 0.00, 0.00, -0.18, 1.01
2, 0.00, 28793.92, 0.00, 0.00, 0.00, 0.00, 0.00, 0.00, 0.00, -0.18, 1.01
3, 0.00, 28805.34, 0.00, 0.00, 0.00, 0.00, 0.00, 0.00, 0.00, -0.19, 1.01
4, 0.00, 28810.97, 0.00, 0.00, 0.00, 0.00, 0.00, 0.00, 0.00, -0.19, 1.01
5, 0.00, 28801.99, 0.00, 0.00, 0.00, 0.00, 0.00, 0.00, 0.00, -0.19, 1.01
6, 0.00, 28804.98, 0.00, 0.00, 0.00, 0.00, 0.00, 0.00, 0.00, -0.19, 1.01
7, 0.00, 28813.25, 0.00, 0.00, 0.00, 0.00, 0.00, 0.00, 0.00, -0.19, 1.01
8, 0.00, 28811.31, 0.00, 0.00, 0.00, 0.00, 0.00, 0.00, 0.00, -0.19, 1.02
9, 0.00, 28807.78, 0.00, 0.00, 0.00, 0.00, 0.00, 0.00, 0.00, -0.19, 1.02
10, 0.00, 28789.65, 0.00, 0.00, 0.00, 0.00, 0.00, 0.00, 0.00, -0.19, 1.02
11, 0.00, 28796.71, 0.00, 0.00, 0.00, 0.00, 0.00, 0.00, 0.00, -0.19, 1.02
12, 0.00, 28814.93, 0.00, 0.00, 0.00, 0.00, 0.00, 0.00, 0.00, -0.19, 1.02
13, 0.00, 28818.73, 0.00, 0.00, 0.00, 0.00, 0.00, 0.00, 0.01, -0.19, 1.01
14, 0.00, 28795.17, 0.00, 0.00, 0.00, 0.00, 0.00, 0.00, 0.01, -0.19, 1.01
15, 0.00, 28796.36, 0.00, 0.00, 0.00, 0.00, 0.00, 0.00, 0.01, -0.19, 1.01
16, 0.00, 28823.69, 0.00, 0.00, 0.00, 0.00, 0.00, 0.00, 0.01, -0.19, 1.01
17, 0.00, 28826.91, 0.00, 0.00, 0.00, 0.00, 0.00, 0.00, 0.01, -0.19, 1.01
18, 0.00, 28817.97, 0.00, 0.00, 0.00, 0.00, 0.00, 0.00, 0.01, -0.19, 1.01
19, 0.00, 28821.90, 0.00, 0.00, 0.00, 0.00, 0.00, 0.00, 0.01, -0.18, 1.02
20, 0.00, 28823.69, 0.00, 0.00, 0.00, 0.00, 0.00, 0.00, 0.01, -0.18, 1.02
21, 0.00, 28818.24, 0.00, 0.00, 0.00, 0.00, 0.00, 0.00, 0.01, -0.18, 1.02
22, 0.00, 28826.98, 0.00, 0.00, 0.00, 0.00, 0.00, 0.00, 0.01, -0.18, 1.02
23, 0.00, 28840.41, 0.00, 0.00, 0.00, 0.00, 0.00, 0.00, 0.01, -0.18, 1.02
24, 0.00, 28835.45, 0.00, 0.00, 0.00, 0.00, 0.00, 0.00, 0.00, -0.18, 1.01
25, 0.00, 28829.93, 0.00, 0.00, 0.00, 0.00, 0.00, 0.00, 0.00, -0.18, 1.01
26, 0.00, 28833.44, 0.00, 0.00, 0.00, 0.00, 0.00, 0.00, 0.00, -0.18, 1.01
27, 0.00, 28841.44, 0.00, 0.00, 0.00, 0.00, 0.00, 0.00, 0.00, -0.18, 1.01
28, 0.00, 28847.70, 0.00, 0.00, 0.00, 0.00, 0.00, 0.00, 0.00, -0.18, 1.01
29, 0.00, 28835.83, 0.00, 0.00, 0.00, 0.00, 0.00, 0.00, 0.01, -0.18, 1.02
30, 0.00, 28835.45, 0.00, 0.00, 0.00, 0.00, 0.00, 0.00, 0.01, -0.18, 1.02
31, 0.00, 28854.63, 0.00, 0.00, 0.00, 0.00, 0.00, 0.00, 0.01, -0.18, 1.02
32, 0.00, 28862.79, 0.00, 0.00, 0.00, 0.00, 0.00, 0.00, 0.01, -0.18, 1.02
33, 0.00, 28844.12, 0.00, 0.00, 0.00, 0.00, 0.00, 0.00, 0.01, -0.18, 1.02
34, 0.00, 28849.31, 0.00, 0.00, 0.00, 0.00, 0.00, 0.00, 0.00, -0.19, 1.02
35, 0.00, 28856.30, 0.00, 0.00, 0.00, 0.00, 0.00, 0.00, 0.00, -0.19, 1.02
36, 0.00, 28862.47, 0.00, 0.00, 0.00, 0.00, 0.00, 0.00, 0.00, -0.19, 1.02
37, 0.00, 28863.21, 0.00, 0.00, 0.00, 0.00, 0.00, 0.00, 0.00, -0.19, 1.02
38, 0.00, 28867.23, 0.00, 0.00, 0.00, 0.00, 0.00, 0.00, 0.00, -0.19, 1.02
39, 0.00, 28855.68, 0.00, 0.00, 0.00, 0.00, 0.00, 0.00, 0.00, -0.18, 1.01
40, 0.00, 28874.00, 0.00, 0.00, 0.00, 0.00, 0.00, 0.00, 0.00, -0.18, 1.01
41, 0.00, 28878.68, 0.00, 0.00, 0.00, 0.00, 0.00, 0.00, 0.00, -0.18, 1.01
42, 0.00, 28882.50, 0.00, 0.00, 0.00, 0.00, 0.00, 0.00, 0.00, -0.18, 1.01
43, 0.00, 28878.92, 0.00, 0.00, 0.00, 0.00, 0.00, 0.00, 0.00, -0.18, 1.01
44, 0.00, 28866.54, 0.00, 0.00, 0.00, 0.00, 0.00, 0.00, 0.00, -0.19, 1.00
45, 0.00, 28881.56, 0.00, 0.00, 0.00, 0.00, 0.00, 0.00, 0.00, -0.19, 1.00
46, 0.00, 28879.66, 0.00, 0.00, 0.00, 0.00, 0.00, 0.00, 0.00, -0.19, 1.00
47, 0.00, 28860.59, 0.00, 0.00, 0.00, 0.00, 0.00, 0.00, 0.00, -0.19, 1.00
48, 0.00, 28867.63, 0.00, 0.00, 0.00, 0.00, 0.00, 0.00, 0.00, -0.19, 1.00
49, 0.00, 28906.13, 0.00, 0.00, 0.00, 0.00, 0.00, 0.00, 0.01, -0.18, 1.00
50, 0.00, 28895.73, 0.00, 0.00, 0.00, 0.00, 0.00, 0.00, 0.01, -0.18, 1.00
51, 0.00, 28883.57, 0.00, 0.00, 0.00, 0.00, 0.00, 0.00, 0.01, -0.18, 1.00
52, 0.00, 28887.15, 0.00, 0.00, 0.00, 0.00, 0.00, 0.00, 0.01, -0.18, 1.00
53, 0.00, 28871.46, 0.00, 0.00, 0.00, 0.00, 0.00, 0.00, 0.01, -0.18, 1.00
54, 0.00, 28882.37, 0.00, 0.00, 0.00, 0.00, 0.00, 0.00, 0.02, -0.18, 1.01
55, 0.00, 28886.23, 0.00, 0.00, 0.00, 0.00, 0.00, 0.00, 0.02, -0.18, 1.01
56, 0.00, 28869.87, 0.00, 0.00, 0.00, 0.00, 0.00, 0.00, 0.02, -0.18, 1.01
57, 0.00, 28891.78, 0.00, 0.00, 0.00, 0.00, 0.00, 0.00, 0.02, -0.18, 1.01
58, 0.00, 28906.30, 0.00, 0.00, 0.00, 0.00, 0.00, 0.00, 0.02, -0.18, 1.01
59, 0.00, 28901.63, 0.00, 0.00, 0.00, 0.00, 0.00, 0.00, 0.01, -0.18, 1.01
60, 0.00, 28897.43, 0.00, 0.00, 0.00, 0.00, 0.00, 0.00, 0.01, -0.18, 1.01
61, 0.00, 28900.27, 0.00, 0.00, 0.00, 0.00, 0.00, 0.00, 0.01, -0.18, 1.01
62, 0.00, 28891.28, 0.00, 0.00, 0.00, 0.00, 0.00, 0.00, 0.01, -0.18, 1.01
63, 0.00, 28885.18, 0.00, 0.00, 0.00, 0.00, 0.00, 0.00, 0.01, -0.18, 1.01
64, 0.00, 28904.96, 0.00, 0.00, 0.00, 0.00, 0.00, 0.00, 0.02, -0.18, 1.02
65, 0.00, 28906.37, 0.00, 0.00, 0.00, 0.00, 0.00, 0.00, 0.02, -0.18, 1.02
66, 0.00, 28918.82, 0.00, 0.00, 0.00, 0.00, 0.00, 0.00, 0.02, -0.18, 1.02
67, 0.00, 28917.46, 0.00, 0.00, 0.00, 0.00, 0.00, 0.00, 0.02, -0.18, 1.02
68, 0.00, 28903.51, 0.00, 0.00, 0.00, 0.00, 0.00, 0.00, 0.02, -0.18, 1.02
69, 0.00, 28911.18, 0.00, 0.00, 0.00, 0.00, 0.00, 0.00, 0.01, -0.18, 1.02
70, 0.00, 28907.78, 0.00, 0.00, 0.00, 0.00, 0.00, 0.00, 0.01, -0.18, 1.02
71, 0.00, 28918.75, 0.00, 0.00, 0.00, 0.00, 0.00, 0.00, 0.01, -0.18, 1.02
72, 0.00, 28927.27, 0.00, 0.00, 0.00, 0.00, 0.00, 0.00, 0.01, -0.18, 1.02
73, 0.00, 28926.08, 0.00, 0.00, 0.00, 0.00, 0.00, 0.00, 0.01, -0.18, 1.02
74, 0.00, 28921.77, 0.00, 0.00, 0.00, 0.00, 0.00, 0.00, 0.01, -0.18, 1.02
75, 0.00, 28924.81, 0.00, 0.00, 0.00, 0.00, 0.00, 0.00, 0.01, -0.18, 1.02
76, 0.00, 28927.09, 0.00, 0.00, 0.00, 0.00, 0.00, 0.00, 0.01, -0.18, 1.02
77, 0.00, 28920.45, 0.00, 0.00, 0.00, 0.00, 0.00, 0.00, 0.01, -0.18, 1.02
78, 0.00, 28924.45, 0.00, 0.00, 0.00, 0.00, 0.00, 0.00, 0.01, -0.18, 1.02
79, 0.00, 28913.17, 0.00, 0.00, 0.00, 0.00, 0.00, 0.00, 0.00, -0.18, 1.01
80, 0.00, 28900.98, 0.00, 0.00, 0.00, 0.00, 0.00, 0.00, 0.00, -0.18, 1.01
81, 0.00, 28931.05, 0.00, 0.00, 0.00, 0.00, 0.00, 0.00, 0.00, -0.18, 1.01
82, 0.00, 28933.30, 0.00, 0.00, 0.00, 0.00, 0.00, 0.00, 0.00, -0.18, 1.01
83, 0.00, 28927.52, 0.00, 0.00, 0.00, 0.00, 0.00, 0.00, 0.00, -0.18, 1.01
84, 0.00, 28930.40, 0.00, 0.00, 0.00, 0.00, 0.00, 0.00, -0.00, -0.18, 1.01
85, 0.00, 28926.22, 0.00, 0.00, 0.00, 0.00, 0.00, 0.00, -0.00, -0.18, 1.01
86, 0.00, 28920.77, 0.00, 0.00, 0.00, 0.00, 0.00, 0.00, -0.00, -0.18, 1.01
87, 0.00, 28926.76, 0.00, 0.00, 0.00, 0.00, 0.00, 0.00, -0.00, -0.18, 1.01
88, 0.00, 28931.31, 0.00, 0.00, 0.00, 0.00, 0.00, 0.00, -0.00, -0.18, 1.01
89, 0.00, 28927.56, 0.00, 0.00, 0.00, 0.00, 0.00, 0.00, 0.00, -0.18, 1.01
90, 0.00, 28919.22, 0.00, 0.00, 0.00, 0.00, 0.00, 0.00, 0.00, -0.18, 1.01
91, 0.00, 28932.50, 0.00, 0.00, 0.00, 0.00, 0.00, 0.00, 0.00, -0.18, 1.01
92, 0.00, 28927.54, 0.00, 0.00, 0.00, 0.00, 0.00, 0.00, 0.00, -0.18, 1.01
93, 0.00, 28917.32, 0.00, 0.00, 0.00, 0.00, 0.00, 0.00, 0.00, -0.18, 1.01
94, 0.00, 28931.00, 0.00, 0.00, 0.00, 0.00, 0.00, 0.00, 0.01, -0.18, 1.02
95, 0.00, 28930.82, 0.00, 0.00, 0.00, 0.00, 0.00, 0.00, 0.01, -0.18, 1.02
96, 0.00, 28957.62, 0.00, 0.00, 0.00, 0.00, 0.00, 0.00, 0.01, -0.18, 1.02
97, 0.00, 28941.69, 0.00, 0.00, 0.00, 0.00, 0.00, 0.00, 0.01, -0.18, 1.02
98, 0.00, 28955.99, 0.00, 0.00, 0.00, 0.00, 0.00, 0.00, 0.01, -0.18, 1.02
99, 0.00, 28966.05, 0.00, 0.00, 0.00, 0.00, 0.00, 0.00, 0.02, -0.19, 1.02
100, 0.00, 28950.87, 0.00, 0.00, 0.00, 0.00, 0.00, 0.00, 0.02, -0.19, 1.02
101, 0.00, 28941.06, 0.00, 0.00, 0.00, 0.00, 0.00, 0.00, 0.02, -0.19, 1.02
102, 0.00, 28940.79, 0.00, 0.00, 0.00, 0.00, 0.00, 0.00, 0.02, -0.19, 1.02
103, 0.00, 28962.25, 0.00, 0.00, 0.00, 0.00, 0.00, 0.00, 0.02, -0.19, 1.02
104, 0.00, 28964.37, 0.00, 0.00, 0.00, 0.00, 0.00, 0.00, 0.02, -0.19, 1.02
105, 0.00, 28956.84, 0.00, 0.00, 0.00, 0.00, 0.00, 0.00, 0.02, -0.19, 1.02
106, 0.00, 28954.07, 0.00, 0.00, 0.00, 0.00, 0.00, 0.00, 0.02, -0.19, 1.02
107, 0.00, 28965.51, 0.00, 0.00, 0.00, 0.00, 0.00, 0.00, 0.02, -0.19, 1.02
108, 0.00, 28960.51, 0.00, 0.00, 0.00, 0.00, 0.00, 0.00, 0.02, -0.19, 1.02
109, 0.00, 28968.04, 0.00, 0.00, 0.00, 0.00, 0.00, 0.00, 0.02, -0.19, 1.01
110, 0.00, 28959.95, 0.00, 0.00, 0.00, 0.00, 0.00, 0.00, 0.02, -0.19, 1.01
111, 0.00, 28963.75, 0.00, 0.00, 0.00, 0.00, 0.00, 0.00, 0.02, -0.19, 1.01
112, 0.00, 28971.57, 0.00, 0.00, 0.00, 0.00, 0.00, 0.00, 0.02, -0.19, 1.01
113, 0.00, 28960.55, 0.00, 0.00, 0.00, 0.00, 0.00, 0.00, 0.02, -0.19, 1.01
114, 0.00, 28966.34, 0.00, 0.00, 0.00, 0.00, 0.00, 0.00, 0.01, -0.19, 1.02
115, 0.00, 28968.84, 0.00, 0.00, 0.00, 0.00, 0.00, 0.00, 0.01, -0.19, 1.02
116, 0.00, 28978.66, 0.00, 0.00, 0.00, 0.00, 0.00, 0.00, 0.01, -0.19, 1.02
117, 0.00, 28973.80, 0.00, 0.00, 0.00, 0.00, 0.00, 0.00, 0.01, -0.19, 1.02
118, 0.00, 28966.83, 0.00, 0.00, 0.00, 0.00, 0.00, 0.00, 0.01, -0.19, 1.02
119, 0.00, 28969.27, 0.00, 0.00, 0.00, 0.00, 0.00, 0.00, 0.00, -0.18, 1.02
120, 0.00, 28985.14, 0.00, 0.00, 0.00, 0.00, 0.00, 0.00, 0.00, -0.18, 1.02
121, 0.00, 28977.14, 0.00, 0.00, 0.00, 0.00, 0.00, 0.00, 0.00, -0.18, 1.02
122, 0.00, 28970.79, 0.00, 0.00, 0.00, 0.00, 0.00, 0.00, 0.00, -0.18, 1.02
123, 0.00, 28981.14, 0.00, 0.00, 0.00, 0.00, 0.00, 0.00, 0.00, -0.18, 1.02
124, 0.00, 28985.03, 0.00, 0.00, 0.00, 0.00, 0.00, 0.00, -0.00, -0.17, 1.01
125, 0.00, 28972.87, 0.00, 0.00, 0.00, 0.00, 0.00, 0.00, -0.00, -0.17, 1.01
126, 0.00, 28967.53, 0.00, 0.00, 0.00, 0.00, 0.00, 0.00, -0.00, -0.17, 1.01
127, 0.00, 28995.46, 0.00, 0.00, 0.00, 0.00, 0.00, 0.00, -0.00, -0.17, 1.01
128, 0.00, 29014.37, 0.00, 0.00, 0.00, 0.00, 0.00, 0.00, -0.00, -0.17, 1.01
129, 0.00, 28984.40, 0.00, 0.00, 0.00, 0.00, 0.00, 0.00, -0.00, -0.18, 1.01
130, 0.00, 28967.37, 0.00, 0.00, 0.00, 0.00, 0.00, 0.00, -0.00, -0.18, 1.01
131, 0.00, 28973.69, 0.00, 0.00, 0.00, 0.00, 0.00, 0.00, -0.00, -0.18, 1.01
132, 0.00, 28978.43, 0.00, 0.00, 0.00, 0.00, 0.00, 0.00, -0.00, -0.18, 1.01
133, 0.00, 28979.42, 0.00, 0.00, 0.00, 0.00, 0.00, 0.00, -0.00, -0.18, 1.01
134, 0.00, 28967.95, 0.00, 0.00, 0.00, 0.00, 0.00, 0.00, 0.00, -0.18, 1.01
135, 0.00, 28943.23, 0.00, 0.00, 0.00, 0.00, 0.00, 0.00, 0.00, -0.18, 1.01
136, 0.00, 28937.24, 0.00, 0.00, 0.00, 0.00, 0.00, 0.00, 0.00, -0.18, 1.01
137, 0.00, 28907.35, 0.00, 0.00, 0.00, 0.00, 0.00, 0.00, 0.00, -0.18, 1.01
138, 0.00, 28901.52, 0.00, 0.00, 0.00, 0.00, 0.00, 0.00, 0.00, -0.18, 1.01
139, 0.00, 28875.68, 0.00, 0.00, 0.00, 0.00, 0.00, 0.00, 0.01, -0.19, 1.01
140, 0.00, 28850.47, 0.00, 0.00, 0.00, 0.00, 0.00, 0.00, 0.01, -0.19, 1.01
141, 0.00, 28834.58, 0.00, 0.00, 0.00, 0.00, 0.00, 0.00, 0.01, -0.19, 1.01
142, 0.00, 28788.00, 0.00, 0.00, 0.00, 0.00, 0.00, 0.00, 0.01, -0.19, 1.01
143, 0.00, 28731.29, 0.00, 0.00, 0.00, 0.00, 0.00, 0.00, 0.01, -0.19, 1.01
144, 0.00, 28662.60, 0.00, 0.00, 0.00, 0.00, 0.00, 0.00, 0.02, -0.19, 1.02
145, 0.00, 28630.26, 0.00, 0.00, 0.00, 0.00, 0.00, 0.00, 0.02, -0.19, 1.02
146, 0.00, 28598.12, 0.00, 0.00, 0.00, 0.00, 0.00, 0.00, 0.02, -0.19, 1.02
147, 0.00, 28525.83, 0.00, 0.00, 0.00, 0.00, 0.00, 0.00, 0.02, -0.19, 1.02
148, 0.00, 28485.08, 0.00, 0.00, 0.00, 0.00, 0.00, 0.00, 0.02, -0.19, 1.02
149, 0.00, 28481.06, 0.00, 0.00, 0.00, 0.00, 0.00, 0.00, 0.02, -0.19, 1.01
150, 0.00, 28472.03, 0.00, 0.00, 0.00, 0.00, 0.00, 0.00, 0.02, -0.19, 1.01
151, 0.00, 28445.03, 0.00, 0.00, 0.00, 0.00, 0.00, 0.00, 0.02, -0.19, 1.01
152, 0.00, 28422.01, 0.00, 0.00, 0.00, 0.00, 0.00, 0.00, 0.02, -0.19, 1.01
153, 0.00, 28419.97, 0.00, 0.00, 0.00, 0.00, 0.00, 0.00, 0.02, -0.19, 1.01
154, 0.00, 28408.06, 0.00, 0.00, 0.00, 0.00, 0.00, 0.00, 0.02, -0.19, 1.01
155, 0.00, 28414.83, 0.00, 0.00, 0.00, 0.00, 0.00, 0.00, 0.02, -0.19, 1.01
156, 0.00, 28400.01, 0.00, 0.00, 0.00, 0.00, 0.00, 0.00, 0.02, -0.19, 1.01
157, 0.00, 28412.44, 0.00, 0.00, 0.00, 0.00, 0.00, 0.00, 0.02, -0.19, 1.01
158, 0.00, 28411.82, 0.00, 0.00, 0.00, 0.00, 0.00, 0.00, 0.02, -0.19, 1.01
159, 0.00, 28405.02, 0.00, 0.00, 0.00, 0.00, 0.00, 0.00, 0.02, -0.19, 1.02
160, 0.00, 28406.52, 0.00, 0.00, 0.00, 0.00, 0.00, 0.00, 0.02, -0.19, 1.02
161, 0.00, 28425.63, 0.00, 0.00, 0.00, 0.00, 0.00, 0.00, 0.02, -0.19, 1.02
162, 0.00, 28469.62, 0.00, 0.00, 0.00, 0.00, 0.00, 0.00, 0.02, -0.19, 1.02
163, 0.00, 28484.57, 0.00, 0.00, 0.00, 0.00, 0.00, 0.00, 0.02, -0.19, 1.02
164, 0.00, 28491.28, 0.00, 0.00, 0.00, 0.00, 0.00, 0.00, 0.01, -0.19, 1.01
165, 0.00, 28526.50, 0.00, 0.00, 0.00, 0.00, 0.00, 0.00, 0.01, -0.19, 1.01
166, 0.00, 28544.21, 0.00, 0.00, 0.00, 0.00, 0.00, 0.00, 0.01, -0.19, 1.01
167, 0.00, 28563.99, 0.00, 0.00, 0.00, 0.00, 0.00, 0.00, 0.01, -0.19, 1.01
168, 0.00, 28588.53, 0.00, 0.00, 0.00, 0.00, 0.00, 0.00, 0.01, -0.19, 1.01
169, 0.00, 28605.87, 0.00, 0.00, 0.00, 0.00, 0.00, 0.00, 0.01, -0.19, 1.02
170, 0.00, 28646.53, 0.00, 0.00, 0.00, 0.00, 0.00, 0.00, 0.01, -0.19, 1.02
171, 0.00, 28668.88, 0.00, 0.00, 0.00, 0.00, 0.00, 0.00, 0.01, -0.19, 1.02
172, 0.00, 28675.68, 0.00, 0.00, 0.00, 0.00, 0.00, 0.00, 0.01, -0.19, 1.02
173, 0.00, 28684.02, 0.00, 0.00, 0.00, 0.00, 0.00, 0.00, 0.01, -0.19, 1.02
174, 0.00, 28712.25, 0.00, 0.00, 0.00, 0.00, 0.00, 0.00, 0.00, -0.19, 1.01
175, 0.00, 28735.45, 0.00, 0.00, 0.00, 0.00, 0.00, 0.00, 0.00, -0.19, 1.01
176, 0.00, 28744.14, 0.00, 0.00, 0.00, 0.00, 0.00, 0.00, 0.00, -0.19, 1.01
177, 0.00, 28757.66, 0.00, 0.00, 0.00, 0.00, 0.00, 0.00, 0.00, -0.19, 1.01
178, 0.00, 28760.79, 0.00, 0.00, 0.00, 0.00, 0.00, 0.00, 0.00, -0.19, 1.01
179, 0.00, 28795.19, 0.00, 0.00, 0.00, 0.00, 0.00, 0.00, 0.00, -0.18, 1.01
180, 0.00, 28813.57, 0.00, 0.00, 0.00, 0.00, 0.00, 0.00, 0.00, -0.18, 1.01
181, 0.00, 28820.41, 0.00, 0.00, 0.00, 0.00, 0.00, 0.00, 0.00, -0.18, 1.01
182, 0.00, 28838.51, 0.00, 0.00, 0.00, 0.00, 0.00, 0.00, 0.00, -0.18, 1.01
183, 0.00, 28865.15, 0.00, 0.00, 0.00, 0.00, 0.00, 0.00, 0.00, -0.18, 1.01
184, 0.00, 28866.32, 0.00, 0.00, 0.00, 0.00, 0.00, 0.00, 0.00, -0.18, 1.01
185, 0.00, 28864.30, 0.00, 0.00, 0.00, 0.00, 0.00, 0.00, 0.00, -0.18, 1.01
186, 0.00, 28879.30, 0.00, 0.00, 0.00, 0.00, 0.00, 0.00, 0.00, -0.18, 1.01
187, 0.00, 28899.38, 0.00, 0.00, 0.00, 0.00, 0.00, 0.00, 0.00, -0.18, 1.01
188, 0.00, 28899.26, 0.00, 0.00, 0.00, 0.00, 0.00, 0.00, 0.00, -0.18, 1.01
189, 0.00, 28886.25, 0.00, 0.00, 0.00, 0.00, 0.00, 0.00, 0.00, -0.17, 1.00
190, 0.00, 28896.47, 0.00, 0.00, 0.00, 0.00, 0.00, 0.00, 0.00, -0.17, 1.00
191, 0.00, 28916.90, 0.00, 0.00, 0.00, 0.00, 0.00, 0.00, 0.00, -0.17, 1.00
192, 0.00, 28920.61, 0.00, 0.00, 0.00, 0.00, 0.00, 0.00, 0.00, -0.17, 1.00
193, 0.00, 28940.99, 0.00, 0.00, 0.00, 0.00, 0.00, 0.00, 0.00, -0.17, 1.00
194, 0.00, 28937.89, 0.00, 0.00, 0.00, 0.00, 0.00, 0.00, 0.01, -0.18, 1.01
195, 0.00, 28955.75, 0.00, 0.00, 0.00, 0.00, 0.00, 0.00, 0.01, -0.18, 1.01
196, 0.00, 28960.84, 0.00, 0.00, 0.00, 0.00, 0.00, 0.00, 0.01, -0.18, 1.01
197, 0.00, 28958.20, 0.00, 0.00, 0.00, 0.00, 0.00, 0.00, 0.01, -0.18, 1.01
198, 0.00, 28969.49, 0.00, 0.00, 0.00, 0.00, 0.00, 0.00, 0.01, -0.18, 1.01
199, 0.00, 28984.33, 0.00, 0.00, 0.00, 0.00, 0.00, 0.00, 0.01, -0.18, 1.02
200, 0.00, 28998.15, 0.00, 0.00, 0.00, 0.00, 0.00, 0.00, 0.01, -0.18, 1.02
201, 0.00, 29001.37, 0.00, 0.00, 0.00, 0.00, 0.00, 0.00, 0.01, -0.18, 1.02
202, 0.00, 29006.44, 0.00, 0.00, 0.00, 0.00, 0.00, 0.00, 0.01, -0.18, 1.02
203, 0.00, 29011.09, 0.00, 0.00, 0.00, 0.00, 0.00, 0.00, 0.01, -0.18, 1.02
204, 0.00, 29001.10, 0.00, 0.00, 0.00, 0.00, 0.00, 0.00, 0.01, -0.18, 1.02
205, 0.00, 28982.81, 0.00, 0.00, 0.00, 0.00, 0.00, 0.00, 0.01, -0.18, 1.02
206, 0.00, 28997.95, 0.00, 0.00, 0.00, 0.00, 0.00, 0.00, 0.01, -0.18, 1.02
207, 0.00, 29008.16, 0.00, 0.00, 0.00, 0.00, 0.00, 0.00, 0.01, -0.18, 1.02
208, 0.00, 29017.62, 0.00, 0.00, 0.00, 0.00, 0.00, 0.00, 0.01, -0.18, 1.02
209, 0.00, 29017.84, 0.00, 0.00, 0.00, 0.00, 0.00, 0.00, 0.01, -0.18, 1.02
210, 0.00, 29023.31, 0.00, 0.00, 0.00, 0.00, 0.00, 0.00, 0.02, -0.18, 1.01
211, 0.00, 29023.70, 0.00, 0.00, 0.00, 0.00, 0.00, 0.00, 0.02, -0.18, 1.01
212, 0.00, 29029.39, 0.00, 0.00, 0.00, 0.00, 0.00, 0.00, 0.02, -0.18, 1.01
213, 0.00, 29028.90, 0.00, 0.00, 0.00, 0.00, 0.00, 0.00, 0.02, -0.18, 1.01
214, 0.00, 29012.43, 0.00, 0.00, 0.00, 0.00, 0.00, 0.00, 0.02, -0.18, 1.01
215, 0.00, 29036.55, 0.00, 0.00, 0.00, 0.00, 0.00, 0.00, 0.02, -0.18, 1.02
216, 0.00, 29044.46, 0.00, 0.00, 0.00, 0.00, 0.00, 0.00, 0.02, -0.18, 1.02
217, 0.00, 29000.85, 0.00, 0.00, 0.00, 0.00, 0.00, 0.00, 0.02, -0.18, 1.02
218, 0.00, 28989.61, 0.00, 0.00, 0.00, 0.00, 0.00, 0.00, 0.02, -0.18, 1.02
219, 0.00, 29036.35, 0.00, 0.00, 0.00, 0.00, 0.00, 0.00, 0.02, -0.18, 1.02
220, 0.00, 29048.95, 0.00, 0.00, 0.00, 0.00, 0.00, 0.00, 0.02, -0.18, 1.01
221, 0.00, 29044.26, 0.00, 0.00, 0.00, 0.00, 0.00, 0.00, 0.02, -0.18, 1.01
222, 0.00, 29048.73, 0.00, 0.00, 0.00, 0.00, 0.00, 0.00, 0.02, -0.18, 1.01
223, 0.00, 29046.00, 0.00, 0.00, 0.00, 0.00, 0.00, 0.00, 0.02, -0.18, 1.01
224, 0.00, 29052.97, 0.00, 0.00, 0.00, 0.00, 0.00, 0.00, 0.02, -0.18, 1.01
225, 0.00, 29042.07, 0.00, 0.00, 0.00, 0.00, 0.00, 0.00, 0.02, -0.18, 1.00
226, 0.00, 29035.63, 0.00, 0.00, 0.00, 0.00, 0.00, 0.00, 0.02, -0.18, 1.00
227, 0.00, 29048.30, 0.00, 0.00, 0.00, 0.00, 0.00, 0.00, 0.02, -0.18, 1.00
228, 0.00, 29052.57, 0.00, 0.00, 0.00, 0.00, 0.00, 0.00, 0.02, -0.18, 1.00
229, 0.00, 29060.75, 0.00, 0.00, 0.00, 0.00, 0.00, 0.00, 0.02, -0.18, 1.00
230, 0.00, 29065.16, 0.00, 0.00, 0.00, 0.00, 0.00, 0.00, 0.02, -0.18, 1.01
231, 0.00, 29069.31, 0.00, 0.00, 0.00, 0.00, 0.00, 0.00, 0.02, -0.18, 1.01
232, 0.00, 29080.58, 0.00, 0.00, 0.00, 0.00, 0.00, 0.00, 0.02, -0.18, 1.01
233, 0.00, 29081.03, 0.00, 0.00, 0.00, 0.00, 0.00, 0.00, 0.02, -0.18, 1.01
234, 0.00, 29058.85, 0.00, 0.00, 0.00, 0.00, 0.00, 0.00, 0.02, -0.18, 1.01
235, 0.00, 29056.17, 0.00, 0.00, 0.00, 0.00, 0.00, 0.00, 0.02, -0.18, 1.01
236, 0.00, 29068.69, 0.00, 0.00, 0.00, 0.00, 0.00, 0.00, 0.02, -0.18, 1.01
237, 0.00, 29063.93, 0.00, 0.00, 0.00, 0.00, 0.00, 0.00, 0.02, -0.18, 1.01
238, 0.00, 29081.05, 0.00, 0.00, 0.00, 0.00, 0.00, 0.00, 0.02, -0.18, 1.01
239, 0.00, 29076.65, 0.00, 0.00, 0.00, 0.00, 0.00, 0.00, 0.02, -0.18, 1.01
240, 0.00, 29080.54, 0.00, 0.00, 0.00, 0.00, 0.00, 0.00, 0.01, -0.18, 1.01
241, 0.00, 29094.86, 0.00, 0.00, 0.00, 0.00, 0.00, 0.00, 0.01, -0.18, 1.01
242, 0.00, 29098.97, 0.00, 0.00, 0.00, 0.00, 0.00, 0.00, 0.01, -0.18, 1.01
243, 0.00, 29086.12, 0.00, 0.00, 0.00, 0.00, 0.00, 0.00, 0.01, -0.18, 1.01
244, 0.00, 29082.81, 0.00, 0.00, 0.00, 0.00, 0.00, 0.00, 0.01, -0.18, 1.01
245, 0.00, 29093.79, 0.00, 0.00, 0.00, 0.00, 0.00, 0.00, 0.01, -0.18, 1.01
246, 0.00, 29104.59, 0.00, 0.00, 0.00, 0.00, 0.00, 0.00, 0.01, -0.18, 1.01
247, 0.00, 29104.72, 0.00, 0.00, 0.00, 0.00, 0.00, 0.00, 0.01, -0.18, 1.01
248, 0.00, 29088.76, 0.00, 0.00, 0.00, 0.00, 0.00, 0.00, 0.01, -0.18, 1.01
249, 0.00, 29074.08, 0.00, 0.00, 0.00, 0.00, 0.00, 0.00, 0.01, -0.18, 1.01
250, 0.00, 29085.94, 0.00, 0.00, 0.00, 0.00, 0.00, 0.00, 0.01, -0.18, 1.02
251, 0.00, 29083.15, 0.00, 0.00, 0.00, 0.00, 0.00, 0.00, 0.01, -0.18, 1.02
252, 0.00, 29077.58, 0.00, 0.00, 0.00, 0.00, 0.00, 0.00, 0.01, -0.18, 1.02
253, 0.00, 29093.21, 0.00, 0.00, 0.00, 0.00, 0.00, 0.00, 0.01, -0.18, 1.02
254, 0.00, 29089.70, 0.00, 0.00, 0.00, 0.00, 0.00, 0.00, 0.01, -0.18, 1.02
255, 0.00, 29076.78, 0.00, 0.00, 0.00, 0.00, 0.00, 0.00, 0.00, -0.18, 1.01
0, 0.00, 29084.71, 0.00, 0.00, 0.00, 0.00, 0.00, 0.00, 0.00, -0.18, 1.01
1, 0.00, 29109.55, 0.00, 0.00, 0.00, 0.00, 0.00, 0.00, 0.00, -0.18, 1.01
2, 0.00, 29112.65, 0.00, 0.00, 0.00, 0.00, 0.00, 0.00, 0.00, -0.18, 1.01
3, 0.00, 29102.19, 0.00, 0.00, 0.00, 0.00, 0.00, 0.00, 0.00, -0.18, 1.01
4, 0.00, 29090.19, 0.00, 0.00, 0.00, 0.00, 0.00, 0.00, 0.01, -0.19, 1.01
5, 0.00, 29086.28, 0.00, 0.00, 0.00, 0.00, 0.00, 0.00, 0.01, -0.19, 1.01
6, 0.00, 29115.22, 0.00, 0.00, 0.00, 0.00, 0.00, 0.00, 0.01, -0.19, 1.01
7, 0.00, 29111.16, 0.00, 0.00, 0.00, 0.00, 0.00, 0.00, 0.01, -0.19, 1.01
8, 0.00, 29101.10, 0.00, 0.00, 0.00, 0.00, 0.00, 0.00, 0.01, -0.19, 1.01
9, 0.00, 29100.83, 0.00, 0.00, 0.00, 0.00, 0.00, 0.00, 0.01, -0.18, 1.02
10, 0.00, 29114.69, 0.00, 0.00, 0.00, 0.00, 0.00, 0.00, 0.01, -0.18, 1.02
11, 0.00, 29115.63, 0.00, 0.00, 0.00, 0.00, 0.00, 0.00, 0.01, -0.18, 1.02
12, 0.00, 29107.04, 0.00, 0.00, 0.00, 0.00, 0.00, 0.00, 0.01, -0.18, 1.02
13, 0.00, 29106.06, 0.00, 0.00, 0.00, 0.00, 0.00, 0.00, 0.01, -0.18, 1.02
14, 0.00, 29124.57, 0.00, 0.00, 0.00, 0.00, 0.00, 0.00, 0.02, -0.19, 1.02
15, 0.00, 29123.94, 0.00, 0.00, 0.00, 0.00, 0.00, 0.00, 0.02, -0.19, 1.02
16, 0.00, 29107.25, 0.00, 0.00, 0.00, 0.00, 0.00, 0.00, 0.02, -0.19, 1.02
17, 0.00, 29114.06, 0.00, 0.00, 0.00, 0.00, 0.00, 0.00, 0.02, -0.19, 1.02
18, 0.00, 29134.96, 0.00, 0.00, 0.00, 0.00, 0.00, 0.00, 0.02, -0.19, 1.02
19, 0.00, 29130.54, 0.00, 0.00, 0.00, 0.00, 0.00, 0.00, 0.01, -0.19, 1.01
20, 0.00, 29112.05, 0.00, 0.00, 0.00, 0.00, 0.00, 0.00, 0.01, -0.19, 1.01
21, 0.00, 29123.63, 0.00, 0.00, 0.00, 0.00, 0.00, 0.00, 0.01, -0.19, 1.01
22, 0.00, 29139.14, 0.00, 0.00, 0.00, 0.00, 0.00, 0.00, 0.01, -0.19, 1.01
23, 0.00, 29139.50, 0.00, 0.00, 0.00, 0.00, 0.00, 0.00, 0.01, -0.19, 1.01
24, 0.00, 29132.01, 0.00, 0.00, 0.00, 0.00, 0.00, 0.00, 0.02, -0.18, 1.01
25, 0.00, 29146.32, 0.00, 0.00, 0.00, 0.00, 0.00, 0.00, 0.02, -0.18, 1.01
26, 0.00, 29134.36, 0.00, 0.00, 0.00, 0.00, 0.00, 0.00, 0.02, -0.18, 1.01
27, 0.00, 29125.06, 0.00, 0.00, 0.00, 0.00, 0.00, 0.00, 0.02, -0.18, 1.01
28, 0.00, 29118.94, 0.00, 0.00, 0.00, 0.00, 0.00, 0.00, 0.02, -0.18, 1.01
29, 0.00, 29116.68, 0.00, 0.00, 0.00, 0.00, 0.00, 0.00, 0.02, -0.19, 1.01
30, 0.00, 29134.40, 0.00, 0.00, 0.00, 0.00, 0.00, 0.00, 0.02, -0.19, 1.01
31, 0.00, 29143.68, 0.00, 0.00, 0.00, 0.00, 0.00, 0.00, 0.02, -0.19, 1.01
32, 0.00, 29141.15, 0.00, 0.00, 0.00, 0.00, 0.00, 0.00, 0.02, -0.19, 1.01
33, 0.00, 29140.06, 0.00, 0.00, 0.00, 0.00, 0.00, 0.00, 0.02, -0.19, 1.01
34, 0.00, 29133.73, 0.00, 0.00, 0.00, 0.00, 0.00, 0.00, 0.01, -0.19, 1.01
35, 0.00, 29139.37, 0.00, 0.00, 0.00, 0.00, 0.00, 0.00, 0.01, -0.19, 1.01
36, 0.00, 29137.49, 0.00, 0.00, 0.00, 0.00, 0.00, 0.00, 0.01, -0.19, 1.01
37, 0.00, 29127.14, 0.00, 0.00, 0.00, 0.00, 0.00, 0.00, 0.01, -0.19, 1.01
38, 0.00, 29130.78, 0.00, 0.00, 0.00, 0.00, 0.00, 0.00, 0.01, -0.19, 1.01
39, 0.00, 29131.94, 0.00, 0.00, 0.00, 0.00, 0.00, 0.00, 0.01, -0.19, 1.01
40, 0.00, 29144.51, 0.00, 0.00, 0.00, 0.00, 0.00, 0.00, 0.01, -0.19, 1.01
41, 0.00, 29154.90, 0.00, 0.00, 0.00, 0.00, 0.00, 0.00, 0.01, -0.19, 1.01
42, 0.00, 29149.18, 0.00, 0.00, 0.00, 0.00, 0.00, 0.00, 0.01, -0.19, 1.01
43, 0.00, 29159.21, 0.00, 0.00, 0.00, 0.00, 0.00, 0.00, 0.01, -0.19, 1.01
44, 0.00, 29145.15, 0.00, 0.00, 0.00, 0.00, 0.00, 0.00, 0.01, -0.19, 1.01
45, 0.00, 29142.27, 0.00, 0.00, 0.00, 0.00, 0.00, 0.00, 0.01, -0.19, 1.01
46, 0.00, 29144.62, 0.00, 0.00, 0.00, 0.00, 0.00, 0.00, 0.01, -0.19, 1.01
47, 0.00, 29157.09, 0.00, 0.00, 0.00, 0.00, 0.00, 0.00, 0.01, -0.19, 1.01
48, 0.00, 29166.30, 0.00, 0.00, 0.00, 0.00, 0.00, 0.00, 0.01, -0.19, 1.01
49, 0.00, 29167.37, 0.00, 0.00, 0.00, 0.00, 0.00, 0.00, 0.01, -0.19, 1.02
50, 0.00, 29163.39, 0.00, 0.00, 0.00, 0.00, 0.00, 0.00, 0.01, -0.19, 1.02
51, 0.00, 29164.46, 0.00, 0.00, 0.00, 0.00, 0.00, 0.00, 0.01, -0.19, 1.02
52, 0.00, 29166.52, 0.00, 0.00, 0.00, 0.00, 0.00, 0.00, 0.01, -0.19, 1.02
53, 0.00, 29175.08, 0.00, 0.00, 0.00, 0.00, 0.00, 0.00, 0.01, -0.19, 1.02
54, 0.00, 29160.49, 0.00, 0.00, 0.00, 0.00, 0.00, 0.00, 0.01, -0.19, 1.02
55, 0.00, 29154.34, 0.00, 0.00, 0.00, 0.00, 0.00, 0.00, 0.01, -0.19, 1.02
56, 0.00, 29162.07, 0.00, 0.00, 0.00, 0.00, 0.00, 0.00, 0.01, -0.19, 1.02
57, 0.00, 29173.03, 0.00, 0.00, 0.00, 0.00, 0.00, 0.00, 0.01, -0.19, 1.02
58, 0.00, 29153.25, 0.00, 0.00, 0.00, 0.00, 0.00, 0.00, 0.01, -0.19, 1.02
59, 0.00, 29147.59, 0.00, 0.00, 0.00, 0.00, 0.00, 0.00, 0.01, -0.18, 1.01
60, 0.00, 29159.86, 0.00, 0.00, 0.00, 0.00, 0.00, 0.00, 0.01, -0.18, 1.01
61, 0.00, 29156.89, 0.00, 0.00, 0.00, 0.00, 0.00, 0.00, 0.01, -0.18, 1.01
62, 0.00, 29160.85, 0.00, 0.00, 0.00, 0.00, 0.00, 0.00, 0.01, -0.18, 1.01
63, 0.00, 29154.41, 0.00, 0.00, 0.00, 0.00, 0.00, 0.00, 0.01, -0.18, 1.01
64, 0.00, 29153.18, 0.00, 0.00, 0.00, 0.00, 0.00, 0.00, 0.01, -0.18, 1.01
65, 0.00, 29153.96, 0.00, 0.00, 0.00, 0.00, 0.00, 0.00, 0.01, -0.18, 1.01
66, 0.00, 29153.47, 0.00, 0.00, 0.00, 0.00, 0.00, 0.00, 0.01, -0.18, 1.01
67, 0.00, 29157.18, 0.00, 0.00, 0.00, 0.00, 0.00, 0.00, 0.01, -0.18, 1.01
68, 0.00, 29164.20, 0.00, 0.00, 0.00, 0.00, 0.00, 0.00, 0.01, -0.18, 1.01
69, 0.00, 29171.73, 0.00, 0.00, 0.00, 0.00, 0.00, 0.00, 0.01, -0.19, 1.02
70, 0.00, 29167.66, 0.00, 0.00, 0.00, 0.00, 0.00, 0.00, 0.01, -0.19, 1.02
71, 0.00, 29163.68, 0.00, 0.00, 0.00, 0.00, 0.00, 0.00, 0.01, -0.19, 1.02
72, 0.00, 29175.37, 0.00, 0.00, 0.00, 0.00, 0.00, 0.00, 0.01, -0.19, 1.02
73, 0.00, 29178.95, 0.00, 0.00, 0.00, 0.00, 0.00, 0.00, 0.01, -0.19, 1.02
74, 0.00, 29183.69, 0.00, 0.00, 0.00, 0.00, 0.00, 0.00, 0.01, -0.19, 1.01
75, 0.00, 29178.32, 0.00, 0.00, 0.00, 0.00, 0.00, 0.00, 0.01, -0.19, 1.01
76, 0.00, 29185.23, 0.00, 0.00, 0.00, 0.00, 0.00, 0.00, 0.01, -0.19, 1.01
77, 0.00, 29198.57, 0.00, 0.00, 0.00, 0.00, 0.00, 0.00, 0.01, -0.19, 1.01
78, 0.00, 29194.84, 0.00, 0.00, 0.00, 0.00, 0.00, 0.00, 0.01, -0.19, 1.01
79, 0.00, 29182.71, 0.00, 0.00, 0.00, 0.00, 0.00, 0.00, 0.02, -0.19, 1.01
80, 0.00, 29167.08, 0.00, 0.00, 0.00, 0.00, 0.00, 0.00, 0.02, -0.19, 1.01
81, 0.00, 29188.56, 0.00, 0.00, 0.00, 0.00, 0.00, 0.00, 0.02, -0.19, 1.01
82, 0.00, 29181.56, 0.00, 0.00, 0.00, 0.00, 0.00, 0.00, 0.02, -0.19, 1.01
83, 0.00, 29194.71, 0.00, 0.00, 0.00, 0.00, 0.00, 0.00, 0.02, -0.19, 1.01
84, 0.00, 29205.88, 0.00, 0.00, 0.00, 0.00, 0.00, 0.00, 0.01, -0.19, 1.01
85, 0.00, 29216.37, 0.00, 0.00, 0.00, 0.00, 0.00, 0.00, 0.01, -0.19, 1.01
86, 0.00, 29225.08, 0.00, 0.00, 0.00, 0.00, 0.00, 0.00, 0.01, -0.19, 1.01
87, 0.00, 29217.44, 0.00, 0.00, 0.00, 0.00, 0.00, 0.00, 0.01, -0.19, 1.01
88, 0.00, 29203.92, 0.00, 0.00, 0.00, 0.00, 0.00, 0.00, 0.01, -0.19, 1.01
89, 0.00, 29216.50, 0.00, 0.00, 0.00, 0.00, 0.00, 0.00, 0.01, -0.18, 1.01
90, 0.00, 29234.36, 0.00, 0.00, 0.00, 0.00, 0.00, 0.00, 0.01, -0.18, 1.01
91, 0.00, 29212.88, 0.00, 0.00, 0.00, 0.00, 0.00, 0.00, 0.01, -0.18, 1.01
92, 0.00, 29213.88, 0.00, 0.00, 0.00, 0.00, 0.00, 0.00, 0.01, -0.18, 1.01
93, 0.00, 29218.56, 0.00, 0.00, 0.00, 0.00, 0.00, 0.00, 0.01, -0.18, 1.01
94, 0.00, 29215.79, 0.00, 0.00, 0.00, 0.00, 0.00, 0.00, 0.01, -0.18, 1.02
95, 0.00, 29222.87, 0.00, 0.00, 0.00, 0.00, 0.00, 0.00, 0.01, -0.18, 1.02
96, 0.00, 29220.46, 0.00, 0.00, 0.00, 0.00, 0.00, 0.00, 0.01, -0.18, 1.02
97, 0.00, 29225.53, 0.00, 0.00, 0.00, 0.00, 0.00, 0.00, 0.01, -0.18, 1.02
98, 0.00, 29229.35, 0.00, 0.00, 0.00, 0.00, 0.00, 0.00, 0.01, -0.18, 1.02
99, 0.00, 29227.61, 0.00, 0.00, 0.00, 0.00, 0.00, 0.00, 0.01, -0.18, 1.02
100, 0.00, 29216.28, 0.00, 0.00, 0.00, 0.00, 0.00, 0.00, 0.01, -0.18, 1.02
101, 0.00, 29223.97, 0.00, 0.00, 0.00, 0.00, 0.00, 0.00, 0.01, -0.18, 1.02
102, 0.00, 29237.96, 0.00, 0.00, 0.00, 0.00, 0.00, 0.00, 0.01, -0.18, 1.02
103, 0.00, 29232.57, 0.00, 0.00, 0.00, 0.00, 0.00, 0.00, 0.01, -0.18, 1.02
104, 0.00, 29232.24, 0.00, 0.00, 0.00, 0.00, 0.00, 0.00, 0.01, -0.19, 1.02
105, 0.00, 29227.74, 0.00, 0.00, 0.00, 0.00, 0.00, 0.00, 0.01, -0.19, 1.02
106, 0.00, 29237.73, 0.00, 0.00, 0.00, 0.00, 0.00, 0.00, 0.01, -0.19, 1.02
107, 0.00, 29240.62, 0.00, 0.00, 0.00, 0.00, 0.00, 0.00, 0.01, -0.19, 1.02
108, 0.00, 29231.21, 0.00, 0.00, 0.00, 0.00, 0.00, 0.00, 0.01, -0.19, 1.02
109, 0.00, 29236.01, 0.00, 0.00, 0.00, 0.00, 0.00, 0.00, 0.01, -0.19, 1.01
110, 0.00, 29245.11, 0.00, 0.00, 0.00, 0.00, 0.00, 0.00, 0.01, -0.19, 1.01
111, 0.00, 29243.86, 0.00, 0.00, 0.00, 0.00, 0.00, 0.00, 0.01, -0.19, 1.01
112, 0.00, 29233.96, 0.00, 0.00, 0.00, 0.00, 0.00, 0.00, 0.01, -0.19, 1.01
113, 0.00, 29235.95, 0.00, 0.00, 0.00, 0.00, 0.00, 0.00, 0.01, -0.19, 1.01
114, 0.00, 29252.46, 0.00, 0.00, 0.00, 0.00, 0.00, 0.00, 0.01, -0.19, 1.02
115, 0.00, 29249.56, 0.00, 0.00, 0.00, 0.00, 0.00, 0.00, 0.01, -0.19, 1.02
116, 0.00, 29246.29, 0.00, 0.00, 0.00, 0.00, 0.00, 0.00, 0.01, -0.19, 1.02
117, 0.00, 29239.37, 0.00, 0.00, 0.00, 0.00, 0.00, 0.00, 0.01, -0.19, 1.02
118, 0.00, 29251.28, 0.00, 0.00, 0.00, 0.00, 0.00, 0.00, 0.01, -0.19, 1.02
119, 0.00, 29244.66, 0.00, 0.00, 0.00, 0.00, 0.00, 0.00, 0.01, -0.19, 1.02
120, 0.00, 29216.77, 0.00, 0.00, 0.00, 0.00, 0.00, 0.00, 0.01, -0.19, 1.02
121, 0.00, 29234.81, 0.00, 0.00, 0.00, 0.00, 0.00, 0.00, 0.01, -0.19, 1.02
122, 0.00, 29265.12, 0.00, 0.00, 0.00, 0.00, 0.00, 0.00, 0.01, -0.19, 1.02
123, 0.00, 29280.70, 0.00, 0.00, 0.00, 0.00, 0.00, 0.00, 0.01, -0.19, 1.02
124, 0.00, 29273.92, 0.00, 0.00, 0.00, 0.00, 0.00, 0.00, 0.01, -0.19, 1.02
125, 0.00, 29261.90, 0.00, 0.00, 0.00, 0.00, 0.00, 0.00, 0.01, -0.19, 1.02
126, 0.00, 29259.71, 0.00, 0.00, 0.00, 0.00, 0.00, 0.00, 0.01, -0.19, 1.02
127, 0.00, 29263.10, 0.00, 0.00, 0.00, 0.00, 0.00, 0.00, 0.01, -0.19, 1.02
128, 0.00, 29266.88, 0.00, 0.00, 0.00, 0.00, 0.00, 0.00, 0.01, -0.19, 1.02
129, 0.00, 29266.95, 0.00, 0.00, 0.00, 0.00, 0.00, 0.00, 0.00, -0.19, 1.01
130, 0.00, 29262.14, 0.00, 0.00, 0.00, 0.00, 0.00, 0.00, 0.00, -0.19, 1.01
131, 0.00, 29255.28, 0.00, 0.00, 0.00, 0.00, 0.00, 0.00, 0.00, -0.19, 1.01
132, 0.00, 29258.95, 0.00, 0.00, 0.00, 0.00, 0.00, 0.00, 0.00, -0.19, 1.01
133, 0.00, 29255.26, 0.00, 0.00, 0.00, 0.00, 0.00, 0.00, 0.00, -0.19, 1.01
134, 0.00, 29255.04, 0.00, 0.00, 0.00, 0.00, 0.00, 0.00, 0.00, -0.19, 1.01
135, 0.00, 29276.31, 0.00, 0.00, 0.00, 0.00, 0.00, 0.00, 0.01, -0.19, 1.01
136, 0.00, 29257.76, 0.00, 0.00, 0.00, 0.00, 0.00, 0.00, 0.01, -0.19, 1.01
137, 0.00, 29252.64, 0.00, 0.00, 0.00, 0.00, 0.00, 0.00, 0.01, -0.19, 1.01
138, 0.00, 29250.03, 0.00, 0.00, 0.00, 0.00, 0.00, 0.00, 0.01, -0.19, 1.01
139, 0.00, 29262.19, 0.00, 0.00, 0.00, 0.00, 0.00, 0.00, 0.01, -0.19, 1.01
140, 0.00, 29267.80, 0.00, 0.00, 0.00, 0.00, 0.00, 0.00, 0.01, -0.18, 1.01
141, 0.00, 29254.72, 0.00, 0.00, 0.00, 0.00, 0.00, 0.00, 0.01, -0.18, 1.01
142, 0.00, 29244.93, 0.00, 0.00, 0.00, 0.00, 0.00, 0.00, 0.01, -0.18, 1.01
143, 0.00, 29253.76, 0.00, 0.00, 0.00, 0.00, 0.00, 0.00, 0.01, -0.18, 1.01
144, 0.00, 29263.30, 0.00, 0.00, 0.00, 0.00, 0.00, 0.00, 0.01, -0.18, 1.01
145, 0.00, 29250.41, 0.00, 0.00, 0.00, 0.00, 0.00, 0.00, 0.01, -0.18, 1.01
146, 0.00, 29260.33, 0.00, 0.00, 0.00, 0.00, 0.00, 0.00, 0.01, -0.18, 1.01
147, 0.00, 29259.33, 0.00, 0.00, 0.00, 0.00, 0.00, 0.00, 0.01, -0.18, 1.01
148, 0.00, 29254.81, 0.00, 0.00, 0.00, 0.00, 0.00, 0.00, 0.01, -0.18, 1.01
149, 0.00, 29262.21, 0.00, 0.00, 0.00, 0.00, 0.00, 0.00, 0.01, -0.18, 1.01
150, 0.00, 29256.42, 0.00, 0.00, 0.00, 0.00, 0.00, 0.00, 0.01, -0.18, 1.02
151, 0.00, 29267.28, 0.00, 0.00, 0.00, 0.00, 0.00, 0.00, 0.01, -0.18, 1.02
152, 0.00, 29271.93, 0.00, 0.00, 0.00, 0.00, 0.00, 0.00, 0.01, -0.18, 1.02
153, 0.00, 29257.65, 0.00, 0.00, 0.00, 0.00, 0.00, 0.00, 0.01, -0.18, 1.02
154, 0.00, 29249.25, 0.00, 0.00, 0.00, 0.00, 0.00, 0.00, 0.01, -0.18, 1.02
155, 0.00, 29238.94, 0.00, 0.00, 0.00, 0.00, 0.00, 0.00, 0.00, -0.18, 1.01
156, 0.00, 29254.70, 0.00, 0.00, 0.00, 0.00, 0.00, 0.00, 0.00, -0.18, 1.01
157, 0.00, 29267.89, 0.00, 0.00, 0.00, 0.00, 0.00, 0.00, 0.00, -0.18, 1.01
158, 0.00, 29270.86, 0.00, 0.00, 0.00, 0.00, 0.00, 0.00, 0.00, -0.18, 1.01
159, 0.00, 29249.13, 0.00, 0.00, 0.00, 0.00, 0.00, 0.00, 0.00, -0.18, 1.01
160, 0.00, 29223.81, 0.00, 0.00, 0.00, 0.00, 0.00, 0.00, 0.00, -0.19, 1.01
161, 0.00, 29227.68, 0.00, 0.00, 0.00, 0.00, 0.00, 0.00, 0.00, -0.19, 1.01
162, 0.00, 29237.15, 0.00, 0.00, 0.00, 0.00, 0.00, 0.00, 0.00, -0.19, 1.01
163, 0.00, 29227.23, 0.00, 0.00, 0.00, 0.00, 0.00, 0.00, 0.00, -0.19, 1.01
164, 0.00, 29240.04, 0.00, 0.00, 0.00, 0.00, 0.00, 0.00, 0.00, -0.19, 1.01
165, 0.00, 29249.47, 0.00, 0.00, 0.00, 0.00, 0.00, 0.00, 0.00, -0.18, 1.01
166, 0.00, 29229.73, 0.00, 0.00, 0.00, 0.00, 0.00, 0.00, 0.00, -0.18, 1.01
167, 0.00, 29192.74, 0.00, 0.00, 0.00, 0.00, 0.00, 0.00, 0.00, -0.18, 1.01
168, 0.00, 29203.09, 0.00, 0.00, 0.00, 0.00, 0.00, 0.00, 0.00, -0.18, 1.01
169, 0.00, 29232.82, 0.00, 0.00, 0.00, 0.00, 0.00, 0.00, 0.00, -0.18, 1.01
170, 0.00, 29243.21, 0.00, 0.00, 0.00, 0.00, 0.00, 0.00, 0.00, -0.18, 1.02
171, 0.00, 29216.79, 0.00, 0.00, 0.00, 0.00, 0.00, 0.00, 0.00, -0.18, 1.02
172, 0.00, 29185.37, 0.00, 0.00, 0.00, 0.00, 0.00, 0.00, 0.00, -0.18, 1.02
173, 0.00, 29176.94, 0.00, 0.00, 0.00, 0.00, 0.00, 0.00, 0.00, -0.18, 1.02
174, 0.00, 29180.89, 0.00, 0.00, 0.00, 0.00, 0.00, 0.00, 0.00, -0.18, 1.02
175, 0.00, 29174.41, 0.00, 0.00, 0.00, 0.00, 0.00, 0.00, 0.01, -0.18, 1.02
176, 0.00, 29200.94, 0.00, 0.00, 0.00, 0.00, 0.00, 0.00, 0.01, -0.18, 1.02
177, 0.00, 29197.05, 0.00, 0.00, 0.00, 0.00, 0.00, 0.00, 0.01, -0.18, 1.02
178, 0.00, 29175.60, 0.00, 0.00, 0.00, 0.00, 0.00, 0.00, 0.01, -0.18, 1.02
179, 0.00, 29190.33, 0.00, 0.00, 0.00, 0.00, 0.00, 0.00, 0.01, -0.18, 1.02
180, 0.00, 29204.27, 0.00, 0.00, 0.00, 0.00, 0.00, 0.00, 0.01, -0.18, 1.01
181, 0.00, 29190.33, 0.00, 0.00, 0.00, 0.00, 0.00, 0.00, 0.01, -0.18, 1.01
182, 0.00, 29191.56, 0.00, 0.00, 0.00, 0.00, 0.00, 0.00, 0.01, -0.18, 1.01
183, 0.00, 29187.22, 0.00, 0.00, 0.00, 0.00, 0.00, 0.00, 0.01, -0.18, 1.01
184, 0.00, 29192.32, 0.00, 0.00, 0.00, 0.00, 0.00, 0.00, 0.01, -0.18, 1.01
185, 0.00, 29203.54, 0.00, 0.00, 0.00, 0.00, 0.00, 0.00, 0.01, -0.18, 1.01
186, 0.00, 29207.87, 0.00, 0.00, 0.00, 0.00, 0.00, 0.00, 0.01, -0.18, 1.01
187, 0.00, 29200.50, 0.00, 0.00, 0.00, 0.00, 0.00, 0.00, 0.01, -0.18, 1.01
188, 0.00, 29183.98, 0.00, 0.00, 0.00, 0.00, 0.00, 0.00, 0.01, -0.18, 1.01
189, 0.00, 29186.48, 0.00, 0.00, 0.00, 0.00, 0.00, 0.00, 0.01, -0.18, 1.01
190, 0.00, 29198.13, 0.00, 0.00, 0.00, 0.00, 0.00, 0.00, 0.01, -0.18, 1.01
191, 0.00, 29204.01, 0.00, 0.00, 0.00, 0.00, 0.00, 0.00, 0.01, -0.18, 1.01
192, 0.00, 29207.83, 0.00, 0.00, 0.00, 0.00, 0.00, 0.00, 0.01, -0.18, 1.01
193, 0.00, 29185.32, 0.00, 0.00, 0.00, 0.00, 0.00, 0.00, 0.01, -0.18, 1.01
194, 0.00, 29189.77, 0.00, 0.00, 0.00, 0.00, 0.00, 0.00, 0.01, -0.18, 1.01
195, 0.00, 29220.50, 0.00, 0.00, 0.00, 0.00, 0.00, 0.00, 0.01, -0.18, 1.01
196, 0.00, 29210.58, 0.00, 0.00, 0.00, 0.00, 0.00, 0.00, 0.01, -0.18, 1.01
197, 0.00, 29230.92, 0.00, 0.00, 0.00, 0.00, 0.00, 0.00, 0.01, -0.18, 1.01
198, 0.00, 29221.28, 0.00, 0.00, 0.00, 0.00, 0.00, 0.00, 0.01, -0.18, 1.01
199, 0.00, 29211.99, 0.00, 0.00, 0.00, 0.00, 0.00, 0.00, 0.01, -0.18, 1.01
200, 0.00, 29195.49, 0.00, 0.00, 0.00, 0.00, 0.00, 0.00, 0.01, -0.19, 1.01
201, 0.00, 29203.11, 0.00, 0.00, 0.00, 0.00, 0.00, 0.00, 0.01, -0.19, 1.01
202, 0.00, 29224.50, 0.00, 0.00, 0.00, 0.00, 0.00, 0.00, 0.01, -0.19, 1.01
203, 0.00, 29251.01, 0.00, 0.00, 0.00, 0.00, 0.00, 0.00, 0.01, -0.19, 1.01
204, 0.00, 29239.01, 0.00, 0.00, 0.00, 0.00, 0.00, 0.00, 0.01, -0.19, 1.01
205, 0.00, 29238.72, 0.00, 0.00, 0.00, 0.00, 0.00, 0.00, 0.01, -0.19, 1.01
206, 0.00, 29254.61, 0.00, 0.00, 0.00, 0.00, 0.00, 0.00, 0.01, -0.19, 1.01
207, 0.00, 29265.85, 0.00, 0.00, 0.00, 0.00, 0.00, 0.00, 0.01, -0.19, 1.01
208, 0.00, 29260.06, 0.00, 0.00, 0.00, 0.00, 0.00, 0.00, 0.01, -0.19, 1.01
209, 0.00, 29245.40, 0.00, 0.00, 0.00, 0.00, 0.00, 0.00, 0.01, -0.19, 1.01
210, 0.00, 29265.09, 0.00, 0.00, 0.00, 0.00, 0.00, 0.00, 0.01, -0.19, 1.01
211, 0.00, 29260.67, 0.00, 0.00, 0.00, 0.00, 0.00, 0.00, 0.01, -0.19, 1.01
212, 0.00, 29238.27, 0.00, 0.00, 0.00, 0.00, 0.00, 0.00, 0.01, -0.19, 1.01
213, 0.00, 29258.72, 0.00, 0.00, 0.00, 0.00, 0.00, 0.00, 0.01, -0.19, 1.01
214, 0.00, 29272.51, 0.00, 0.00, 0.00, 0.00, 0.00, 0.00, 0.01, -0.19, 1.01
215, 0.00, 29256.26, 0.00, 0.00, 0.00, 0.00, 0.00, 0.00, 0.01, -0.18, 1.01
216, 0.00, 29249.69, 0.00, 0.00, 0.00, 0.00, 0.00, 0.00, 0.01, -0.18, 1.01
217, 0.00, 29250.25, 0.00, 0.00, 0.00, 0.00, 0.00, 0.00, 0.01, -0.18, 1.01
218, 0.00, 29269.09, 0.00, 0.00, 0.00, 0.00, 0.00, 0.00, 0.01, -0.18, 1.01
219, 0.00, 29268.27, 0.00, 0.00, 0.00, 0.00, 0.00, 0.00, 0.01, -0.18, 1.01
220, 0.00, 29250.83, 0.00, 0.00, 0.00, 0.00, 0.00, 0.00, 0.01, -0.18, 1.01
221, 0.00, 29252.26, 0.00, 0.00, 0.00, 0.00, 0.00, 0.00, 0.01, -0.18, 1.01
222, 0.00, 29265.81, 0.00, 0.00, 0.00, 0.00, 0.00, 0.00, 0.01, -0.18, 1.01
223, 0.00, 29260.04, 0.00, 0.00, 0.00, 0.00, 0.00, 0.00, 0.01, -0.18, 1.01
224, 0.00, 29261.14, 0.00, 0.00, 0.00, 0.00, 0.00, 0.00, 0.01, -0.18, 1.01
225, 0.00, 29241.67, 0.00, 0.00, 0.00, 0.00, 0.00, 0.00, 0.01, -0.18, 1.01
226, 0.00, 29258.19, 0.00, 0.00, 0.00, 0.00, 0.00, 0.00, 0.01, -0.18, 1.01
227, 0.00, 29263.26, 0.00, 0.00, 0.00, 0.00, 0.00, 0.00, 0.01, -0.18, 1.01
228, 0.00, 29240.46, 0.00, 0.00, 0.00, 0.00, 0.00, 0.00, 0.01, -0.18, 1.01
229, 0.00, 29242.14, 0.00, 0.00, 0.00, 0.00, 0.00, 0.00, 0.01, -0.18, 1.01
230, 0.00, 29253.49, 0.00, 0.00, 0.00, 0.00, 0.00, 0.00, 0.01, -0.18, 1.01
231, 0.00, 29253.36, 0.00, 0.00, 0.00, 0.00, 0.00, 0.00, 0.01, -0.18, 1.01
232, 0.00, 29248.40, 0.00, 0.00, 0.00, 0.00, 0.00, 0.00, 0.01, -0.18, 1.01
233, 0.00, 29234.36, 0.00, 0.00, 0.00, 0.00, 0.00, 0.00, 0.01, -0.18, 1.01
234, 0.00, 29249.63, 0.00, 0.00, 0.00, 0.00, 0.00, 0.00, 0.01, -0.18, 1.01
235, 0.00, 29257.83, 0.00, 0.00, 0.00, 0.00, 0.00, 0.00, 0.01, -0.18, 1.01
236, 0.00, 29259.24, 0.00, 0.00, 0.00, 0.00, 0.00, 0.00, 0.01, -0.18, 1.01
237, 0.00, 29258.75, 0.00, 0.00, 0.00, 0.00, 0.00, 0.00, 0.01, -0.18, 1.01
238, 0.00, 29252.69, 0.00, 0.00, 0.00, 0.00, 0.00, 0.00, 0.01, -0.18, 1.01
239, 0.00, 29260.69, 0.00, 0.00, 0.00, 0.00, 0.00, 0.00, 0.01, -0.18, 1.01
240, 0.00, 29263.19, 0.00, 0.00, 0.00, 0.00, 0.00, 0.00, 0.01, -0.18, 1.02
241, 0.00, 29248.17, 0.00, 0.00, 0.00, 0.00, 0.00, 0.00, 0.01, -0.18, 1.02
242, 0.00, 29251.35, 0.00, 0.00, 0.00, 0.00, 0.00, 0.00, 0.01, -0.18, 1.02
243, 0.00, 29280.65, 0.00, 0.00, 0.00, 0.00, 0.00, 0.00, 0.01, -0.18, 1.02
244, 0.00, 29292.70, 0.00, 0.00, 0.00, 0.00, 0.00, 0.00, 0.01, -0.18, 1.02
245, 0.00, 29281.41, 0.00, 0.00, 0.00, 0.00, 0.00, 0.00, 0.01, -0.18, 1.01
246, 0.00, 29251.46, 0.00, 0.00, 0.00, 0.00, 0.00, 0.00, 0.01, -0.18, 1.01
247, 0.00, 29254.14, 0.00, 0.00, 0.00, 0.00, 0.00, 0.00, 0.01, -0.18, 1.01
248, 0.00, 29258.50, 0.00, 0.00, 0.00, 0.00, 0.00, 0.00, 0.01, -0.18, 1.01
249, 0.00, 29271.62, 0.00, 0.00, 0.00, 0.00, 0.00, 0.00, 0.01, -0.18, 1.01
250, 0.00, 29300.45, 0.00, 0.00, 0.00, 0.00, 0.00, 0.00, 0.01, -0.18, 1.01
251, 0.00, 29275.51, 0.00, 0.00, 0.00, 0.00, 0.00, 0.00, 0.01, -0.18, 1.01
252, 0.00, 29258.59, 0.00, 0.00, 0.00, 0.00, 0.00, 0.00, 0.01, -0.18, 1.01
253, 0.00, 29256.02, 0.00, 0.00, 0.00, 0.00, 0.00, 0.00, 0.01, -0.18, 1.01
254, 0.00, 29263.15, 0.00, 0.00, 0.00, 0.00, 0.00, 0.00, 0.01, -0.18, 1.01
255, 0.00, 29267.33, 0.00, 0.00, 0.00, 0.00, 0.00, 0.00, 0.01, -0.18, 1.02
0, 0.00, 29270.14, 0.00, 0.00, 0.00, 0.00, 0.00, 0.00, 0.01, -0.18, 1.02
1, 0.00, 29285.43, 0.00, 0.00, 0.00, 0.00, 0.00, 0.00, 0.01, -0.18, 1.02
2, 0.00, 29272.49, 0.00, 0.00, 0.00, 0.00, 0.00, 0.00, 0.01, -0.18, 1.02
3, 0.00, 29291.13, 0.00, 0.00, 0.00, 0.00, 0.00, 0.00, 0.01, -0.18, 1.02
4, 0.00, 29293.26, 0.00, 0.00, 0.00, 0.00, 0.00, 0.00, 0.01, -0.19, 1.01
5, 0.00, 29298.42, 0.00, 0.00, 0.00, 0.00, 0.00, 0.00, 0.01, -0.19, 1.01
6, 0.00, 29288.67, 0.00, 0.00, 0.00, 0.00, 0.00, 0.00, 0.01, -0.19, 1.01
7, 0.00, 29282.37, 0.00, 0.00, 0.00, 0.00, 0.00, 0.00, 0.01, -0.19, 1.01
8, 0.00, 29281.70, 0.00, 0.00, 0.00, 0.00, 0.00, 0.00, 0.01, -0.19, 1.01
9, 0.00, 29292.09, 0.00, 0.00, 0.00, 0.00, 0.00, 0.00, 0.01, -0.18, 1.02
10, 0.00, 29303.90, 0.00, 0.00, 0.00, 0.00, 0.00, 0.00, 0.01, -0.18, 1.02
11, 0.00, 29303.49, 0.00, 0.00, 0.00, 0.00, 0.00, 0.00, 0.01, -0.18, 1.02
12, 0.00, 29286.55, 0.00, 0.00, 0.00, 0.00, 0.00, 0.00, 0.01, -0.18, 1.02
13, 0.00, 29283.38, 0.00, 0.00, 0.00, 0.00, 0.00, 0.00, 0.01, -0.18, 1.02
14, 0.00, 29314.38, 0.00, 0.00, 0.00, 0.00, 0.00, 0.00, 0.01, -0.19, 1.02
15, 0.00, 29309.35, 0.00, 0.00, 0.00, 0.00, 0.00, 0.00, 0.01, -0.19, 1.02
16, 0.00, 29293.21, 0.00, 0.00, 0.00, 0.00, 0.00, 0.00, 0.01, -0.19, 1.02
17, 0.00, 29296.18, 0.00, 0.00, 0.00, 0.00, 0.00, 0.00, 0.01, -0.19, 1.02
18, 0.00, 29290.51, 0.00, 0.00, 0.00, 0.00, 0.00, 0.00, 0.01, -0.19, 1.02
19, 0.00, 29297.71, 0.00, 0.00, 0.00, 0.00, 0.00, 0.00, 0.01, -0.19, 1.02
20, 0.00, 29288.45, 0.00, 0.00, 0.00, 0.00, 0.00, 0.00, 0.01, -0.19, 1.02
21, 0.00, 29305.62, 0.00, 0.00, 0.00, 0.00, 0.00, 0.00, 0.01, -0.19, 1.02
22, 0.00, 29309.37, 0.00, 0.00, 0.00, 0.00, 0.00, 0.00, 0.01, -0.19, 1.02
23, 0.00, 29294.87, 0.00, 0.00, 0.00, 0.00, 0.00, 0.00, 0.01, -0.19, 1.02
24, 0.00, 29310.15, 0.00, 0.00, 0.00, 0.00, 0.00, 0.00, 0.01, -0.19, 1.02
25, 0.00, 29313.31, 0.00, 0.00, 0.00, 0.00, 0.00, 0.00, 0.01, -0.19, 1.02
26, 0.00, 29310.54, 0.00, 0.00, 0.00, 0.00, 0.00, 0.00, 0.01, -0.19, 1.02
27, 0.00, 29305.88, 0.00, 0.00, 0.00, 0.00, 0.00, 0.00, 0.01, -0.19, 1.02
28, 0.00, 29318.38, 0.00, 0.00, 0.00, 0.00, 0.00, 0.00, 0.01, -0.19, 1.02
29, 0.00, 29318.47, 0.00, 0.00, 0.00, 0.00, 0.00, 0.00, 0.01, -0.19, 1.01
30, 0.00, 29320.10, 0.00, 0.00, 0.00, 0.00, 0.00, 0.00, 0.01, -0.19, 1.01
31, 0.00, 29317.35, 0.00, 0.00, 0.00, 0.00, 0.00, 0.00, 0.01, -0.19, 1.01
32, 0.00, 29303.40, 0.00, 0.00, 0.00, 0.00, 0.00, 0.00, 0.01, -0.19, 1.01
33, 0.00, 29317.15, 0.00, 0.00, 0.00, 0.00, 0.00, 0.00, 0.01, -0.19, 1.01
34, 0.00, 29331.84, 0.00, 0.00, 0.00, 0.00, 0.00, 0.00, 0.01, -0.19, 1.00
35, 0.00, 29322.09, 0.00, 0.00, 0.00, 0.00, 0.00, 0.00, 0.01, -0.19, 1.00
36, 0.00, 29333.71, 0.00, 0.00, 0.00, 0.00, 0.00, 0.00, 0.01, -0.19, 1.00
37, 0.00, 29326.02, 0.00, 0.00, 0.00, 0.00, 0.00, 0.00, 0.01, -0.19, 1.00
38, 0.00, 29324.73, 0.00, 0.00, 0.00, 0.00, 0.00, 0.00, 0.01, -0.19, 1.00
39, 0.00, 29332.53, 0.00, 0.00, 0.00, 0.00, 0.00, 0.00, 0.01, -0.18, 1.00
40, 0.00, 29326.07, 0.00, 0.00, 0.00, 0.00, 0.00, 0.00, 0.01, -0.18, 1.00
41, 0.00, 29342.36, 0.00, 0.00, 0.00, 0.00, 0.00, 0.00, 0.01, -0.18, 1.00
42, 0.00, 29368.22, 0.00, 0.00, 0.00, 0.00, 0.00, 0.00, 0.01, -0.18, 1.00
43, 0.00, 29372.65, 0.00, 0.00, 0.00, 0.00, 0.00, 0.00, 0.01, -0.18, 1.00
44, 0.00, 29361.38, 0.00, 0.00, 0.00, 0.00, 0.00, 0.00, 0.01, -0.19, 1.01
45, 0.00, 29359.31, 0.00, 0.00, 0.00, 0.00, 0.00, 0.00, 0.01, -0.19, 1.01
46, 0.00, 29351.79, 0.00, 0.00, 0.00, 0.00, 0.00, 0.00, 0.01, -0.19, 1.01
47, 0.00, 29355.62, 0.00, 0.00, 0.00, 0.00, 0.00, 0.00, 0.01, -0.19, 1.01
48, 0.00, 29365.79, 0.00, 0.00, 0.00, 0.00, 0.00, 0.00, 0.01, -0.19, 1.01
49, 0.00, 29378.04, 0.00, 0.00, 0.00, 0.00, 0.00, 0.00, 0.01, -0.18, 1.02
50, 0.00, 29391.27, 0.00, 0.00, 0.00, 0.00, 0.00, 0.00, 0.01, -0.18, 1.02
51, 0.00, 29386.22, 0.00, 0.00, 0.00, 0.00, 0.00, 0.00, 0.01, -0.18, 1.02
52, 0.00, 29386.53, 0.00, 0.00, 0.00, 0.00, 0.00, 0.00, 0.01, -0.18, 1.02
53, 0.00, 29382.13, 0.00, 0.00, 0.00, 0.00, 0.00, 0.00, 0.01, -0.18, 1.02
54, 0.00, 29384.99, 0.00, 0.00, 0.00, 0.00, 0.00, 0.00, 0.01, -0.19, 1.02
55, 0.00, 29400.10, 0.00, 0.00, 0.00, 0.00, 0.00, 0.00, 0.01, -0.19, 1.02
56, 0.00, 29405.75, 0.00, 0.00, 0.00, 0.00, 0.00, 0.00, 0.01, -0.19, 1.02
57, 0.00, 29409.57, 0.00, 0.00, 0.00, 0.00, 0.00, 0.00, 0.01, -0.19, 1.02
58, 0.00, 29408.81, 0.00, 0.00, 0.00, 0.00, 0.00, 0.00, 0.01, -0.19, 1.02
59, 0.00, 29423.34, 0.00, 0.00, 0.00, 0.00, 0.00, 0.00, 0.01, -0.18, 1.02
60, 0.00, 29412.37, 0.00, 0.00, 0.00, 0.00, 0.00, 0.00, 0.01, -0.18, 1.02
61, 0.00, 29398.67, 0.00, 0.00, 0.00, 0.00, 0.00, 0.00, 0.01, -0.18, 1.02
62, 0.00, 29410.71, 0.00, 0.00, 0.00, 0.00, 0.00, 0.00, 0.01, -0.18, 1.02
63, 0.00, 29422.67, 0.00, 0.00, 0.00, 0.00, 0.00, 0.00, 0.01, -0.18, 1.02
64, 0.00, 29403.50, 0.00, 0.00, 0.00, 0.00, 0.00, 0.00, 0.01, -0.18, 1.02
65, 0.00, 29395.40, 0.00, 0.00, 0.00, 0.00, 0.00, 0.00, 0.01, -0.18, 1.01
66, 0.00, 29413.80, 0.00, 0.00, 0.00, 0.00, 0.00, 0.00, 0.01, -0.18, 1.01
67, 0.00, 29410.27, 0.00, 0.00, 0.00, 0.00, 0.00, 0.00, 0.01, -0.18, 1.01
68, 0.00, 29416.75, 0.00, 0.00, 0.00, 0.00, 0.00, 0.00, 0.01, -0.18, 1.01
69, 0.00, 29404.95, 0.00, 0.00, 0.00, 0.00, 0.00, 0.00, 0.01, -0.18, 1.01
70, 0.00, 29399.79, 0.00, 0.00, 0.00, 0.00, 0.00, 0.00, 0.01, -0.18, 1.01
