%OpenBCI Raw EEG Data
%
%Sample Rate = 250.0 Hz
%First Column = SampleIndex
%Other Columns = EEG data in microvolts followed by Accel Data (in G) interleaved with Aux Data
0, -42634.70, -42592.01, -173426.42, -88695.38, -43214.19, 19586.36, 5345.60, -154976.66, 0.01, 0.05, -0.94
1, -42780.93, -41605.60, -173609.45, -89923.68, -43468.71, 19457.21, 6137.63, -155261.72, 0.01, 0.05, -0.94
2, -43712.57, -36989.05, -174580.17, -92706.23, -44514.44, 18561.13, 10316.47, -156339.31, 0.02, 0.03, -0.94
3, -43723.95, -37368.70, -174632.30, -91857.69, -44635.89, 18574.25, 10095.43, -156492.17, 0.02, 0.03, -0.94
4, -42831.04, -42003.15, -173779.36, -88994.05, -43845.09, 19470.96, 5897.42, -155733.69, 0.02, 0.03, -0.94
5, -42743.48, -42216.79, -173728.08, -89487.04, -43860.85, 19571.92, 5620.99, -155783.89, 0.02, 0.03, -0.94
6, -43667.46, -37587.12, -174691.19, -92441.70, -44897.21, 18681.16, 9787.36, -156853.70, 0.02, 0.03, -0.94
7, -43909.57, -36779.97, -174976.00, -92331.48, -45250.57, 18464.60, 10650.29, -157240.14, 0.03, 0.02, -0.95
8, -43048.54, -41310.92, -174154.64, -89370.99, -44492.13, 19331.60, 6582.79, -156515.78, 0.03, 0.02, -0.95
9, -42727.19, -42694.76, -173871.55, -89109.27, -44275.43, 19661.98, 5220.16, -156331.66, 0.03, 0.02, -0.95
10, -43569.72, -38383.24, -174753.16, -92027.09, -45230.90, 18851.37, 9075.88, -157319.00, 0.03, 0.02, -0.95
11, -44035.57, -36404.00, -175257.09, -92697.42, -45805.92, 18419.42, 10964.36, -157929.08, 0.03, 0.02, -0.95
12, -43276.44, -40529.39, -174535.20, -89841.42, -45148.71, 19189.11, 7306.32, -157304.69, 0.02, 0.02, -0.94
13, -42750.86, -42974.34, -174046.80, -88860.43, -44728.79, 19719.22, 4969.31, -156914.84, 0.02, 0.02, -0.94
14, -43462.07, -39256.12, -174795.38, -91549.52, -45552.83, 19034.79, 8280.20, -157769.48, 0.02, 0.02, -0.94
15, -44120.38, -36230.19, -175495.00, -92957.23, -46324.59, 18409.28, 11080.36, -158573.13, 0.02, 0.02, -0.94
16, -43515.47, -39630.22, -174931.23, -90420.42, -45825.12, 19026.05, 8111.07, -158106.47, 0.02, 0.02, -0.94
17, -42823.32, -42993.69, -174275.61, -88757.74, -45233.98, 19723.22, 4969.87, -157549.08, 0.02, 0.02, -0.94
18, -43356.39, -40115.66, -174845.16, -91038.72, -45877.00, 19212.96, 7523.04, -158227.14, 0.02, 0.02, -0.94
19, -44164.68, -36274.89, -175691.59, -93071.14, -46798.38, 18439.27, 11044.73, -159185.05, 0.02, 0.02, -0.94
20, -43762.39, -38714.32, -175327.77, -91023.32, -46501.89, 18859.02, 8980.35, -158924.09, 0.02, 0.02, -0.94
21, -42939.51, -42809.78, -174541.95, -88770.66, -45782.50, 19683.86, 5204.72, -158237.97, 0.02, 0.02, -0.94
22, -43259.45, -40970.88, -174900.03, -90491.73, -46211.25, 19382.96, 6799.58, -158700.31, 0.02, 0.02, -0.94
23, -44164.09, -36561.86, -175845.22, -93025.50, -47230.38, 18514.13, 10802.44, -159753.81, 0.02, 0.02, -0.94
24, -43981.30, -37910.88, -175702.56, -91587.55, -47157.29, 18718.04, 9720.53, -159713.25, 0.02, 0.02, -0.94
25, -43097.00, -42404.50, -174855.09, -88936.25, -46375.20, 19605.94, 5605.06, -158965.53, 0.02, 0.02, -0.94
26, -43188.80, -41702.72, -174983.23, -89994.58, -46574.51, 19529.79, 6140.49, -159199.27, 0.02, 0.02, -0.94
27, -44124.62, -37056.20, -175956.88, -92836.09, -47623.81, 18628.79, 10327.71, -160281.97, 0.02, 0.02, -0.94
28, -44179.36, -37208.16, -176052.95, -92128.61, -47789.79, 18598.10, 10307.80, -160479.58, 0.02, 0.02, -0.94
29, -43286.23, -41836.07, -175198.95, -89237.93, -47000.26, 19493.71, 6120.51, -159722.66, 0.02, 0.02, -0.94
30, -43141.44, -42309.14, -175090.66, -89569.74, -46963.50, 19645.91, 5586.64, -159717.53, 0.02, 0.02, -0.94
31, -44047.17, -37731.09, -176033.86, -92529.24, -47982.42, 18771.33, 9716.30, -160769.31, 0.02, 0.02, -0.94
32, -44347.22, -36605.76, -176373.91, -92623.52, -48393.69, 18498.73, 10850.74, -161214.00, 0.03, 0.02, -0.94
33, -43508.00, -41045.31, -175574.05, -89677.09, -47658.75, 19341.72, 6878.37, -160512.00, 0.03, 0.02, -0.94
34, -43130.84, -42715.72, -175234.14, -89227.38, -47387.53, 19723.60, 5249.62, -160273.83, 0.03, 0.02, -0.94
35, -43944.51, -38529.42, -176084.69, -92101.01, -48314.43, 18937.20, 9010.30, -161233.44, 0.03, 0.02, -0.94
36, -44462.78, -36281.64, -176641.27, -92958.16, -48945.31, 18449.55, 11134.99, -161895.78, 0.03, 0.02, -0.94
37, -43741.16, -40226.30, -175956.92, -90175.67, -48327.69, 19179.12, 7652.48, -161311.63, 0.03, 0.02, -0.94
38, -43170.76, -42919.75, -175422.50, -89011.95, -47862.04, 19753.44, 5103.93, -160878.42, 0.03, 0.02, -0.94
39, -43844.35, -39383.30, -176131.94, -91615.04, -48645.48, 19107.05, 8266.32, -161695.78, 0.03, 0.02, -0.94
40, -44545.93, -36132.84, -176873.06, -93180.06, -49458.04, 18440.50, 11275.65, -162543.33, 0.03, 0.02, -0.94
41, -43983.11, -39340.48, -176347.92, -90730.53, -48998.29, 19017.40, 8489.93, -162117.91, 0.03, 0.02, -0.94
42, -43257.55, -42884.41, -175656.00, -88920.31, -48372.50, 19745.42, 5201.50, -161527.95, 0.02, 0.01, -0.94
43, -43745.85, -40237.81, -176178.92, -91070.68, -48968.78, 19279.45, 7545.86, -162158.55, 0.02, 0.01, -0.94
44, -44578.47, -36254.37, -177049.06, -93229.62, -49914.10, 18482.30, 11173.26, -163136.06, 0.02, 0.01, -0.94
45, -44216.02, -38491.09, -176724.89, -91294.29, -49658.13, 18860.58, 9289.09, -162912.61, 0.02, 0.01, -0.94
46, -43374.03, -42691.76, -175920.03, -88946.66, -48917.77, 19705.39, 5421.93, -162205.91, 0.02, 0.01, -0.94
47, -43641.06, -41115.86, -176223.36, -90521.45, -49291.41, 19457.26, 6768.09, -162612.94, 0.02, 0.00, -0.93
48, -44553.75, -36630.02, -177175.08, -93138.80, -50318.58, 18579.46, 10836.57, -163673.38, 0.02, 0.00, -0.93
49, -44432.05, -37661.97, -177094.88, -91890.39, -50308.72, 18722.20, 10034.77, -163694.25, 0.02, 0.00, -0.93
50, -43538.11, -42222.98, -176240.13, -89157.33, -49519.08, 19616.76, 5876.30, -162935.27, 0.02, 0.00, -0.93
51, -43572.20, -41803.28, -176312.05, -90047.15, -49660.34, 19593.90, 6151.60, -163109.06, 0.02, 0.00, -0.93
52, -44505.25, -37162.84, -177284.91, -92923.89, -50707.66, 18694.73, 10345.68, -164189.00, 0.02, 0.01, -0.94
53, -44627.25, -36980.89, -177444.44, -92417.66, -50937.66, 18600.03, 10635.81, -164451.56, 0.02, 0.01, -0.94
54, -43745.22, -41592.15, -176596.36, -89490.28, -50156.46, 19488.35, 6483.77, -163701.59, 0.02, 0.01, -0.94
55, -43543.01, -42376.31, -176427.92, -89621.17, -50060.06, 19700.02, 5680.61, -163636.13, 0.02, 0.01, -0.94
56, -44432.54, -37864.14, -177352.30, -92572.79, -51062.00, 18842.47, 9763.17, -164671.39, 0.02, 0.01, -0.94
57, -44783.26, -36496.31, -177738.16, -92826.50, -51521.82, 18522.96, 11117.13, -165161.66, 0.02, 0.01, -0.93
58, -43967.09, -40857.87, -176957.53, -89901.20, -50807.28, 19346.78, 7230.14, -164477.86, 0.02, 0.01, -0.93
59, -43547.70, -42759.18, -176572.06, -89291.10, -50489.93, 19773.13, 5394.39, -164191.89, 0.02, 0.01, -0.93
60, -44332.76, -38709.62, -177392.28, -92108.74, -51385.79, 19015.68, 9016.56, -165119.75, 0.02, 0.01, -0.93
61, -44897.59, -36204.84, -177994.59, -93143.16, -52063.27, 18484.27, 11359.78, -165827.83, 0.02, 0.01, -0.93
62, -44210.32, -39999.29, -177341.58, -90425.09, -51480.04, 19183.79, 8013.23, -165274.84, 0.02, 0.01, -0.94
63, -43601.10, -42894.32, -176765.34, -89112.85, -50974.36, 19797.70, 5265.13, -164800.55, 0.02, 0.01, -0.94
64, -44228.94, -39549.04, -177431.38, -91625.77, -51717.40, 19192.15, 8235.90, -165574.03, 0.02, 0.01, -0.94
65, -44967.11, -36093.64, -178208.84, -93353.09, -52569.56, 18486.14, 11418.59, -166458.38, 0.02, 0.01, -0.94
66, -44462.94, -39027.35, -177742.00, -91046.90, -52168.39, 19005.60, 8885.67, -166089.97, 0.02, 0.01, -0.94
67, -43703.52, -42775.76, -177016.98, -89078.09, -51509.19, 19768.08, 5414.15, -165463.30, 0.02, 0.01, -0.94
68, -44138.41, -40380.46, -177487.06, -91103.52, -52052.70, 19352.94, 7512.73, -166040.53, 0.02, 0.01, -0.94
69, -44994.77, -36258.26, -178378.11, -93378.79, -53021.84, 18531.88, 11276.10, -167042.92, 0.02, 0.01, -0.94
70, -44693.83, -38202.53, -178111.91, -91605.56, -52825.17, 18854.61, 9655.46, -166878.88, 0.02, 0.01, -0.94
71, -43837.65, -42499.09, -177292.27, -89158.76, -52070.78, 19713.30, 5704.08, -166156.84, 0.02, 0.01, -0.94
72, -44052.16, -41173.59, -177542.30, -90580.30, -52393.74, 19514.77, 6822.31, -166512.13, 0.02, 0.01, -0.94
73, -44979.49, -36605.41, -178506.25, -93278.95, -53434.64, 18623.12, 10956.62, -167586.47, 0.02, 0.01, -0.94
74, -44911.40, -37380.99, -178475.36, -92179.62, -53473.86, 18713.53, 10383.84, -167660.14, 0.02, 0.01, -0.94
75, -44014.43, -41973.42, -177614.64, -89386.55, -52679.84, 19612.00, 6194.32, -166899.84, 0.02, 0.01, -0.94
76, -43990.71, -41845.86, -177626.38, -90096.66, -52763.28, 19647.54, 6192.55, -167014.38, 0.02, 0.01, -0.94
77, -44920.21, -37199.58, -178590.41, -93017.18, -53803.24, 18753.49, 10381.11, -168088.83, 0.02, 0.01, -0.94
78, -45094.33, -36740.52, -178801.92, -92688.05, -54085.54, 18605.46, 10915.16, -168405.66, 0.02, 0.01, -0.94
79, -44215.86, -41327.17, -177960.47, -89741.52, -53310.47, 19487.95, 6777.29, -167662.47, 0.02, 0.01, -0.94
80, -43959.18, -42371.22, -177740.28, -89705.68, -53157.81, 19752.13, 5715.77, -167541.52, 0.02, 0.01, -0.94
81, -44826.91, -37947.41, -178644.77, -92647.22, -54137.62, 18915.74, 9695.36, -168552.52, 0.02, 0.01, -0.94
82, -45236.64, -36257.03, -179091.58, -93118.98, -54658.37, 18537.66, 11322.83, -169104.84, 0.02, 0.01, -0.93
83, -44450.51, -40485.63, -178341.50, -90236.83, -53974.88, 19331.89, 7558.33, -168455.19, 0.02, 0.01, -0.93
84, -43976.43, -42673.14, -177903.94, -89432.08, -53606.28, 19810.71, 5464.62, -168119.48, 0.02, 0.01, -0.93
85, -44727.96, -38768.47, -178690.88, -92195.98, -54469.70, 19086.71, 8959.45, -169016.22, 0.02, 0.01, -0.93
86, -45337.88, -36025.47, -179336.41, -93400.63, -55191.91, 18509.43, 11525.14, -169772.13, 0.02, 0.01, -0.93
87, -44691.44, -39631.77, -178725.38, -90765.31, -54650.55, 19166.58, 8366.06, -169260.50, 0.02, 0.01, -0.94
88, -44039.86, -42767.76, -178108.27, -89277.83, -54102.75, 19821.41, 5434.04, -168742.28, 0.02, 0.01, -0.94
89, -44630.46, -39631.03, -178735.14, -91687.97, -54805.43, 19253.86, 8240.28, -169476.02, 0.02, 0.01, -0.94
90, -45401.82, -35995.52, -179543.53, -93549.87, -55690.00, 18516.70, 11577.15, -170391.52, 0.02, 0.01, -0.94
91, -44929.22, -38765.64, -179108.09, -91323.16, -55323.38, 19003.14, 9185.67, -170056.83, 0.02, 0.01, -0.94
92, -44137.23, -42672.96, -178349.50, -89233.80, -54634.32, 19795.46, 5546.47, -169399.17, 0.02, 0.01, -0.94
93, -44516.45, -40535.36, -178764.97, -91124.44, -55124.41, 19430.42, 7410.65, -169921.91, 0.02, 0.01, -0.94
94, -45397.87, -36255.45, -179684.89, -93536.10, -56121.23, 18580.13, 11309.40, -170950.05, 0.02, 0.01, -0.94
95, -45152.64, -37919.15, -179477.28, -91926.95, -55983.83, 18844.26, 9943.02, -170845.58, 0.02, 0.01, -0.94
96, -44280.10, -42320.99, -178639.11, -89379.13, -55213.43, 19718.44, 5906.09, -170106.66, 0.02, 0.01, -0.94
97, -44438.26, -41280.03, -178833.53, -90640.26, -55479.96, 19573.40, 6759.93, -170404.53, 0.03, 0.01, -0.93
98, -45371.63, -36679.39, -179802.03, -93403.34, -56524.79, 18674.55, 10936.13, -171482.83, 0.03, 0.01, -0.93
99, -45369.59, -37121.78, -179836.94, -92506.24, -56631.25, 18700.59, 10661.36, -171621.89, 0.03, 0.01, -0.93
100, -44469.42, -41761.80, -178972.00, -89642.90, -55834.90, 19602.57, 6441.10, -170856.06, 0.03, 0.01, -0.93
101, -44386.70, -41934.53, -178923.08, -90169.59, -55859.93, 19696.16, 6186.11, -170909.41, 0.03, 0.01, -0.93
102, -45307.39, -37307.45, -179879.05, -93115.09, -56894.24, 18806.73, 10366.22, -171974.36, 0.03, 0.02, -0.93
103, -45541.68, -36542.04, -180149.73, -92978.70, -57236.38, 18600.21, 11180.32, -172350.66, 0.03, 0.02, -0.93
104, -44681.80, -41060.18, -179327.72, -90032.13, -56477.71, 19464.30, 7123.97, -171625.56, 0.03, 0.02, -0.93
105, -44372.14, -42381.39, -179052.00, -89811.83, -56273.09, 19780.91, 5814.65, -171452.89, 0.03, 0.02, -0.93
106, -45215.99, -38060.41, -179928.52, -92723.17, -57229.27, 18966.97, 9693.04, -172441.84, 0.03, 0.02, -0.93
107, -45672.48, -36124.73, -180422.09, -93361.91, -57796.22, 18541.24, 11533.72, -173042.06, 0.03, 0.02, -0.94
108, -44911.52, -40248.11, -179696.67, -90517.30, -57138.41, 19310.99, 7872.93, -172416.13, 0.03, 0.02, -0.94
109, -44393.85, -42645.25, -179213.22, -89564.82, -56725.33, 19829.84, 5580.92, -172036.03, 0.03, 0.02, -0.94
110, -45107.99, -38903.19, -179962.19, -92260.55, -57551.92, 19138.55, 8927.42, -172895.59, 0.03, 0.02, -0.94
111, -45762.27, -35909.04, -180652.81, -93643.99, -58318.40, 18517.53, 11705.97, -173693.48, 0.03, 0.02, -0.94
112, -45155.53, -39308.16, -180082.20, -91105.84, -57817.08, 19137.09, 8731.49, -173220.11, 0.03, 0.01, -0.94
113, -44461.33, -42657.95, -179423.17, -89453.04, -57227.37, 19831.88, 5594.48, -172660.81, 0.03, 0.01, -0.94
114, -45003.25, -39735.52, -179998.86, -91753.86, -57879.82, 19310.97, 8181.48, -173345.80, 0.03, 0.01, -0.94
115, -45807.26, -35921.93, -180841.13, -93764.09, -58798.92, 18540.64, 11688.15, -174295.86, 0.03, 0.01, -0.94
116, -45393.53, -38410.53, -180465.50, -91691.81, -58493.04, 18968.61, 9558.25, -174021.44, 0.03, 0.01, -0.94
117, -44574.85, -42481.52, -179680.33, -89463.30, -57775.14, 19789.36, 5794.58, -173336.61, 0.03, 0.01, -0.94
118, -44904.81, -40601.18, -180043.27, -91207.23, -58211.29, 19477.06, 7435.37, -173806.25, 0.03, 0.01, -0.94
119, -45804.47, -36222.07, -180978.84, -93712.16, -59224.05, 18609.12, 11432.45, -174850.45, 0.03, 0.01, -0.94
120, -45612.58, -37620.78, -180822.59, -92245.29, -59139.29, 18819.97, 10323.17, -174797.86, 0.03, 0.01, -0.94
121, -44727.85, -42105.48, -179971.48, -89601.48, -58354.68, 19707.89, 6217.85, -174045.47, 0.03, 0.01, -0.94
122, -44822.62, -41374.26, -180101.50, -90674.95, -58556.47, 19626.75, 6783.17, -174276.36, 0.03, 0.02, -0.94
123, -45755.50, -36742.29, -181071.28, -93497.43, -59603.07, 18728.30, 10980.45, -175353.08, 0.03, 0.02, -0.94
124, -45807.44, -36914.87, -181159.41, -92769.28, -59764.41, 18699.65, 10963.93, -175546.95, 0.03, 0.02, -0.94
125, -44915.80, -41536.16, -180301.50, -89883.38, -58974.76, 19593.43, 6777.45, -174788.59, 0.03, 0.02, -0.94
126, -44782.75, -41966.56, -180200.77, -90244.31, -58947.89, 19735.09, 6283.86, -174791.42, 0.03, 0.02, -0.94
127, -45692.82, -37382.73, -181146.73, -93197.05, -59969.59, 18856.96, 10432.12, -175843.47, 0.03, 0.01, -0.94
128, -45984.91, -36318.61, -181476.13, -93247.20, -60370.50, 18593.95, 11519.82, -176275.66, 0.03, 0.01, -0.94
129, -45142.32, -40779.13, -180668.56, -90296.57, -59630.14, 19442.15, 7519.24, -175566.17, 0.03, 0.01, -0.94
130, -44778.30, -42390.75, -180337.78, -89884.70, -59369.85, 19813.46, 5948.49, -175335.33, 0.03, 0.01, -0.94
131, -45603.28, -38164.62, -181197.16, -92770.17, -60308.22, 19017.78, 9766.44, -176302.42, 0.03, 0.01, -0.94
132, -46113.21, -35962.64, -181741.78, -93585.16, -60930.54, 18539.50, 11852.95, -176954.89, 0.03, 0.01, -0.94
133, -45379.54, -39961.77, -181042.58, -90777.70, -60300.54, 19281.98, 8310.58, -176355.64, 0.03, 0.01, -0.94
134, -44817.19, -42604.88, -180515.19, -89650.41, -59842.82, 19847.92, 5796.21, -175928.05, 0.03, 0.01, -0.94
135, -45494.56, -39046.29, -181230.83, -92261.60, -60631.90, 19196.04, 8981.91, -176747.38, 0.03, 0.01, -0.94
136, -46188.80, -35829.22, -181963.73, -93804.28, -61437.61, 18536.95, 11960.37, -177585.61, 0.03, 0.01, -0.94
137, -45618.99, -39070.16, -181429.30, -91339.08, -60970.91, 19122.16, 9138.02, -177150.52, 0.02, 0.01, -0.93
138, -44893.41, -42595.36, -180738.28, -89554.20, -60348.75, 19850.29, 5829.51, -176558.23, 0.02, 0.01, -0.93
139, -45382.11, -39925.33, -181264.34, -91730.28, -60950.52, 19381.85, 8176.33, -177188.80, 0.02, 0.01, -0.93
140, -46217.84, -35935.82, -182137.34, -93887.09, -61899.85, 18579.89, 11824.61, -178168.45, 0.02, 0.01, -0.93
141, -45859.23, -38167.59, -181813.84, -91955.92, -61645.24, 18957.10, 9936.65, -177945.61, 0.02, 0.01, -0.93
142, -45020.55, -42350.30, -181009.42, -89625.55, -60907.41, 19799.58, 6060.72, -177238.53, 0.02, 0.01, -0.93
143, -45291.83, -40755.52, -181316.30, -91212.08, -61286.94, 19547.43, 7427.98, -177648.48, 0.02, 0.01, -0.94
144, -46202.62, -36297.60, -182264.34, -93807.16, -62313.22, 18670.43, 11494.58, -178705.70, 0.02, 0.01, -0.94
145, -46064.62, -37427.35, -182162.47, -92498.20, -62283.71, 18829.24, 10608.32, -178706.81, 0.02, 0.01, -0.94
146, -45170.39, -41977.78, -181301.59, -89784.56, -61491.23, 19725.39, 6443.25, -177943.17, 0.02, 0.01, -0.94
147, -45214.20, -41506.34, -181378.66, -90706.28, -61643.29, 19692.82, 6773.72, -178123.50, 0.02, 0.01, -0.94
148, -46153.58, -36833.62, -182351.78, -93590.87, -62698.03, 18785.66, 11009.55, -179206.58, 0.03, 0.02, -0.93
149, -46263.48, -36707.78, -182495.84, -93050.69, -62919.22, 18699.07, 11246.12, -179455.33, 0.03, 0.02, -0.93
150, -45376.32, -41324.82, -181640.75, -90130.79, -62135.41, 19588.91, 7064.13, -178698.61, 0.03, 0.02, -0.93
151, -45186.11, -42039.81, -181482.22, -90310.70, -62051.95, 19787.53, 6309.29, -178642.72, 0.03, 0.02, -0.93
152, -46077.72, -37514.25, -182409.47, -93267.95, -63058.49, 18926.12, 10391.73, -179677.06, 0.03, 0.02, -0.93
153, -46422.11, -36172.70, -182791.86, -93505.52, -63516.77, 18609.59, 11722.57, -180161.25, 0.03, 0.01, -0.93
154, -45601.67, -40543.00, -182007.08, -90577.49, -62801.27, 19436.61, 7817.10, -179473.75, 0.03, 0.01, -0.93
155, -45188.77, -42401.91, -181628.28, -89989.41, -62493.73, 19855.90, 6009.53, -179193.30, 0.03, 0.01, -0.93
156, -45977.25, -38332.91, -182452.34, -92814.95, -63396.12, 19093.66, 9655.89, -180123.11, 0.03, 0.01, -0.93
157, -46530.21, -35885.28, -183041.72, -93808.84, -64061.98, 18570.70, 11954.65, -180820.69, 0.03, 0.01, -0.93
158, -45832.38, -39728.17, -182376.39, -91068.23, -63467.53, 19279.52, 8568.85, -180256.91, 0.02, 0.01, -0.93
159, -45229.98, -42592.90, -181805.00, -89780.45, -62967.48, 19887.82, 5858.41, -179784.63, 0.02, 0.01, -0.93
160, -45868.62, -39221.05, -182474.83, -92301.66, -63715.37, 19275.14, 8864.28, -180560.88, 0.02, 0.01, -0.93
161, -46599.50, -35814.63, -183239.75, -93993.69, -64559.75, 18578.72, 11995.91, -181432.88, 0.02, 0.01, -0.93
162, -46078.88, -38837.83, -182751.14, -91644.88, -64145.84, 19113.60, 9379.22, -181043.42, 0.02, 0.01, -0.93
163, -45326.57, -42534.27, -182031.39, -89721.89, -63497.86, 19867.59, 5932.22, -180420.84, 0.03, 0.01, -0.95
164, -45773.71, -40085.37, -182512.36, -91779.43, -64055.56, 19439.60, 8081.14, -181005.47, 0.03, 0.01, -0.95
165, -46628.66, -35977.97, -183402.16, -94037.14, -65024.24, 18617.21, 11823.92, -182002.02, 0.03, 0.01, -0.95
166, -46318.85, -37977.02, -183126.45, -92235.27, -64821.44, 18944.09, 10161.33, -181826.36, 0.03, 0.01, -0.95
167, -45465.79, -42260.75, -182304.47, -89802.65, -64070.11, 19799.20, 6212.85, -181100.63, 0.03, 0.01, -0.95
168, -45687.90, -40903.42, -182559.13, -91246.01, -64399.38, 19592.78, 7359.09, -181456.19, 0.02, 0.01, -0.95
169, -46611.77, -36361.17, -183517.45, -93930.45, -65436.92, 18703.04, 11481.96, -182520.97, 0.02, 0.01, -0.95
170, -46533.45, -37202.29, -183473.45, -92795.43, -65467.18, 18803.87, 10867.04, -182577.42, 0.02, 0.01, -0.95
171, -45637.19, -41798.81, -182608.77, -90010.78, -64672.94, 19703.46, 6677.07, -181807.94, 0.02, 0.01, -0.95
172, -45624.51, -41616.62, -182627.77, -90752.44, -64766.64, 19727.00, 6734.45, -181927.23, 0.02, 0.01, -0.95
173, -46547.30, -36986.79, -183585.39, -93656.20, -65802.62, 18833.87, 10906.18, -182990.13, 0.03, 0.01, -0.94
174, -46707.86, -36592.91, -183780.86, -93294.93, -66073.30, 18696.85, 11389.24, -183287.63, 0.03, 0.01, -0.94
175, -45834.02, -41174.46, -182939.13, -90360.10, -65302.30, 19575.19, 7269.50, -182542.36, 0.03, 0.01, -0.94
176, -45592.98, -42148.06, -182730.89, -90368.70, -65167.94, 19822.96, 6277.73, -182431.22, 0.03, 0.01, -0.94
177, -46468.87, -37695.81, -183641.28, -93316.36, -66156.80, 18975.92, 10295.44, -183445.67, 0.03, 0.01, -0.94
178, -46868.34, -36080.77, -184073.63, -93737.09, -66665.26, 18607.63, 11868.44, -183980.84, 0.03, 0.01, -0.94
179, -46073.65, -40356.63, -183311.80, -90836.95, -65972.60, 19410.34, 8054.12, -183311.08, 0.03, 0.01, -0.94
180, -45613.23, -42475.53, -182884.81, -90078.22, -65617.34, 19874.25, 6021.31, -182978.84, 0.03, 0.01, -0.94
181, -46369.83, -38546.30, -183675.98, -92849.34, -66487.32, 19141.27, 9537.76, -183874.34, 0.03, 0.01, -0.94
182, -46969.57, -35854.59, -184311.03, -94016.58, -67199.96, 18572.73, 12056.20, -184612.95, 0.03, 0.01, -0.94
183, -46309.04, -39523.71, -183684.91, -91354.80, -66644.56, 19243.49, 8846.28, -184081.42, 0.03, 0.01, -0.94
184, -45664.25, -42605.17, -183071.44, -89907.12, -66101.73, 19889.56, 5944.54, -183562.94, 0.03, 0.01, -0.94
185, -46259.71, -39430.53, -183699.86, -92333.47, -66806.88, 19315.10, 8769.62, -184285.80, 0.03, 0.01, -0.94
186, -47022.14, -35843.64, -184496.91, -94167.92, -67683.38, 18584.22, 12056.60, -185100.36, 0.03, 0.01, -0.94
187, -46545.23, -38656.91, -184053.63, -91931.80, -67313.69, 19074.67, 9631.84, -184770.13, 0.03, 0.01, -0.94
188, -45763.74, -42517.18, -183301.94, -89881.44, -66635.48, 19857.96, 6034.88, -184132.66, 0.02, 0.02, -0.94
189, -46159.10, -40316.64, -183726.69, -91808.31, -67139.79, 19484.42, 7943.00, -184617.17, 0.02, 0.02, -0.94
190, -47041.75, -36072.63, -184642.91, -94197.87, -68137.19, 18636.59, 11805.50, -185427.11, 0.02, 0.02, -0.94
191, -46798.07, -37765.42, -184433.33, -92578.91, -68003.66, 18896.28, 10406.06, -185268.55, 0.02, 0.02, -0.94
192, -45929.77, -42158.05, -183597.33, -90041.90, -67238.67, 19764.73, 6382.88, -184624.64, 0.02, 0.02, -0.94
193, -46098.84, -41064.98, -183800.80, -91330.48, -67517.76, 19607.82, 7293.15, -184868.19, 0.03, 0.02, -0.93
194, -47036.79, -36481.98, -184718.03, -94094.76, -68572.06, 18700.56, 11442.13, -185621.53, 0.03, 0.02, -0.93
195, -47032.18, -37056.29, -184606.50, -93163.99, -68677.92, 18727.81, 11045.18, -185592.25, 0.03, 0.02, -0.93
196, -46142.20, -41686.94, -183719.53, -90336.85, -67891.84, 19620.72, 6827.45, -184970.84, 0.03, 0.02, -0.93
197, -46074.99, -41778.45, -183684.38, -90913.23, -67932.41, 19696.87, 6638.45, -185006.55, 0.03, 0.02, -0.93
198, -47006.03, -37150.30, -184610.63, -93868.36, -68977.86, 18796.65, 10806.11, -185712.80, 0.02, 0.02, -0.95
199, -47245.66, -36481.31, -184737.83, -93721.11, -69329.45, 18584.11, 11512.62, -185841.53, 0.02, 0.02, -0.95
200, -46388.77, -41040.11, -183867.28, -90781.20, -68576.24, 19445.82, 7396.06, -185234.52, 0.02, 0.02, -0.95
201, -46094.41, -42293.43, -183604.59, -90609.81, -68386.27, 19749.11, 6141.25, -185092.69, 0.02, 0.02, -0.95
202, -46959.27, -37936.43, -184474.33, -93549.47, -69361.08, 18915.48, 10060.83, -185746.25, 0.02, 0.02, -0.95
203, -47433.69, -36063.60, -184830.91, -94194.41, -69946.66, 18472.17, 11838.20, -186047.91, 0.03, 0.01, -0.94
204, -46681.41, -40232.29, -184038.31, -91357.79, -69298.25, 19232.27, 8113.71, -185460.33, 0.03, 0.01, -0.94
205, -46176.15, -42603.96, -183563.00, -90430.26, -68897.95, 19741.60, 5850.26, -185157.39, 0.03, 0.01, -0.94
206, -46909.80, -38819.66, -184313.23, -93153.62, -69744.13, 19033.20, 9236.37, -185710.48, 0.03, 0.01, -0.94
207, -47573.92, -35911.79, -184871.66, -94518.51, -70521.00, 18402.15, 11935.96, -186179.47, 0.03, 0.01, -0.94
208, -46971.68, -39406.04, -184200.05, -91966.34, -70023.23, 19016.73, 8869.24, -185649.16, 0.02, 0.01, -0.94
209, -46293.10, -42711.88, -183550.66, -90361.98, -69448.63, 19696.31, 5766.82, -185182.39, 0.02, 0.01, -0.94
210, -46849.57, -39758.03, -184134.92, -92690.38, -70117.95, 19160.12, 8387.67, -185610.73, 0.02, 0.01, -0.94
211, -47668.74, -35991.79, -184871.73, -94701.97, -71050.74, 18375.68, 11841.78, -186220.27, 0.02, 0.01, -0.94
212, -47265.49, -38570.37, -184366.06, -92625.00, -70753.69, 18795.63, 9641.71, -185826.78, 0.02, 0.01, -0.94
213, -46465.88, -42579.94, -183587.41, -90452.01, -70058.12, 19595.95, 5925.25, -185221.41, 0.02, 0.01, -0.94
214, -46810.74, -40645.02, -183964.59, -92230.83, -70515.15, 19267.29, 7593.92, -185501.14, 0.02, 0.01, -0.94
215, -47721.62, -36304.51, -184819.86, -94735.98, -71542.45, 18389.21, 11534.15, -186198.72, 0.02, 0.01, -0.94
216, -47536.73, -37794.68, -184514.27, -93265.53, -71467.45, 18594.37, 10313.18, -185973.38, 0.02, 0.01, -0.94
217, -46662.77, -42275.62, -183650.69, -90659.55, -70697.56, 19469.55, 6201.56, -185276.36, 0.02, 0.01, -0.94
218, -46780.43, -41461.90, -183802.91, -91792.48, -70924.01, 19366.45, 6843.97, -185392.53, 0.02, 0.01, -0.94
219, -47726.49, -36843.09, -184721.88, -94626.20, -71986.12, 18453.06, 11021.53, -186126.36, 0.02, 0.01, -0.94
220, -47790.75, -37092.92, -184653.72, -93903.66, -72160.64, 18413.46, 10924.33, -186107.23, 0.02, 0.01, -0.94
221, -46910.99, -41735.33, -183764.81, -91034.45, -71381.84, 19300.46, 6724.59, -185354.94, 0.02, 0.01, -0.94
222, -46795.21, -42112.50, -183681.44, -91433.14, -71371.84, 19428.90, 6281.49, -185277.36, 0.02, 0.01, -0.94
223, -47717.11, -37526.86, -184596.92, -94399.21, -72410.35, 18538.94, 10425.59, -186008.50, 0.02, 0.01, -0.94
224, -48015.01, -36559.23, -184762.63, -94441.05, -72819.86, 18269.55, 11419.98, -186193.47, 0.02, 0.01, -0.94
225, -47182.50, -41048.93, -183905.20, -91509.42, -72090.37, 19108.08, 7392.91, -185469.72, 0.02, 0.01, -0.94
226, -46836.47, -42595.02, -183594.14, -91148.45, -71849.16, 19460.19, 5886.53, -185217.41, 0.02, 0.01, -0.94
227, -47673.16, -38357.34, -184437.95, -94050.26, -72797.73, 18653.69, 9700.39, -185886.91, 0.02, 0.01, -0.94
228, -48193.42, -36237.12, -184830.41, -94863.21, -73429.48, 18168.39, 11716.87, -186256.70, 0.02, 0.01, -0.94
229, -47469.45, -40286.02, -184050.56, -92066.54, -72808.19, 18904.95, 8138.00, -185601.70, 0.02, 0.01, -0.94
230, -46918.66, -42892.62, -183532.56, -90975.82, -72361.47, 19460.01, 5664.92, -185166.00, 0.02, 0.01, -0.94
231, -47611.70, -39295.41, -184247.91, -93618.02, -73167.92, 18792.74, 8885.20, -185726.41, 0.02, 0.01, -0.94
232, -48315.77, -36156.72, -184848.58, -95152.96, -73986.59, 18123.08, 11798.23, -186260.61, 0.02, 0.01, -0.94
233, -47755.30, -39458.11, -184209.08, -92699.03, -73533.30, 18698.66, 8928.27, -185732.94, 0.03, 0.01, -0.94
234, -47044.63, -42952.83, -183525.42, -90949.91, -72926.16, 19413.94, 5674.86, -185151.20, 0.03, 0.01, -0.94
235, -47555.14, -40218.88, -184064.64, -93164.19, -73549.17, 18925.74, 8095.82, -185576.78, 0.03, 0.01, -0.94
236, -48397.25, -36304.51, -184824.69, -95301.40, -74508.64, 18118.50, 11683.61, -186229.63, 0.03, 0.01, -0.94
237, -48045.83, -38604.95, -184365.88, -93379.39, -74266.06, 18487.98, 9729.24, -185869.86, 0.03, 0.01, -0.94
238, -47218.75, -42780.66, -183559.72, -91072.63, -73543.80, 19316.91, 5893.89, -185190.44, 0.03, 0.01, -0.94
239, -47513.55, -41095.80, -183886.31, -92715.41, -73948.22, 19040.20, 7350.95, -185441.44, 0.03, 0.01, -0.94
240, -48441.17, -36656.28, -184760.58, -95317.16, -74991.76, 18150.53, 11398.63, -186169.81, 0.03, 0.01, -0.94
241, -48316.40, -37854.71, -184506.27, -94019.21, -74979.02, 18301.14, 10453.08, -185995.23, 0.03, 0.01, -0.94
242, -47434.00, -42401.50, -183629.03, -91330.77, -74203.09, 19187.99, 6301.38, -185253.05, 0.03, 0.01, -0.94
243, -47497.25, -41867.81, -183724.47, -92292.79, -74375.80, 19140.20, 6704.20, -185328.97, 0.02, 0.01, -0.94
244, -48445.41, -37226.02, -184647.67, -95176.45, -75439.91, 18227.24, 10907.03, -186085.47, 0.02, 0.01, -0.94
245, -48557.66, -37219.61, -184631.02, -94607.38, -75665.50, 18141.03, 11040.62, -186110.34, 0.02, 0.01, -0.94
246, -47676.87, -41857.20, -183744.23, -91706.52, -74892.73, 19024.98, 6850.05, -185346.81, 0.02, 0.01, -0.94
247, -47506.26, -42497.06, -183607.14, -91941.26, -74831.54, 19205.20, 6174.96, -185214.34, 0.02, 0.01, -0.94
248, -48412.78, -37966.31, -184509.89, -94907.60, -75852.72, 18333.82, 10258.09, -185948.38, 0.03, 0.02, -0.94
249, -48762.47, -36724.34, -184732.16, -95130.07, -76314.98, 18016.78, 11479.95, -186180.91, 0.03, 0.02, -0.94
250, -47950.79, -41124.75, -183889.00, -92218.69, -75610.43, 18836.28, 7543.87, -185463.81, 0.03, 0.02, -0.94
251, -47556.73, -42918.93, -183527.13, -91692.02, -75325.02, 19237.72, 5805.33, -185153.95, 0.03, 0.02, -0.94
252, -48365.51, -38810.72, -184345.98, -94550.65, -76250.16, 18458.14, 9494.08, -185814.22, 0.03, 0.02, -0.94
253, -48929.84, -36435.69, -184789.98, -95538.77, -76931.33, 17926.75, 11727.49, -186231.39, 0.03, 0.02, -0.94
254, -48240.29, -40319.21, -184040.45, -92813.80, -76351.45, 18627.45, 8304.79, -185598.13, 0.03, 0.02, -0.94
255, -47656.87, -43121.18, -183487.92, -91574.22, -75874.65, 19215.75, 5676.81, -185111.48, 0.03, 0.02, -0.94
0, -48315.08, -39686.71, -184170.14, -94129.49, -76647.98, 18583.64, 8756.43, -185664.09, 0.03, 0.02, -0.94
1, -49055.11, -36342.17, -184813.78, -95805.09, -77504.27, 17879.03, 11836.17, -186236.42, 0.03, 0.02, -0.94
2, -48533.44, -39458.63, -184199.38, -93434.67, -77089.78, 18419.87, 9120.38, -185736.42, 0.03, 0.02, -0.93
3, -47793.28, -43112.63, -183481.08, -91556.48, -76455.23, 19166.71, 5712.66, -185126.44, 0.03, 0.02, -0.93
4, -48259.02, -40602.28, -183974.56, -93651.50, -77034.30, 18724.66, 7934.51, -185522.42, 0.03, 0.02, -0.93
5, -49128.48, -36521.39, -184769.77, -95915.38, -78021.76, 17893.08, 11652.32, -186203.80, 0.03, 0.02, -0.93
6, -48822.67, -38612.66, -184351.02, -94102.61, -77826.11, 18220.78, 9894.54, -185877.50, 0.03, 0.02, -0.93
7, -47980.84, -42875.29, -183524.89, -91705.96, -77089.91, 19066.24, 5969.84, -185170.09, 0.02, 0.01, -0.93
8, -48219.44, -41448.76, -183794.81, -93196.35, -77441.30, 18842.39, 7185.37, -185382.19, 0.02, 0.01, -0.93
9, -49154.61, -36933.64, -184686.33, -95877.80, -78494.67, 17943.44, 11278.31, -186125.89, 0.02, 0.01, -0.93
10, -49082.66, -37854.22, -184491.16, -94741.33, -78536.67, 18040.47, 10584.24, -186001.53, 0.02, 0.01, -0.93
11, -48194.45, -42446.52, -183607.22, -91985.07, -77754.66, 18933.13, 6400.71, -185236.86, 0.02, 0.01, -0.93
12, -48201.22, -42192.96, -183646.23, -92777.73, -77872.00, 18940.62, 6533.28, -185257.38, 0.02, 0.02, -0.94
13, -49143.06, -37547.60, -184569.56, -95697.00, -78931.05, 18033.88, 10729.02, -186021.78, 0.02, 0.02, -0.94
14, -49314.99, -37236.04, -184609.80, -95316.30, -79215.01, 17891.56, 11141.09, -186097.31, 0.02, 0.02, -0.94
15, -48448.05, -41832.29, -183726.44, -92397.23, -78454.98, 18764.42, 7007.85, -185349.00, 0.02, 0.02, -0.94
16, -48221.14, -42747.71, -183530.38, -92443.26, -78337.03, 19001.78, 6077.19, -185184.17, 0.02, 0.02, -0.94
17, -49110.29, -38282.17, -184419.13, -95402.36, -79342.12, 18145.28, 10106.32, -185898.05, 0.02, 0.01, -0.94
18, -49509.69, -36774.45, -184693.06, -95796.09, -79855.94, 17778.17, 11569.24, -186177.22, 0.02, 0.01, -0.94
19, -48715.76, -41102.00, -183864.06, -92896.44, -79170.13, 18580.56, 7717.74, -185469.11, 0.02, 0.01, -0.94
20, -48274.38, -43141.35, -183453.59, -92197.19, -78837.04, 19027.23, 5767.22, -185105.42, 0.02, 0.01, -0.94
21, -49050.16, -39165.38, -184244.80, -94997.98, -79728.38, 18280.24, 9339.85, -185756.53, 0.02, 0.01, -0.94
22, -49656.23, -36554.24, -184744.45, -96148.77, -80450.56, 17710.16, 11780.71, -186207.84, 0.02, 0.01, -0.93
23, -48998.46, -40290.45, -184029.70, -93481.18, -79900.91, 18380.15, 8508.06, -185600.92, 0.02, 0.01, -0.93
24, -48371.16, -43314.75, -183431.33, -92073.74, -79379.42, 19014.52, 5673.68, -185087.22, 0.02, 0.01, -0.93
25, -48983.15, -40097.46, -184066.25, -94524.88, -80104.27, 18429.41, 8541.38, -185607.56, 0.02, 0.01, -0.93
26, -49755.27, -36567.48, -184748.94, -96349.47, -80993.24, 17694.65, 11786.66, -186203.14, 0.02, 0.01, -0.93
27, -49280.72, -39455.66, -184186.28, -94099.99, -80628.02, 18187.88, 9300.76, -185743.13, 0.03, 0.01, -0.94
28, -48513.12, -43277.49, -183440.25, -92081.61, -79964.52, 18961.30, 5760.94, -185092.02, 0.03, 0.01, -0.94
29, -48921.98, -41026.36, -183879.13, -94035.84, -80486.84, 18572.04, 7732.52, -185450.42, 0.03, 0.01, -0.94
30, -49808.11, -36822.80, -184705.67, -96411.36, -81490.59, 17721.94, 11563.41, -186152.11, 0.03, 0.01, -0.94
31, -49555.16, -38641.07, -184347.39, -94748.84, -81347.98, 17996.95, 10066.55, -185872.77, 0.03, 0.01, -0.94
32, -48693.86, -43004.20, -183503.30, -92248.91, -80593.81, 18862.66, 6063.38, -185147.89, 0.03, 0.01, -0.94
33, -48880.83, -41839.49, -183723.36, -93585.03, -80893.73, 18692.07, 7039.86, -185326.44, 0.03, 0.01, -0.94
34, -49824.09, -37254.97, -184629.73, -96339.05, -81955.13, 17784.84, 11197.73, -186081.91, 0.03, 0.01, -0.94
35, -49803.35, -37911.15, -184485.39, -95356.61, -82046.19, 17830.57, 10728.75, -185993.38, 0.03, 0.01, -0.94
36, -48913.41, -42540.71, -183598.91, -92543.86, -81262.40, 18725.53, 6516.07, -185227.22, 0.03, 0.01, -0.94
37, -48863.80, -42561.12, -183582.84, -93167.30, -81322.51, 18788.65, 6396.51, -185205.41, 0.03, 0.01, -0.94
38, -49795.91, -37930.17, -184503.92, -96116.21, -82373.09, 17889.75, 10574.97, -185964.41, 0.03, 0.01, -0.94
39, -50020.43, -37329.60, -184600.95, -95921.63, -82713.27, 17693.69, 11239.53, -186089.17, 0.03, 0.01, -0.94
40, -49163.98, -41891.10, -183727.06, -92988.26, -81963.53, 18556.66, 7145.52, -185340.14, 0.03, 0.01, -0.94
41, -48882.97, -43087.05, -183479.88, -92853.16, -81790.33, 18848.18, 5946.70, -185123.53, 0.03, 0.01, -0.94
42, -49745.23, -38718.79, -184349.27, -95794.34, -82771.37, 18016.58, 9868.36, -185833.77, 0.03, 0.01, -0.94
43, -50197.70, -36925.86, -184680.25, -96383.91, -83340.04, 17594.60, 11581.27, -186152.88, 0.03, 0.01, -0.94
44, -49434.48, -41129.38, -183877.11, -93528.41, -82682.84, 18367.17, 7842.20, -185463.19, 0.03, 0.01, -0.94
45, -48944.77, -43420.63, -183420.47, -92655.27, -82301.35, 18864.76, 5655.62, -185057.00, 0.03, 0.01, -0.94
46, -49686.45, -39596.81, -184181.31, -95398.49, -83159.64, 18153.57, 9071.25, -185673.78, 0.03, 0.01, -0.94
47, -50339.28, -36723.31, -184730.36, -96732.78, -83930.06, 17534.47, 11743.79, -186173.34, 0.03, 0.02, -0.93
48, -49723.44, -40252.23, -184047.63, -94157.93, -83422.83, 18163.21, 8656.85, -185605.66, 0.03, 0.02, -0.93
49, -49052.96, -43496.92, -183408.19, -92591.36, -82859.57, 18838.72, 5614.98, -185055.56, 0.03, 0.02, -0.93
50, -49619.80, -40474.54, -184004.89, -94953.65, -83543.29, 18295.10, 8294.78, -185541.28, 0.03, 0.02, -0.93
51, -50421.89, -36747.74, -184725.06, -96931.84, -84466.91, 17526.34, 11699.93, -186167.61, 0.03, 0.02, -0.93
52, -49992.29, -39404.94, -184200.77, -94804.95, -84149.58, 17972.75, 9417.71, -185743.64, 0.03, 0.02, -0.94
53, -49189.08, -43390.90, -183419.53, -92653.95, -83454.05, 18779.55, 5721.71, -185071.00, 0.03, 0.02, -0.94
54, -49544.56, -41382.11, -183805.55, -94475.81, -83924.45, 18442.63, 7459.63, -185385.61, 0.03, 0.02, -0.94
55, -50448.60, -37051.41, -184656.98, -96964.81, -84947.73, 17574.10, 11388.44, -186104.06, 0.03, 0.02, -0.94
56, -50245.69, -38587.76, -184349.30, -95463.65, -84856.77, 17797.15, 10136.29, -185871.44, 0.03, 0.02, -0.94
57, -49371.05, -43042.20, -183489.86, -92869.91, -84087.41, 18675.26, 6068.14, -185133.33, 0.02, 0.02, -0.93
58, -49501.80, -42141.93, -183654.13, -94046.75, -84328.99, 18561.74, 6793.61, -185262.05, 0.02, 0.02, -0.93
59, -50446.90, -37522.52, -184572.56, -96864.88, -85392.06, 17653.61, 10979.27, -186020.02, 0.02, 0.02, -0.93
60, -50491.49, -37845.12, -184493.34, -96089.25, -85551.12, 17635.73, 10814.51, -185991.55, 0.02, 0.02, -0.93
61, -49599.12, -42505.11, -183600.19, -93208.31, -84765.61, 18533.73, 6604.09, -185219.00, 0.02, 0.02, -0.93
62, -49489.24, -42820.04, -183526.19, -93643.10, -84764.31, 18655.19, 6226.84, -185144.67, 0.03, 0.01, -0.93
63, -50411.74, -38214.26, -184440.48, -96610.54, -85802.29, 17767.49, 10377.33, -185903.59, 0.03, 0.01, -0.93
64, -50690.09, -37323.03, -184593.00, -96598.63, -86194.96, 17521.02, 11305.89, -186073.84, 0.03, 0.01, -0.93
65, -49848.14, -41828.81, -183730.80, -93657.13, -85459.57, 18370.45, 7283.02, -185333.17, 0.03, 0.01, -0.93
66, -49514.32, -43286.92, -183431.80, -93345.28, -85233.95, 18714.40, 5850.12, -185063.88, 0.03, 0.01, -0.93
67, -50350.30, -39024.98, -184279.89, -96252.69, -86185.44, 17908.98, 9655.51, -185761.34, 0.02, 0.01, -0.94
68, -50851.47, -36973.38, -184665.86, -97019.62, -86801.48, 17441.11, 11591.30, -186123.66, 0.02, 0.01, -0.94
69, -50116.50, -41050.92, -183884.69, -94212.31, -86174.94, 18186.56, 7991.71, -185458.39, 0.02, 0.01, -0.94
70, -49581.11, -43575.77, -183383.78, -93170.70, -85747.15, 18727.59, 5598.13, -185016.25, 0.02, 0.01, -0.94
71, -50282.30, -39920.80, -184108.98, -95837.59, -86563.88, 18053.97, 8849.46, -185613.59, 0.02, 0.01, -0.94
72, -50972.91, -36831.07, -184697.39, -97333.46, -87369.03, 17399.98, 11698.66, -186139.16, 0.02, 0.01, -0.93
73, -50401.75, -40160.92, -184049.20, -94857.76, -86904.83, 17987.01, 8803.41, -185599.77, 0.02, 0.01, -0.93
74, -49694.65, -43621.53, -183372.13, -93125.61, -86305.09, 18698.44, 5592.43, -185013.03, 0.02, 0.01, -0.93
75, -50217.91, -40808.18, -183926.27, -95377.59, -86942.02, 18199.08, 8072.49, -185465.52, 0.02, 0.01, -0.93
76, -51053.15, -36922.27, -184682.38, -97486.02, -87892.15, 17402.11, 11624.23, -186120.69, 0.02, 0.01, -0.93
77, -50680.99, -39314.73, -184209.30, -95498.65, -87626.50, 17795.99, 9590.66, -185742.41, 0.02, 0.01, -0.93
78, -49856.73, -43452.80, -183405.69, -93212.49, -86906.22, 18625.39, 5783.20, -185041.08, 0.03, 0.01, -0.94
79, -50164.27, -41685.42, -183744.56, -94896.32, -87325.71, 18337.77, 7301.15, -185319.61, 0.03, 0.01, -0.94
80, -51084.95, -37248.73, -184614.98, -97481.59, -88365.20, 17453.65, 11319.66, -186056.30, 0.03, 0.01, -0.94
81, -50940.27, -38523.81, -184349.50, -96132.48, -88332.13, 17622.63, 10313.88, -185866.06, 0.03, 0.01, -0.94
82, -50056.06, -43053.28, -183476.30, -93450.27, -87554.10, 18512.41, 6185.04, -185113.19, 0.03, 0.01, -0.94
83, -50126.96, -42449.16, -183584.89, -94450.94, -87735.24, 18457.62, 6621.55, -185192.63, 0.03, 0.01, -0.94
84, -51071.75, -37801.43, -184510.92, -97332.99, -88796.75, 17550.70, 10799.29, -185955.22, 0.03, 0.01, -0.94
85, -51170.94, -37851.16, -184485.25, -96728.76, -89007.35, 17480.36, 10883.13, -185973.89, 0.03, 0.01, -0.94
86, -50287.69, -42491.38, -183598.67, -93824.02, -88229.15, 18369.11, 6702.35, -185207.23, 0.03, 0.01, -0.94
87, -50125.71, -43061.24, -183474.06, -94091.79, -88175.51, 18541.69, 6071.72, -185087.06, 0.03, 0.01, -0.94
88, -51031.55, -38505.39, -184377.67, -97066.00, -89197.18, 17667.89, 10157.59, -185833.38, 0.02, 0.02, -0.94
89, -51368.02, -37310.87, -184585.55, -97257.00, -89647.88, 17362.43, 11336.20, -186052.47, 0.02, 0.02, -0.94
90, -50548.38, -41739.38, -183738.02, -94326.64, -88932.88, 18190.94, 7387.18, -185325.30, 0.02, 0.02, -0.94
91, -50163.23, -43482.93, -183387.31, -93823.73, -88653.38, 18585.45, 5705.04, -185010.52, 0.02, 0.02, -0.94
92, -50979.68, -39320.98, -184215.98, -96705.02, -89584.98, 17800.46, 9424.86, -185687.38, 0.02, 0.02, -0.94
93, -51531.36, -37005.48, -184646.50, -97652.66, -90251.67, 17282.55, 11603.51, -186100.59, 0.01, 0.02, -0.94
94, -50827.78, -40939.61, -183886.61, -94895.04, -89654.12, 17998.36, 8131.65, -185462.19, 0.01, 0.02, -0.94
95, -50245.00, -43708.48, -183338.66, -93672.96, -89178.85, 18584.67, 5524.05, -184977.78, 0.01, 0.02, -0.94
96, -50909.14, -40216.40, -184029.53, -96261.31, -89957.27, 17944.85, 8621.25, -185548.17, 0.01, 0.02, -0.94
97, -51636.55, -36915.76, -184662.03, -97912.20, -90799.89, 17253.36, 11646.78, -186110.44, 0.01, 0.02, -0.94
98, -51097.61, -40091.50, -184044.14, -95508.76, -90371.23, 17808.73, 8895.01, -185598.58, 0.03, 0.02, -0.94
99, -50357.59, -43717.04, -183334.08, -93646.81, -89738.27, 18552.82, 5514.31, -184977.08, 0.03, 0.02, -0.94
100, -50834.21, -41135.32, -183843.94, -95777.65, -90326.86, 18100.31, 7770.49, -185397.08, 0.03, 0.02, -0.94
101, -51694.06, -37086.13, -184637.16, -98018.30, -91301.11, 17277.47, 11448.14, -186075.42, 0.03, 0.02, -0.94
102, -51371.91, -39231.20, -184208.66, -96168.11, -91087.60, 17620.24, 9645.56, -185736.00, 0.03, 0.02, -0.94
103, -50529.94, -43477.25, -183386.05, -93779.49, -90350.40, 18466.21, 5749.94, -185020.67, 0.03, 0.02, -0.94
104, -50783.90, -41957.00, -183676.86, -95320.06, -90717.19, 18229.61, 7024.80, -185250.72, 0.03, 0.02, -0.94
105, -51710.71, -37461.46, -184569.67, -97977.77, -91763.54, 17338.25, 11083.63, -185995.78, 0.03, 0.02, -0.94
106, -51623.61, -38422.65, -184367.23, -96811.59, -91789.72, 17447.06, 10342.24, -185861.80, 0.03, 0.02, -0.94
107, -50729.32, -43035.31, -183483.42, -94037.83, -91001.70, 18343.00, 6161.91, -185093.94, 0.03, 0.02, -0.94
108, -50749.63, -42698.91, -183543.53, -94874.63, -91132.84, 18334.17, 6365.93, -185125.28, 0.03, 0.02, -0.94
109, -51695.27, -38034.02, -184469.98, -97796.41, -92194.73, 17421.82, 10571.03, -185893.44, 0.03, 0.02, -0.94
110, -51850.93, -37802.01, -184486.42, -97364.30, -92460.76, 17295.13, 10916.12, -185963.38, 0.03, 0.02, -0.94
111, -50976.41, -42424.19, -183597.92, -94426.88, -91691.59, 18176.66, 6775.46, -185199.78, 0.03, 0.02, -0.94
112, -50766.15, -43252.81, -183425.81, -94517.01, -91588.59, 18399.35, 5929.94, -185038.00, 0.03, 0.02, -0.94
113, -51660.16, -38747.73, -184324.70, -97487.53, -92598.78, 17538.38, 9964.74, -185774.48, 0.03, 0.02, -0.94
114, -52041.25, -37318.83, -184578.64, -97828.24, -93095.70, 17188.04, 11352.07, -186039.47, 0.03, 0.02, -0.94
115, -51234.98, -41700.91, -183737.59, -94893.91, -92395.83, 18005.04, 7456.68, -185320.97, 0.03, 0.02, -0.94
116, -50805.58, -43668.67, -183345.83, -94233.59, -92073.52, 18442.78, 5563.15, -184971.67, 0.03, 0.02, -0.94
117, -51591.09, -39632.52, -184148.23, -97063.27, -92974.02, 17687.14, 9160.62, -185635.80, 0.03, 0.02, -0.94
118, -52186.92, -37070.52, -184625.98, -98177.22, -93682.26, 17127.78, 11539.29, -186078.06, 0.02, 0.01, -0.94
119, -51514.62, -40867.61, -183892.47, -95475.95, -93116.47, 17812.35, 8211.72, -185456.48, 0.02, 0.01, -0.94
120, -50890.50, -43850.72, -183304.42, -94094.83, -92599.83, 18439.12, 5405.23, -184935.47, 0.02, 0.01, -0.94
121, -51511.31, -40563.65, -183953.67, -96586.78, -93334.98, 17842.46, 8298.35, -185461.64, 0.02, 0.01, -0.94
122, -52275.05, -37061.67, -184626.52, -98390.54, -94213.67, 17115.13, 11497.38, -186058.39, 0.02, 0.01, -0.94
123, -51790.82, -39975.73, -184059.95, -96126.53, -93837.78, 17614.52, 8985.92, -185596.05, 0.02, 0.01, -0.94
124, -51024.43, -43782.98, -183325.42, -94116.64, -93174.95, 18385.94, 5478.37, -184960.77, 0.02, 0.01, -0.94
125, -51455.99, -41408.80, -183792.53, -96129.80, -93718.85, 17977.87, 7555.20, -185328.61, 0.02, 0.01, -0.94
126, -52338.26, -37228.44, -184607.67, -98475.23, -94717.46, 17133.51, 11361.35, -186029.72, 0.02, 0.01, -0.94
127, -52067.74, -39118.05, -184220.70, -96764.09, -94555.09, 17425.62, 9794.69, -185739.45, 0.02, 0.01, -0.94
128, -51207.93, -43472.62, -183379.88, -94265.10, -93799.80, 18290.79, 5823.81, -185007.95, 0.02, 0.01, -0.94
129, -51409.48, -42220.81, -183621.63, -95640.70, -94113.38, 18107.15, 6869.67, -185193.97, 0.02, 0.01, -0.94
130, -52348.66, -37640.09, -184524.86, -98383.75, -95168.72, 17204.83, 10990.20, -185951.83, 0.02, 0.01, -0.94
131, -52312.33, -38367.71, -184361.14, -97356.40, -95243.48, 17267.04, 10477.74, -185860.27, 0.02, 0.01, -0.94
132, -51423.38, -42989.71, -183476.02, -94541.04, -94457.75, 18163.65, 6299.12, -185094.55, 0.02, 0.01, -0.94
133, -51393.18, -42906.43, -183486.73, -95213.04, -94534.58, 18208.76, 6276.17, -185080.59, 0.02, 0.02, -0.94
134, -52332.94, -38240.01, -184414.80, -98168.01, -95587.79, 17304.90, 10472.57, -185844.72, 0.02, 0.02, -0.94
135, -52540.14, -37726.41, -184486.38, -97909.04, -95906.59, 17128.86, 11070.21, -185961.95, 0.02, 0.02, -0.94
136, -51671.13, -42332.01, -183601.72, -94941.76, -95143.23, 18004.11, 6950.23, -185200.89, 0.02, 0.02, -0.94
137, -51398.77, -43461.13, -183369.77, -94842.27, -94979.73, 18284.33, 5808.48, -184983.80, 0.02, 0.02, -0.94
138, -52269.13, -39052.77, -184247.45, -97792.08, -95965.09, 17449.31, 9757.74, -185700.44, 0.03, 0.01, -0.95
139, -52706.95, -37326.65, -184559.95, -98334.02, -96518.05, 17047.56, 11418.83, -186014.36, 0.03, 0.01, -0.95
140, -51937.65, -41561.70, -183751.25, -95453.81, -95856.03, 17828.11, 7689.45, -185322.63, 0.03, 0.01, -0.95
141, -51458.86, -43792.18, -183310.77, -94602.44, -95484.10, 18313.70, 5582.73, -184932.45, 0.03, 0.01, -0.95
142, -52212.80, -39895.05, -184086.44, -97367.08, -96351.52, 17588.68, 9068.06, -185566.02, 0.03, 0.01, -0.95
143, -52849.65, -37108.23, -184609.17, -98632.26, -97104.70, 16988.35, 11669.93, -186051.42, 0.03, 0.01, -0.94
144, -52213.50, -40729.26, -183904.48, -96004.96, -96579.00, 17638.07, 8520.13, -185464.52, 0.03, 0.01, -0.94
145, -51552.75, -43919.48, -183281.13, -94463.48, -96025.59, 18303.11, 5550.65, -184914.41, 0.03, 0.01, -0.94
146, -52135.31, -40826.04, -183895.73, -96848.79, -96719.88, 17745.52, 8292.36, -185408.14, 0.03, 0.01, -0.94
147, -52932.64, -37143.55, -184607.81, -98784.05, -97632.59, 16986.41, 11663.05, -186035.47, 0.03, 0.01, -0.94
148, -52490.70, -39878.84, -184073.73, -96607.41, -97299.29, 17447.62, 9341.91, -185607.56, 0.03, 0.01, -0.94
149, -51699.14, -43816.61, -183313.88, -94481.91, -96612.77, 18245.68, 5716.03, -184938.80, 0.03, 0.01, -0.94
150, -52074.87, -41717.38, -183728.70, -96339.14, -97099.20, 17892.41, 7540.76, -185274.72, 0.03, 0.01, -0.94
151, -52974.79, -37418.36, -184568.16, -98793.14, -98116.09, 17030.55, 11445.63, -185994.61, 0.03, 0.01, -0.94
152, -52752.15, -39064.48, -184228.91, -97222.95, -98006.20, 17274.75, 10114.97, -185740.31, 0.03, 0.01, -0.94
153, -51879.36, -43507.45, -183373.86, -94638.53, -97239.23, 18153.62, 6068.19, -184996.98, 0.03, 0.01, -0.93
154, -52024.67, -42531.19, -183561.39, -95857.77, -97496.88, 18024.94, 6855.19, -185140.81, 0.03, 0.01, -0.93
155, -52967.08, -37913.63, -184476.56, -98660.13, -98558.36, 17119.09, 11023.21, -185905.84, 0.03, 0.01, -0.93
156, -52988.03, -38361.67, -184364.72, -97802.67, -98690.52, 17128.92, 10759.75, -185859.31, 0.03, 0.01, -0.93
157, -52094.92, -43009.56, -183470.52, -94937.78, -97905.02, 18030.68, 6567.12, -185088.83, 0.03, 0.01, -0.93
158, -52002.58, -43213.43, -183420.53, -95432.76, -97927.44, 18135.11, 6286.94, -185030.64, 0.03, 0.02, -0.94
159, -52926.67, -38587.98, -184339.91, -98398.19, -98969.23, 17247.52, 10445.77, -185788.03, 0.03, 0.02, -0.94
160, -53181.21, -37803.88, -184469.20, -98313.67, -99339.89, 17026.13, 11268.99, -185945.86, 0.03, 0.02, -0.94
161, -52326.32, -42353.34, -183600.52, -95354.17, -98592.38, 17890.13, 7203.25, -185197.81, 0.03, 0.02, -0.94
162, -52009.31, -43709.93, -183325.67, -95103.92, -98384.80, 18216.63, 5875.85, -184946.19, 0.03, 0.02, -0.94
163, -52857.52, -39380.33, -184188.36, -98035.48, -99350.17, 17401.30, 9753.29, -185650.50, 0.03, 0.01, -0.93
164, -53343.64, -37403.90, -184552.58, -98747.48, -99949.84, 16953.64, 11629.86, -186011.03, 0.03, 0.01, -0.93
165, -52598.17, -41520.20, -183763.11, -95910.55, -99311.13, 17714.49, 8008.03, -185340.02, 0.03, 0.01, -0.93
166, -52076.43, -43963.46, -183282.38, -94912.37, -98897.13, 18245.75, 5708.99, -184912.05, 0.03, 0.01, -0.93
167, -52793.81, -40224.06, -184026.64, -97610.11, -99729.39, 17558.70, 9049.37, -185517.22, 0.03, 0.01, -0.93
168, -53465.89, -37218.04, -184592.36, -99035.75, -100517.02, 16925.23, 11826.84, -186035.50, 0.02, 0.02, -0.94
169, -52866.88, -40668.53, -183913.97, -96496.21, -100027.67, 17541.47, 8822.05, -185473.27, 0.02, 0.02, -0.94
170, -52170.36, -44040.09, -183251.17, -94823.79, -99441.37, 18243.47, 5686.02, -184895.05, 0.02, 0.02, -0.94
171, -52705.37, -41144.38, -183822.75, -97116.02, -100094.04, 17732.71, 8247.99, -185361.16, 0.02, 0.02, -0.94
172, -53527.22, -37296.77, -184571.94, -99182.63, -101036.12, 16949.35, 11754.96, -186013.05, 0.02, 0.02, -0.94
173, -53129.43, -39789.52, -184079.73, -97135.42, -100750.35, 17368.27, 9646.12, -185619.19, 0.03, 0.02, -0.95
174, -52309.05, -43866.55, -183286.67, -94893.92, -100038.54, 18195.21, 5903.21, -184929.25, 0.03, 0.02, -0.95
175, -52631.36, -42003.87, -183645.23, -96625.11, -100475.65, 17896.55, 7513.16, -185216.16, 0.03, 0.02, -0.95
176, -53543.40, -37603.93, -184505.55, -99172.83, -101507.83, 17024.96, 11504.17, -185949.34, 0.03, 0.02, -0.95
177, -53375.61, -38964.68, -184216.83, -97766.17, -101454.19, 17219.45, 10420.09, -185746.00, 0.03, 0.02, -0.95
178, -52489.36, -43479.93, -183342.61, -95104.13, -100676.41, 18113.56, 6328.78, -184991.33, 0.03, 0.02, -0.94
179, -52582.10, -42753.19, -183472.97, -96172.65, -100880.55, 18040.83, 6907.60, -185092.86, 0.03, 0.02, -0.94
180, -53525.09, -38108.89, -184398.16, -99026.20, -101941.88, 17137.93, 11101.66, -185862.17, 0.03, 0.02, -0.94
181, -53598.43, -38259.86, -184349.73, -98350.33, -102130.73, 17096.20, 11106.83, -185861.47, 0.03, 0.02, -0.94
182, -52707.60, -42894.20, -183459.33, -95455.18, -101351.23, 17994.54, 6951.53, -185090.28, 0.03, 0.02, -0.94
183, -52563.07, -43355.48, -183352.72, -95782.41, -101319.60, 18153.82, 6448.23, -184993.38, 0.02, 0.02, -0.94
184, -53471.54, -38765.14, -184261.16, -98754.92, -102348.01, 17281.83, 10567.86, -185745.06, 0.02, 0.02, -0.94
185, -53778.81, -37708.20, -184443.59, -98849.89, -102769.90, 17010.68, 11630.93, -185944.78, 0.02, 0.02, -0.94
186, -52939.52, -42196.09, -183579.72, -95898.55, -102037.74, 17861.55, 7636.61, -185203.48, 0.02, 0.02, -0.94
187, -52569.54, -43812.70, -183246.50, -95479.18, -101777.99, 18241.59, 6078.42, -184911.13, 0.02, 0.02, -0.94
188, -53388.13, -39602.77, -184081.56, -98373.91, -102717.57, 17453.00, 9849.05, -185599.67, 0.02, 0.01, -0.94
189, -53913.59, -37376.00, -184499.58, -99252.45, -103363.80, 16960.41, 11947.21, -185994.77, 0.02, 0.01, -0.94
190, -53192.39, -41367.31, -183731.59, -96463.29, -102755.05, 17695.34, 8447.80, -185339.09, 0.02, 0.01, -0.94
191, -52623.18, -44049.23, -183193.58, -95299.59, -102295.99, 18273.18, 5940.00, -184874.61, 0.02, 0.01, -0.94
192, -53296.19, -40493.96, -183893.19, -97915.08, -103090.35, 17629.80, 9119.04, -185453.31, 0.02, 0.01, -0.94
193, -54002.66, -37281.88, -184516.28, -99493.40, -103920.66, 16961.13, 12092.27, -186004.94, 0.02, 0.01, -0.94
194, -53443.62, -40520.29, -183889.92, -97052.50, -103475.56, 17535.84, 9292.07, -185480.17, 0.02, 0.01, -0.94
195, -52708.59, -44104.04, -183183.63, -95222.36, -102851.03, 18277.49, 5987.99, -184868.98, 0.02, 0.01, -0.94
196, -53198.54, -41442.64, -183703.45, -97390.62, -103456.95, 17814.38, 8347.39, -185298.23, 0.02, 0.01, -0.94
197, -54044.93, -37454.86, -184488.14, -99570.00, -104422.67, 17008.04, 11992.34, -185973.30, 0.02, 0.01, -0.94
198, -53695.30, -39714.09, -184045.91, -97648.66, -104186.04, 17379.20, 10104.24, -185622.22, 0.02, 0.01, -0.94
199, -52852.17, -43919.05, -183225.06, -95294.29, -103452.41, 18226.33, 6255.09, -184913.16, 0.02, 0.01, -0.94
200, -53115.99, -42325.30, -183521.31, -96868.14, -103833.39, 17981.46, 7620.11, -185153.64, 0.02, 0.01, -0.94
201, -54034.67, -37855.83, -184406.72, -99491.68, -104875.32, 17100.76, 11671.21, -185897.89, 0.02, 0.01, -0.94
202, -53913.21, -38974.22, -184182.97, -98228.02, -104871.48, 17245.80, 10812.30, -185738.36, 0.02, 0.01, -0.94
203, -53015.79, -43547.59, -183299.55, -95495.16, -104086.46, 18146.40, 6673.49, -184976.75, 0.02, 0.02, -0.95
204, -53051.39, -43098.09, -183370.44, -96394.45, -104239.16, 18125.10, 6994.71, -185030.39, 0.02, 0.02, -0.95
205, -53987.60, -38453.49, -184293.92, -99282.40, -105298.70, 17223.49, 11186.58, -185796.66, 0.02, 0.02, -0.95
206, -54115.38, -38319.74, -184311.14, -98780.78, -105543.50, 17124.16, 11439.38, -185846.81, 0.02, 0.02, -0.95
207, -53227.13, -42966.80, -183423.19, -95840.92, -104767.85, 18017.16, 7277.48, -185078.22, 0.02, 0.02, -0.95
208, -53023.68, -43715.29, -183257.50, -95987.40, -104680.48, 18229.32, 6516.85, -184933.25, 0.03, 0.02, -0.95
209, -53916.09, -39193.58, -184153.98, -98951.86, -105695.38, 17367.77, 10593.14, -185677.45, 0.03, 0.02, -0.95
210, -54274.95, -37861.37, -184399.09, -99220.71, -106172.15, 17040.39, 11914.33, -185927.30, 0.03, 0.02, -0.95
211, -53456.16, -42259.32, -183559.16, -96283.58, -105466.50, 17867.40, 8005.70, -185205.56, 0.03, 0.02, -0.95
212, -53037.31, -44137.50, -183177.91, -95687.19, -105161.40, 18292.40, 6212.98, -184872.36, 0.03, 0.02, -0.95
213, -53826.26, -40059.69, -183987.02, -98525.99, -106070.78, 17532.98, 9862.24, -185537.17, 0.03, 0.02, -0.94
214, -54396.10, -37599.86, -184460.27, -99561.75, -106760.24, 16997.61, 12168.20, -185971.97, 0.03, 0.02, -0.94
215, -53702.30, -41455.15, -183723.88, -96826.95, -106179.32, 17702.45, 8792.39, -185341.95, 0.03, 0.02, -0.94
216, -53086.82, -44346.29, -183142.86, -95509.94, -105676.43, 18321.01, 6075.90, -184841.91, 0.03, 0.02, -0.94
217, -53717.66, -40984.61, -183802.56, -98029.65, -106427.70, 17715.46, 9061.08, -185388.98, 0.03, 0.02, -0.94
218, -54459.13, -37570.42, -184469.48, -99758.52, -107290.31, 17009.34, 12200.21, -185973.33, 0.03, 0.02, -0.94
219, -53943.16, -40599.28, -183885.14, -97425.87, -106890.40, 17539.53, 9593.46, -185487.27, 0.03, 0.02, -0.94
220, -53181.95, -44316.64, -183155.80, -95484.26, -106243.16, 18301.90, 6155.87, -184856.39, 0.03, 0.02, -0.94
221, -53623.00, -41861.15, -183631.59, -97537.91, -106803.88, 17881.95, 8309.55, -185247.94, 0.03, 0.02, -0.94
222, -54486.78, -37746.06, -184441.27, -99824.18, -107789.98, 17055.65, 12058.54, -185941.81, 0.03, 0.02, -0.94
223, -54191.94, -39716.05, -184049.98, -98063.49, -107609.52, 17374.01, 10410.73, -185633.95, 0.03, 0.01, -0.94
224, -53330.37, -44039.13, -183211.13, -95599.44, -106856.55, 18240.70, 6466.45, -184908.28, 0.03, 0.01, -0.94
225, -53546.98, -42681.70, -183463.98, -97039.83, -107188.55, 18042.10, 7614.55, -185116.50, 0.03, 0.01, -0.94
226, -54479.56, -38131.43, -184363.53, -99741.21, -108242.90, 17147.21, 11746.74, -185874.86, 0.03, 0.01, -0.94
227, -54414.16, -38974.09, -184182.97, -98636.39, -108293.91, 17238.29, 11124.46, -185757.27, 0.03, 0.01, -0.94
228, -53517.09, -43584.36, -183294.42, -95847.90, -107506.88, 18139.29, 6944.11, -184991.39, 0.02, 0.01, -0.94
229, -53504.87, -43378.43, -183319.70, -96597.17, -107609.54, 18163.83, 7056.65, -185003.61, 0.02, 0.01, -0.94
230, -54437.76, -38713.58, -184247.48, -99520.78, -108665.26, 17263.21, 11261.37, -185768.92, 0.02, 0.01, -0.94
231, -54609.76, -38334.67, -184306.02, -99164.92, -108955.54, 17119.00, 11724.76, -185863.41, 0.02, 0.01, -0.94
232, -53728.23, -42947.91, -183417.81, -96217.06, -108185.84, 18005.47, 7583.54, -185097.34, 0.02, 0.01, -0.94
233, -53476.77, -43931.91, -183204.88, -96212.27, -108050.41, 18264.37, 6591.19, -184911.59, 0.02, 0.02, -0.94
234, -54348.96, -39482.84, -184089.16, -99161.99, -109045.28, 17422.87, 10580.80, -185641.31, 0.02, 0.02, -0.94
235, -54751.16, -37901.27, -184387.17, -99594.20, -109564.85, 17052.17, 12092.56, -185927.66, 0.02, 0.02, -0.94
236, -53949.71, -42225.02, -183561.53, -96682.49, -108873.16, 17862.04, 8227.99, -185212.27, 0.02, 0.02, -0.94
237, -53479.50, -44343.49, -183129.59, -95929.37, -108515.16, 18337.79, 6185.04, -184838.39, 0.02, 0.02, -0.94
238, -54212.77, -40481.15, -183891.61, -98659.66, -109368.83, 17631.23, 9572.45, -185461.45, 0.02, 0.02, -0.94
239, -54756.54, -38021.90, -184371.08, -99716.85, -110033.09, 17119.27, 11711.22, -185865.80, 0.02, 0.02, -0.94
240, -54046.61, -41872.73, -183634.13, -97008.94, -109435.91, 17838.81, 8241.80, -185252.81, 0.02, 0.02, -0.94
241, -53367.02, -45045.60, -182992.77, -95569.75, -108868.44, 18519.58, 5261.80, -184786.58, 0.02, 0.02, -0.94
242, -53951.23, -41853.39, -183613.00, -98067.96, -109570.95, 17957.86, 8079.33, -185243.92, 0.02, 0.02, -0.94
243, -54715.79, -38264.64, -184341.53, -99971.75, -110454.72, 17225.68, 11353.52, -185830.36, 0.02, 0.01, -0.93
244, -54237.49, -41067.04, -183822.50, -97794.76, -110091.55, 17716.17, 8899.59, -185390.84, 0.02, 0.01, -0.93
245, -53437.99, -44954.63, -183056.09, -95758.54, -109403.63, 18516.10, 5284.31, -184783.97, 0.02, 0.01, -0.93
246, -53822.73, -42726.79, -183478.53, -97729.29, -109906.30, 18147.65, 7214.79, -185111.69, 0.02, 0.01, -0.93
247, -54700.02, -38465.79, -184324.25, -100165.67, -110907.09, 17300.36, 11061.61, -185801.47, 0.02, 0.01, -0.93
248, -54438.48, -40220.15, -183989.11, -98556.20, -110762.21, 17576.74, 9590.26, -185532.89, 0.02, 0.01, -0.94
249, -53560.34, -44588.09, -183139.34, -96068.53, -109995.63, 18452.88, 5572.20, -184841.41, 0.02, 0.01, -0.94
250, -53721.99, -43458.09, -183342.23, -97400.92, -110273.94, 18302.57, 6501.83, -185004.16, 0.02, 0.01, -0.94
251, -54656.47, -38831.15, -184261.83, -100201.05, -111330.95, 17399.56, 10677.12, -185747.28, 0.02, 0.01, -0.94
252, -54641.41, -39387.86, -184148.33, -99292.05, -111431.24, 17437.80, 10290.72, -185674.42, 0.02, 0.01, -0.94
253, -53741.30, -44003.25, -183259.67, -96485.82, -110639.43, 18339.92, 6101.06, -184915.14, 0.03, 0.02, -0.94
254, -53672.28, -44047.00, -183231.92, -97097.30, -110682.26, 18417.30, 5963.29, -184890.09, 0.03, 0.02, -0.94
255, -54592.88, -39397.09, -184150.83, -100062.25, -111723.20, 17524.91, 10151.16, -185638.03, 0.03, 0.02, -0.94
0, -54818.05, -38699.07, -184265.88, -99926.29, -112067.28, 17322.78, 10894.42, -185774.66, 0.03, 0.02, -0.94
1, -53953.69, -43238.51, -183393.91, -96997.90, -111312.66, 18189.42, 6825.62, -185031.83, 0.03, 0.02, -0.94
2, -53649.59, -44488.00, -183130.45, -96828.02, -111121.02, 18498.06, 5596.72, -184805.64, 0.03, 0.02, -0.94
3, -54499.27, -40116.62, -183997.41, -99774.30, -112091.18, 17676.36, 9527.65, -185503.84, 0.03, 0.02, -0.94
4, -54952.07, -38257.82, -184346.83, -100402.78, -112663.47, 17253.13, 11309.29, -185836.36, 0.03, 0.02, -0.94
5, -54181.52, -42427.68, -183546.73, -97558.41, -112004.66, 18028.38, 7620.27, -185154.09, 0.03, 0.02, -0.94
6, -53667.83, -44762.90, -183075.02, -96650.44, -111603.98, 18542.09, 5412.45, -184752.72, 0.03, 0.02, -0.94
7, -54388.68, -40958.25, -183826.02, -99376.34, -112444.20, 17843.46, 8830.70, -185368.89, 0.03, 0.02, -0.94
8, -55037.28, -38036.34, -184386.50, -100735.09, -113210.30, 17224.48, 11557.37, -185865.19, 0.03, 0.02, -0.94
9, -54418.14, -41540.96, -183713.03, -98166.66, -112701.65, 17852.85, 8514.63, -185293.11, 0.03, 0.02, -0.94
10, -53732.92, -44818.62, -183063.86, -96570.20, -112123.95, 18540.19, 5461.60, -184732.25, 0.03, 0.02, -0.94
11, -54282.93, -41833.16, -183648.78, -98903.60, -112789.49, 18012.11, 8127.94, -185213.00, 0.03, 0.02, -0.94
12, -55086.36, -38065.94, -184382.03, -100899.48, -113710.63, 17243.10, 11586.65, -185847.16, 0.03, 0.02, -0.94
13, -54656.03, -40685.74, -183870.27, -98785.48, -113390.66, 17688.25, 9346.81, -185428.45, 0.02, 0.02, -0.94
14, -53837.50, -44708.14, -183081.64, -96607.19, -112680.98, 18507.47, 5636.17, -184764.94, 0.02, 0.02, -0.94
15, -54176.65, -42732.00, -183459.22, -98401.36, -113136.14, 18184.15, 7371.34, -185072.08, 0.02, 0.02, -0.94
16, -55075.75, -38376.58, -184321.44, -100895.62, -114154.02, 17320.77, 11340.45, -185787.27, 0.02, 0.02, -0.94
17, -54876.44, -39869.54, -184022.83, -99415.23, -114067.72, 17540.42, 10137.54, -185555.89, 0.02, 0.02, -0.94
18, -53986.10, -44356.39, -183154.75, -96794.16, -113285.16, 18430.55, 6037.25, -184815.69, 0.02, 0.02, -0.93
19, -54092.29, -43519.79, -183307.28, -97935.93, -113505.66, 18335.56, 6711.18, -184937.59, 0.02, 0.02, -0.93
20, -55028.70, -38888.08, -184229.86, -100759.63, -114561.27, 17431.52, 10910.36, -185692.98, 0.02, 0.02, -0.93
21, -55068.75, -39172.13, -184163.73, -99998.44, -114717.11, 17413.24, 10793.39, -185669.47, 0.02, 0.02, -0.93
22, -54170.10, -43817.98, -183274.39, -97123.83, -113927.58, 18312.78, 6600.13, -184899.13, 0.02, 0.02, -0.93
23, -54044.84, -44163.92, -183191.16, -97534.07, -113912.45, 18448.03, 6199.23, -184817.45, 0.03, 0.02, -0.93
24, -54952.03, -39567.59, -184102.55, -100493.59, -114938.81, 17572.23, 10351.41, -185569.34, 0.03, 0.02, -0.93
25, -55232.75, -38626.09, -184268.13, -100506.78, -115334.91, 17320.77, 11330.55, -185748.16, 0.03, 0.02, -0.93
26, -54385.50, -43123.29, -183407.05, -97567.75, -114597.13, 18172.10, 7317.27, -185016.41, 0.03, 0.02, -0.93
27, -54034.00, -44627.76, -183098.16, -97224.14, -114357.63, 18528.63, 5858.50, -184750.81, 0.03, 0.02, -0.93
28, -54860.07, -40371.09, -183943.39, -100123.85, -115304.09, 17728.13, 9685.88, -185431.09, 0.02, 0.02, -0.94
29, -55358.81, -38272.98, -184336.38, -100909.41, -115920.37, 17258.34, 11675.72, -185802.45, 0.02, 0.02, -0.94
30, -54615.08, -42345.51, -183556.92, -98093.33, -115285.20, 18009.22, 8073.52, -185139.66, 0.02, 0.02, -0.94
31, -54062.36, -44909.70, -183044.13, -97023.58, -114841.11, 18563.95, 5652.04, -184700.55, 0.02, 0.02, -0.94
32, -54748.20, -41276.32, -183762.05, -99672.02, -115644.79, 17900.37, 8907.86, -185286.08, 0.02, 0.02, -0.94
33, -55436.39, -38150.83, -184363.16, -101182.14, -116451.04, 17245.22, 11806.93, -185817.41, 0.03, 0.02, -0.94
34, -54856.75, -41473.86, -183721.77, -98708.34, -115982.80, 17835.17, 8921.63, -185279.77, 0.03, 0.02, -0.94
35, -54135.70, -44948.64, -183038.41, -96964.03, -115373.04, 18555.79, 5696.36, -184694.53, 0.03, 0.02, -0.94
36, -54643.55, -42176.09, -183581.94, -99186.47, -115996.34, 18070.29, 8167.13, -185131.64, 0.03, 0.02, -0.94
37, -55474.84, -38257.45, -184345.83, -101305.03, -116943.97, 17275.60, 11774.12, -185790.84, 0.03, 0.02, -0.94
38, -55097.20, -40621.30, -183877.41, -99328.94, -116677.02, 17670.26, 9771.60, -185419.88, 0.02, 0.02, -0.94
39, -54255.19, -44781.16, -183065.30, -97030.22, -115944.80, 18511.33, 5942.01, -184729.86, 0.02, 0.02, -0.94
40, -54544.34, -43048.92, -183392.23, -98683.20, -116349.32, 18238.33, 7455.16, -184992.58, 0.02, 0.02, -0.94
41, -55457.56, -38603.27, -184268.20, -101266.03, -117382.57, 17359.88, 11507.93, -185724.53, 0.02, 0.02, -0.94
42, -55310.64, -39839.03, -184017.08, -99930.71, -117348.82, 17527.70, 10543.16, -185542.41, 0.02, 0.02, -0.94
43, -54416.26, -44384.17, -183142.63, -97237.22, -116561.73, 18424.27, 6401.45, -184792.17, 0.03, 0.01, -0.94
44, -54471.67, -43826.34, -183240.25, -98209.59, -116728.23, 18380.69, 6818.78, -184870.98, 0.03, 0.01, -0.94
45, -55405.68, -39180.44, -184164.05, -101075.39, -117781.30, 17479.04, 11037.09, -185632.34, 0.03, 0.01, -0.94
46, -55498.69, -39201.14, -184144.55, -100481.52, -117989.80, 17409.51, 11164.20, -185651.14, 0.03, 0.01, -0.94
47, -54606.41, -43847.68, -183252.48, -97574.39, -117203.20, 18307.29, 6979.38, -184885.13, 0.03, 0.01, -0.94
48, -54427.93, -44450.67, -183116.97, -97818.59, -117136.08, 18493.97, 6342.51, -184757.81, 0.03, 0.01, -0.94
49, -55320.90, -39906.47, -184016.91, -100775.83, -118149.35, 17630.68, 10453.55, -185493.48, 0.03, 0.01, -0.94
50, -55651.68, -38685.62, -184235.83, -100966.16, -118598.62, 17327.92, 11682.25, -185721.47, 0.03, 0.01, -0.94
51, -54820.33, -43113.92, -183389.28, -98033.32, -117876.97, 18163.38, 7743.83, -185000.52, 0.03, 0.01, -0.94
52, -54415.86, -44890.82, -183028.69, -97506.29, -117583.83, 18570.68, 6046.53, -184700.89, 0.03, 0.01, -0.94
53, -55213.70, -40750.07, -183853.42, -100361.03, -118501.59, 17796.30, 9793.82, -185366.67, 0.02, 0.02, -0.94
54, -55757.16, -38411.29, -184298.22, -101308.65, -119164.23, 17281.61, 12026.60, -185772.03, 0.02, 0.02, -0.94
55, -55043.83, -42341.71, -183542.81, -98544.62, -118561.27, 18001.38, 8573.97, -185134.16, 0.02, 0.02, -0.94
56, -54444.42, -45142.07, -182983.73, -97299.35, -118071.66, 18601.46, 5950.46, -184652.92, 0.02, 0.02, -0.94
57, -55092.40, -41685.60, -183666.20, -99857.91, -118838.32, 17975.65, 9063.90, -185207.16, 0.02, 0.02, -0.94
58, -55814.63, -38366.81, -184312.34, -101503.58, -119678.84, 17285.30, 12151.39, -185768.63, 0.02, 0.01, -0.94
59, -55271.41, -41517.47, -183705.38, -99109.76, -119248.14, 17838.59, 9431.30, -185262.34, 0.02, 0.01, -0.94
60, -54517.20, -45170.21, -182988.11, -97225.80, -118604.92, 18591.64, 6032.11, -184665.39, 0.02, 0.01, -0.94
61, -54972.73, -42626.65, -183481.69, -99323.35, -119176.28, 18155.56, 8290.71, -185058.42, 0.02, 0.01, -0.94
62, -55822.18, -38566.75, -184277.08, -101555.48, -120145.41, 17338.92, 12015.92, -185730.92, 0.02, 0.01, -0.94
63, -55494.21, -40690.54, -183864.13, -99712.72, -119928.59, 17682.55, 10241.75, -185400.36, 0.02, 0.01, -0.94
64, -54638.86, -44952.22, -183038.14, -97320.03, -119179.63, 18539.41, 6329.41, -184687.61, 0.02, 0.01, -0.94
65, -54879.10, -43461.56, -183319.44, -98833.84, -119533.19, 18315.67, 7611.24, -184913.31, 0.02, 0.01, -0.94
66, -55797.64, -38956.56, -184206.63, -101485.61, -120572.41, 17429.49, 11720.52, -185654.91, 0.02, 0.01, -0.94
67, -55706.45, -39900.41, -184009.91, -100326.07, -120594.43, 17542.81, 11006.51, -185520.44, 0.02, 0.01, -0.94
68, -54804.96, -44507.80, -183127.36, -97563.33, -119799.24, 18446.13, 6818.38, -184764.63, 0.02, 0.02, -0.94
69, -54806.30, -44195.99, -183173.86, -98379.21, -119912.99, 18454.00, 7022.16, -184794.05, 0.02, 0.02, -0.94
70, -55735.91, -39527.45, -184097.81, -101281.38, -120966.01, 17550.61, 11270.87, -185550.70, 0.02, 0.02, -0.94
71, -55880.45, -39262.43, -184127.00, -100855.70, -121228.91, 17429.40, 11650.67, -185620.66, 0.02, 0.02, -0.94
72, -54988.22, -43890.96, -183235.77, -97917.83, -120447.02, 18324.45, 7472.23, -184861.81, 0.02, 0.02, -0.94
73, -54755.11, -44758.29, -183048.94, -97991.43, -120327.05, 18562.86, 6589.76, -184702.92, 0.03, 0.02, -0.94
74, -55635.61, -40259.76, -183940.72, -100951.52, -121325.29, 17713.80, 10655.34, -185422.02, 0.03, 0.02, -0.94
75, -56013.22, -38793.80, -184207.73, -101305.99, -121819.84, 17364.89, 12086.68, -185686.44, 0.03, 0.02, -0.94
76, -55199.62, -43152.12, -183374.91, -98396.55, -121116.70, 18182.32, 8188.76, -184979.16, 0.03, 0.02, -0.94
77, -54751.25, -45138.05, -182970.30, -97731.50, -120779.34, 18634.16, 6272.21, -184646.30, 0.03, 0.02, -0.94
78, -55521.15, -41115.65, -183767.67, -100546.08, -121665.34, 17892.55, 9889.10, -185279.22, 0.02, 0.02, -0.94
79, -56107.88, -38522.58, -184258.44, -101674.17, -122368.98, 17338.67, 12317.26, -185724.48, 0.02, 0.02, -0.94
80, -55430.78, -42267.48, -183533.70, -99003.88, -121802.63, 18025.70, 9019.69, -185111.58, 0.02, 0.02, -0.94
81, -54794.23, -45265.77, -182935.48, -97619.70, -121274.28, 18665.70, 6200.80, -184605.44, 0.02, 0.02, -0.94
82, -55403.07, -41979.82, -183578.72, -100098.88, -121998.95, 18079.92, 9138.22, -185124.56, 0.02, 0.02, -0.94
83, -56154.44, -38472.40, -184259.89, -101890.94, -122868.16, 17361.61, 12377.41, -185711.67, 0.03, 0.02, -0.94
84, -55664.27, -41359.76, -183701.72, -99643.20, -122487.16, 17867.20, 9880.45, -185250.31, 0.03, 0.02, -0.94
85, -54878.56, -45184.70, -182953.69, -97630.78, -121810.95, 18654.32, 6344.39, -184619.41, 0.03, 0.02, -0.94
86, -55288.20, -42848.61, -183404.19, -99618.97, -122337.53, 18263.99, 8417.02, -184982.20, 0.03, 0.02, -0.94
87, -56159.43, -38650.86, -184227.03, -101964.88, -123327.80, 17428.30, 12272.72, -185674.92, 0.03, 0.02, -0.94
88, -55874.46, -40530.46, -183846.69, -100258.30, -123157.03, 17731.91, 10707.33, -185381.55, 0.02, 0.01, -0.94
89, -54996.69, -44886.19, -182998.22, -97773.92, -122391.98, 18609.93, 6702.35, -184659.22, 0.02, 0.01, -0.94
90, -55179.55, -43656.66, -183225.00, -99136.13, -122689.88, 18442.16, 7748.90, -184844.20, 0.02, 0.01, -0.94
91, -56106.61, -39079.36, -184128.80, -101864.90, -123734.45, 17549.70, 11910.46, -185590.59, 0.02, 0.01, -0.94
92, -56061.55, -39791.18, -183976.39, -100853.05, -123801.46, 17617.89, 11403.68, -185490.84, 0.02, 0.01, -0.94
93, -55155.09, -44416.63, -183084.05, -98051.94, -123002.12, 18526.49, 7202.94, -184737.92, 0.02, 0.02, -0.94
94, -55103.04, -44360.63, -183074.14, -98713.86, -123062.64, 18590.88, 7173.55, -184727.03, 0.02, 0.02, -0.94
95, -56024.71, -39708.75, -183998.81, -101644.80, -124104.21, 17702.83, 11407.15, -185470.98, 0.02, 0.02, -0.94
96, -56223.13, -39157.59, -184094.80, -101401.73, -124418.86, 17529.78, 12050.36, -185585.52, 0.02, 0.02, -0.94
97, -55346.76, -43744.96, -183216.84, -98456.19, -123651.30, 18409.92, 7930.13, -184838.64, 0.02, 0.02, -0.94
98, -55062.31, -44885.16, -182974.75, -98352.57, -123478.37, 18703.13, 6805.41, -184643.86, 0.02, 0.02, -0.94
99, -55914.54, -40499.17, -183842.11, -101274.88, -124449.55, 17881.02, 10764.11, -185338.95, 0.02, 0.02, -0.94
100, -56335.25, -38800.08, -184157.36, -101792.57, -124987.06, 17491.47, 12405.29, -185641.45, 0.02, 0.02, -0.94
101, -55548.57, -43047.00, -183343.95, -98922.72, -124309.49, 18285.65, 8630.90, -184953.50, 0.02, 0.02, -0.94
102, -55056.86, -45269.97, -182889.95, -98094.74, -123927.21, 18781.03, 6514.50, -184581.95, 0.02, 0.02, -0.94
103, -55796.12, -41387.98, -183656.83, -100845.21, -124784.91, 18068.86, 10024.80, -185191.27, 0.02, 0.01, -0.94
104, -56422.33, -38576.11, -184198.31, -102116.49, -125531.05, 17475.00, 12660.00, -185673.63, 0.02, 0.01, -0.94
105, -55778.57, -42181.92, -183506.19, -99507.08, -124998.70, 18129.05, 9498.73, -185097.84, 0.02, 0.01, -0.94
106, -55103.20, -45381.13, -182867.75, -97975.54, -124432.89, 18805.55, 6504.02, -184575.61, 0.02, 0.01, -0.94
107, -55667.89, -42303.07, -183467.05, -100347.75, -125114.89, 18261.58, 9270.07, -185051.03, 0.02, 0.01, -0.94
108, -56451.56, -38625.67, -184187.73, -102269.20, -126018.88, 17512.84, 12661.35, -185665.81, 0.02, 0.02, -0.94
109, -55998.52, -41342.41, -183660.66, -100110.04, -125679.43, 17981.73, 10331.85, -185234.98, 0.02, 0.02, -0.94
110, -55193.52, -45283.20, -182886.80, -97995.54, -124984.06, 18787.78, 6687.37, -184580.56, 0.02, 0.02, -0.94
111, -55552.67, -43194.84, -183285.11, -99839.20, -125458.37, 18445.31, 8538.99, -184900.02, 0.02, 0.02, -0.94
112, -56438.98, -38887.88, -184136.44, -102277.80, -126464.45, 17590.98, 12487.94, -185610.02, 0.02, 0.02, -0.94
113, -56206.75, -40526.10, -183815.64, -100709.38, -126345.63, 17841.34, 11148.29, -185364.80, 0.02, 0.02, -0.94
114, -55318.98, -44979.15, -182950.34, -98135.71, -125565.70, 18730.45, 7062.28, -184629.98, 0.02, 0.02, -0.94
115, -55446.14, -44035.13, -183117.20, -99329.90, -125804.60, 18617.35, 7846.49, -184765.97, 0.02, 0.02, -0.94
116, -56372.19, -39438.09, -184031.61, -102105.02, -126848.98, 17723.28, 12028.86, -185515.22, 0.02, 0.02, -0.94
117, -56383.04, -39860.36, -183942.88, -101262.12, -126973.15, 17735.37, 11795.75, -185468.72, 0.02, 0.02, -0.94
118, -55479.22, -44505.14, -183046.94, -98410.39, -126176.02, 18643.05, 7582.72, -184709.38, 0.02, 0.02, -0.93
119, -55375.17, -44717.77, -182981.80, -98901.73, -126183.38, 18756.73, 7312.04, -184659.06, 0.02, 0.02, -0.93
120, -56287.88, -40091.74, -183900.30, -101839.75, -127215.10, 17874.55, 11530.66, -185402.48, 0.02, 0.02, -0.93
121, -56537.30, -39284.64, -184048.77, -101754.41, -127580.73, 17653.50, 12389.30, -185558.23, 0.02, 0.02, -0.93
122, -55673.41, -43830.09, -183176.30, -98804.85, -126827.19, 18522.24, 8302.94, -184818.92, 0.02, 0.02, -0.93
123, -55337.89, -45233.87, -182878.41, -98528.48, -126602.34, 18863.93, 6941.76, -184579.22, 0.03, 0.01, -0.94
124, -56170.02, -40934.29, -183733.61, -101423.77, -127552.21, 18058.13, 10852.13, -185259.55, 0.03, 0.01, -0.94
125, -56640.19, -38955.74, -184115.63, -102117.34, -128141.77, 17615.32, 12762.15, -185608.20, 0.03, 0.01, -0.94
126, -55878.64, -43081.51, -183326.67, -99282.66, -127491.24, 18381.78, 9114.17, -184944.14, 0.03, 0.01, -0.94
127, -55336.23, -45552.14, -182824.80, -98274.42, -127058.51, 18925.42, 6782.28, -184537.34, 0.03, 0.01, -0.94
128, -56029.81, -41850.58, -183552.27, -100933.61, -127870.55, 18253.19, 10132.31, -185114.08, 0.02, 0.01, -0.93
129, -56689.88, -38829.11, -184139.00, -102357.11, -128650.89, 17622.81, 12951.07, -185624.06, 0.02, 0.01, -0.93
130, -56085.24, -42241.27, -183484.48, -99842.45, -128159.24, 18237.48, 9971.87, -185075.17, 0.02, 0.01, -0.93
131, -55373.00, -45633.70, -182811.92, -98165.30, -127559.03, 18948.33, 6798.44, -184519.83, 0.02, 0.01, -0.93
132, -55892.01, -42772.18, -183368.20, -100427.48, -128194.98, 18448.62, 9361.58, -184964.19, 0.02, 0.01, -0.93
133, -56704.61, -38917.92, -184127.83, -102482.12, -129128.23, 17670.26, 12917.32, -185606.95, 0.02, 0.01, -0.93
134, -56305.18, -41364.09, -183654.53, -100467.76, -128843.03, 18086.23, 10824.19, -185217.20, 0.02, 0.01, -0.93
135, -55471.66, -45457.23, -182854.11, -98226.73, -128119.23, 18919.05, 7041.69, -184549.55, 0.02, 0.01, -0.93
136, -55777.41, -43616.41, -183202.20, -99930.53, -128540.67, 18628.35, 8677.13, -184831.22, 0.02, 0.01, -0.93
137, -56678.68, -39209.88, -184075.03, -102458.29, -129563.98, 17759.27, 12723.73, -185552.52, 0.02, 0.01, -0.93
138, -56499.31, -40575.10, -183802.05, -101045.64, -129499.41, 17956.92, 11626.13, -185345.95, 0.02, 0.01, -0.94
139, -55600.34, -45098.69, -182924.41, -98394.59, -128708.90, 18854.28, 7475.85, -184599.34, 0.02, 0.01, -0.94
140, -55670.86, -44424.23, -183038.55, -99426.77, -128896.11, 18792.41, 8015.65, -184686.73, 0.02, 0.01, -0.94
141, -56599.96, -39780.00, -183959.83, -102258.47, -129948.16, 17893.22, 12262.19, -185441.23, 0.02, 0.01, -0.94
142, -56667.95, -39910.00, -183924.31, -101586.46, -130133.10, 17848.45, 12297.30, -185444.69, 0.02, 0.01, -0.94
143, -55765.41, -44557.06, -183031.72, -98694.95, -129340.22, 18749.85, 8084.63, -184688.09, 0.02, 0.02, -0.94
144, -55598.29, -45064.22, -182907.58, -98995.13, -129285.66, 18923.21, 7529.34, -184589.42, 0.02, 0.02, -0.94
145, -56492.24, -40500.27, -183815.02, -101932.29, -130300.16, 18057.37, 11686.61, -185316.16, 0.02, 0.02, -0.94
146, -56796.81, -39392.07, -184027.92, -102045.95, -130722.81, 17778.87, 12815.66, -185523.55, 0.02, 0.02, -0.94
147, -55953.68, -43848.11, -183177.34, -99118.83, -129989.85, 18622.73, 8814.95, -184802.03, 0.02, 0.02, -0.94
148, -55567.46, -45506.99, -182832.59, -98668.73, -129715.91, 19010.85, 7216.13, -184521.36, 0.02, 0.02, -0.95
149, -56371.48, -41324.38, -183660.44, -101517.06, -130639.23, 18232.70, 11019.12, -185181.00, 0.02, 0.02, -0.95
150, -56895.07, -39074.02, -184095.31, -102388.06, -131280.89, 17738.12, 13176.08, -185576.56, 0.02, 0.02, -0.95
151, -56173.38, -43032.89, -183338.20, -99618.52, -130669.97, 18467.59, 9675.62, -184934.77, 0.02, 0.02, -0.95
152, -55585.46, -45748.90, -182791.00, -98435.31, -130193.61, 19056.40, 7110.76, -184473.44, 0.02, 0.02, -0.95
153, -56239.27, -42238.34, -183480.17, -101002.86, -130966.96, 18422.78, 10288.40, -185029.91, 0.02, 0.02, -0.94
154, -56941.67, -38995.54, -184109.33, -102578.43, -131790.03, 17748.56, 13319.63, -185580.41, 0.02, 0.02, -0.94
155, -56379.05, -42220.86, -183487.50, -100148.89, -131338.42, 18320.74, 10507.62, -185065.11, 0.02, 0.02, -0.94
156, -55636.75, -45795.59, -182781.36, -98332.61, -130706.00, 19061.57, 7169.63, -184476.11, 0.02, 0.02, -0.94
157, -56106.36, -43164.55, -183290.56, -100462.82, -131292.42, 18609.06, 9530.14, -184890.19, 0.02, 0.02, -0.94
158, -56944.96, -39151.36, -184083.13, -102636.66, -132250.95, 17802.58, 13235.18, -185555.50, 0.02, 0.02, -0.94
159, -56595.42, -41350.35, -183656.50, -100756.36, -132015.70, 18166.13, 11365.84, -185207.95, 0.02, 0.02, -0.94
160, -55740.84, -45562.89, -182833.17, -98410.81, -131272.63, 19017.73, 7460.43, -184500.05, 0.02, 0.02, -0.94
161, -55993.40, -43979.31, -183129.33, -99969.45, -131641.52, 18776.96, 8834.04, -184739.42, 0.02, 0.02, -0.94
162, -56907.94, -39489.52, -184019.64, -102580.13, -132678.31, 17892.19, 12956.05, -185481.08, 0.02, 0.02, -0.94
163, -56791.54, -40547.23, -183803.89, -101347.19, -132676.64, 18027.53, 12128.91, -185330.47, 0.02, 0.02, -0.95
164, -55885.98, -45140.40, -182915.47, -98614.91, -131880.70, 18932.80, 7914.19, -184577.17, 0.02, 0.02, -0.95
165, -55906.07, -44733.13, -182974.13, -99478.72, -132014.09, 18925.02, 8216.34, -184630.41, 0.02, 0.02, -0.95
166, -56834.94, -40072.77, -183897.23, -102345.82, -133064.77, 18027.55, 12481.93, -185390.39, 0.02, 0.02, -0.95
167, -56958.88, -39917.27, -183920.83, -101848.54, -133303.67, 17928.31, 12772.99, -185437.16, 0.02, 0.02, -0.95
168, -56064.39, -44551.90, -183031.59, -98929.09, -132520.19, 18823.70, 8573.32, -184671.88, 0.02, 0.02, -0.94
169, -55844.98, -45340.24, -182853.72, -99050.55, -132414.55, 19049.09, 7753.35, -184514.56, 0.02, 0.02, -0.94
170, -56722.13, -40842.45, -183746.42, -101979.80, -133413.44, 18199.17, 11843.45, -185243.30, 0.02, 0.02, -0.94
171, -57080.27, -39461.63, -184005.16, -102268.77, -133891.73, 17866.55, 13217.30, -185498.53, 0.02, 0.02, -0.94
172, -56260.72, -43835.21, -183170.58, -99362.93, -133183.89, 18688.72, 9288.16, -184793.52, 0.02, 0.02, -0.94
173, -55825.40, -45747.11, -182776.56, -98744.86, -132859.75, 19127.08, 7435.17, -184466.06, 0.03, 0.02, -0.93
174, -56597.95, -41693.87, -183579.39, -101543.57, -133752.09, 18378.56, 11112.04, -185109.14, 0.03, 0.02, -0.93
175, -57168.59, -39183.59, -184062.30, -102593.32, -134440.53, 17837.43, 13489.90, -185543.36, 0.03, 0.02, -0.93
176, -56480.31, -42978.36, -183332.67, -99900.25, -133863.59, 18532.90, 10128.71, -184932.81, 0.03, 0.02, -0.93
177, -55847.78, -45932.18, -182743.77, -98552.66, -133343.86, 19163.56, 7347.15, -184447.61, 0.03, 0.02, -0.93
178, -56465.11, -42594.13, -183398.42, -101035.83, -134081.20, 18565.36, 10366.87, -184968.50, 0.02, 0.02, -0.93
179, -57205.31, -39150.66, -184069.81, -102756.27, -134942.48, 17855.09, 13588.88, -185550.97, 0.02, 0.02, -0.93
180, -56694.30, -42136.12, -183494.88, -100452.24, -134543.95, 18377.00, 10991.02, -185072.14, 0.02, 0.02, -0.93
181, -55915.84, -45905.03, -182751.91, -98485.47, -133874.92, 19154.19, 7466.18, -184438.70, 0.02, 0.02, -0.93
182, -56337.93, -43512.07, -183212.08, -100486.94, -134412.95, 18748.66, 9608.03, -184821.19, 0.02, 0.02, -0.93
183, -57200.62, -39358.49, -184030.78, -102771.40, -135396.00, 17915.91, 13442.85, -185511.56, 0.02, 0.02, -0.94
184, -56898.18, -41329.04, -183643.53, -101011.71, -135209.03, 18231.63, 11784.96, -185205.13, 0.02, 0.02, -0.94
185, -56022.50, -45669.69, -182798.50, -98555.59, -134444.48, 19101.64, 7752.28, -184487.06, 0.02, 0.02, -0.94
186, -56216.91, -44373.20, -183037.41, -99947.41, -134756.77, 18916.39, 8861.26, -184676.30, 0.02, 0.02, -0.94
187, -57139.50, -39818.09, -183943.78, -102632.19, -135801.28, 18025.63, 13035.74, -185421.77, 0.02, 0.02, -0.94
188, -57081.68, -40596.27, -183791.06, -101568.73, -135859.23, 18106.28, 12463.49, -185319.30, 0.02, 0.02, -0.94
189, -56175.36, -45215.34, -182902.91, -98786.13, -135062.52, 19013.51, 8223.61, -184557.81, 0.02, 0.02, -0.94
190, -56138.28, -45078.80, -182907.84, -99485.09, -135138.44, 19060.65, 8254.43, -184563.47, 0.02, 0.02, -0.94
191, -57057.12, -40441.70, -183829.19, -102371.37, -136178.56, 18170.29, 12497.73, -185320.52, 0.02, 0.02, -0.94
192, -57240.04, -39967.42, -183907.95, -102073.95, -136477.91, 18010.95, 13055.00, -185422.25, 0.02, 0.02, -0.94
193, -56357.91, -44568.13, -183025.16, -99145.12, -135704.64, 18894.89, 8874.71, -184666.73, 0.02, 0.01, -0.94
194, -56084.41, -45639.64, -182793.88, -99087.05, -135541.00, 19172.70, 7800.71, -184462.19, 0.02, 0.01, -0.94
195, -56945.31, -41205.71, -183672.28, -102005.27, -136520.69, 18336.07, 11848.23, -185181.11, 0.02, 0.01, -0.94
196, -57357.57, -39552.24, -183986.13, -102472.40, -137052.13, 17949.25, 13473.32, -185485.20, 0.02, 0.01, -0.94
197, -56562.12, -43826.88, -183168.14, -99595.95, -136367.67, 18747.77, 9625.49, -184790.31, 0.02, 0.01, -0.94
198, -56078.82, -45994.17, -182725.30, -98806.55, -135995.58, 19231.44, 7534.42, -184420.59, 0.02, 0.02, -0.93
199, -56823.88, -42065.76, -183500.86, -101552.60, -136859.48, 18508.00, 11107.74, -185049.30, 0.02, 0.02, -0.93
200, -57431.62, -39327.54, -184027.58, -102755.05, -137589.67, 17925.74, 13686.06, -185521.69, 0.02, 0.02, -0.93
201, -56767.82, -43004.06, -183322.00, -100118.34, -137041.27, 18594.19, 10417.52, -184928.53, 0.02, 0.02, -0.93
202, -56100.02, -46137.29, -182695.33, -98644.26, -136486.88, 19258.78, 7438.95, -184385.81, 0.02, 0.02, -0.93
203, -56675.64, -42998.09, -183308.03, -101028.74, -137182.02, 18702.53, 10268.75, -184882.02, 0.02, 0.02, -0.93
204, -57449.70, -39359.12, -184026.53, -102896.90, -138076.84, 17960.10, 13651.60, -185498.19, 0.02, 0.01, -0.94
205, -56984.83, -42116.77, -183498.20, -100720.84, -137724.38, 18438.06, 11258.33, -185059.27, 0.02, 0.01, -0.94
206, -56182.65, -46026.71, -182730.84, -98639.66, -137032.38, 19238.32, 7602.88, -184398.39, 0.02, 0.01, -0.94
207, -56554.74, -43854.95, -183140.95, -100515.63, -137519.94, 18883.16, 9526.31, -184735.98, 0.02, 0.01, -0.94
208, -57430.44, -39596.25, -183977.67, -102893.62, -138517.44, 18039.29, 13458.63, -185441.86, 0.02, 0.01, -0.94
209, -57189.98, -41254.61, -183649.17, -101318.11, -138392.14, 18296.00, 12072.49, -185186.56, 0.03, 0.01, -0.94
210, -56301.79, -45701.89, -182788.41, -98766.01, -137612.83, 19182.42, 7961.53, -184460.14, 0.03, 0.01, -0.94
211, -56447.70, -44654.27, -182976.48, -100007.49, -137872.39, 19048.47, 8851.42, -184610.30, 0.03, 0.01, -0.94
212, -57376.93, -40044.98, -183887.66, -102751.34, -138923.33, 18148.32, 13095.06, -185361.78, 0.03, 0.01, -0.94
213, -57369.57, -40548.93, -183775.75, -101850.57, -139032.47, 18174.11, 12775.14, -185305.45, 0.03, 0.01, -0.94
214, -56464.82, -45190.22, -182882.48, -99025.96, -138236.23, 19080.48, 8518.81, -184538.48, 0.02, 0.01, -0.94
215, -56370.70, -45341.07, -182830.20, -99550.11, -138254.52, 19183.61, 8286.95, -184485.75, 0.02, 0.01, -0.94
216, -57285.08, -40699.11, -183749.03, -102465.63, -139290.84, 18298.21, 12546.17, -185241.23, 0.02, 0.01, -0.94
217, -57519.04, -39967.73, -183881.14, -102326.95, -139642.72, 18088.64, 13349.31, -185391.83, 0.02, 0.01, -0.94
218, -56652.04, -44523.54, -183009.44, -99394.65, -138885.11, 18956.85, 9214.37, -184648.67, 0.02, 0.01, -0.94
219, -56328.54, -45839.49, -182729.81, -99171.91, -138674.83, 19281.02, 7898.50, -184410.48, 0.02, 0.01, -0.93
220, -57160.98, -41513.58, -183587.55, -102057.21, -139628.23, 18472.60, 11830.00, -185107.27, 0.02, 0.01, -0.93
221, -57618.04, -39601.59, -183955.78, -102696.49, -140204.33, 18043.11, 13676.23, -185445.53, 0.02, 0.01, -0.93
222, -56848.96, -43760.31, -183165.09, -99869.18, -139546.61, 18816.19, 9941.59, -184771.36, 0.02, 0.01, -0.93
223, -56317.92, -46161.04, -182677.88, -98921.02, -139128.66, 19345.01, 7620.54, -184355.91, 0.02, 0.01, -0.93
224, -57018.23, -42426.09, -183409.78, -101580.34, -139946.02, 18667.46, 10988.41, -184952.66, 0.02, 0.01, -0.93
225, -57669.67, -39463.95, -183986.72, -102956.58, -140716.23, 18047.00, 13764.36, -185457.05, 0.02, 0.01, -0.93
226, -57058.70, -42917.79, -183325.77, -100435.34, -140215.89, 18667.04, 10704.56, -184902.23, 0.02, 0.01, -0.93
227, -56360.88, -46246.96, -182665.06, -98818.87, -139625.23, 19364.39, 7554.51, -184352.56, 0.02, 0.01, -0.93
228, -56897.75, -43305.09, -183237.63, -101101.63, -140277.91, 18847.48, 10212.98, -184808.78, 0.02, 0.01, -0.93
229, -57702.12, -39500.49, -183980.00, -103093.57, -141202.25, 18075.36, 13752.87, -185449.73, 0.02, 0.02, -0.94
230, -57283.79, -42042.49, -183484.86, -101030.48, -140896.83, 18507.24, 11555.27, -185052.41, 0.02, 0.02, -0.94
231, -56457.75, -46096.92, -182692.00, -98826.09, -140179.67, 19333.34, 7763.77, -184369.61, 0.02, 0.02, -0.94
232, -56778.95, -44191.34, -183054.03, -100552.18, -140615.06, 19027.55, 9446.70, -184662.11, 0.02, 0.02, -0.94
233, -57677.98, -39807.65, -183919.67, -103038.38, -141634.89, 18159.72, 13485.10, -185391.64, 0.02, 0.02, -0.94
234, -57486.29, -41251.68, -183630.50, -101589.66, -141556.95, 18369.47, 12297.15, -185177.98, 0.02, 0.01, -0.94
235, -56593.52, -45741.30, -182761.25, -98984.92, -140773.19, 19259.74, 8124.77, -184426.70, 0.02, 0.01, -0.94
236, -56685.88, -44964.33, -182897.75, -100067.28, -140980.83, 19176.52, 8740.38, -184537.56, 0.02, 0.01, -0.94
237, -57611.71, -40327.87, -183816.53, -102858.09, -142028.03, 18280.66, 12983.19, -185300.53, 0.02, 0.01, -0.94
238, -57658.67, -40546.53, -183768.50, -102134.26, -142190.17, 18255.85, 12899.26, -185286.55, 0.02, 0.01, -0.94
239, -56754.52, -45186.15, -182878.55, -99277.37, -141395.88, 19158.78, 8636.89, -184526.78, 0.02, 0.02, -0.94
240, -56607.51, -45591.70, -182773.72, -99640.48, -141361.53, 19310.81, 8153.45, -184437.36, 0.02, 0.02, -0.94
241, -57504.55, -41011.72, -183680.17, -102551.12, -142380.83, 18441.11, 12353.45, -185173.59, 0.02, 0.02, -0.94
242, -57797.25, -39972.56, -183871.13, -102606.91, -142790.81, 18172.77, 13432.64, -185374.28, 0.02, 0.02, -0.94
243, -56951.73, -44449.82, -183017.55, -99684.77, -142054.61, 19019.52, 9376.04, -184639.06, 0.02, 0.02, -0.94
244, -56578.19, -46058.36, -182688.47, -99276.27, -141792.72, 19393.89, 7805.32, -184349.88, 0.02, 0.01, -0.94
245, -57392.19, -41839.20, -183528.88, -102116.69, -142725.97, 18605.08, 11668.10, -185046.86, 0.02, 0.01, -0.94
246, -57900.29, -39656.24, -183945.17, -102912.70, -143351.61, 18126.59, 13775.63, -185427.25, 0.02, 0.01, -0.94
247, -57166.91, -43539.09, -183177.19, -100170.34, -142726.72, 18867.69, 10290.65, -184772.91, 0.02, 0.01, -0.94
248, -56589.30, -46122.67, -182638.80, -99091.92, -142256.06, 19446.84, 7807.53, -184316.39, 0.02, 0.01, -0.94
249, -57255.60, -42724.26, -183335.95, -101636.44, -143036.34, 18802.69, 10930.90, -184883.20, 0.02, 0.01, -0.94
250, -57950.72, -39653.31, -183952.09, -103097.84, -143848.27, 18139.09, 13815.01, -185430.63, 0.02, 0.01, -0.94
251, -57383.68, -42801.24, -183324.78, -100671.78, -143391.59, 18716.17, 11038.03, -184910.55, 0.02, 0.01, -0.94
252, -56648.04, -46209.19, -182626.75, -98951.05, -142764.63, 19449.50, 7817.34, -184308.28, 0.02, 0.01, -0.94
253, -57119.50, -43673.05, -183137.58, -101059.30, -143350.38, 18995.45, 10150.75, -184721.83, 0.02, 0.01, -0.94
254, -57944.13, -39861.12, -183916.05, -103098.91, -144292.69, 18203.10, 13748.07, -185381.42, 0.03, 0.02, -0.93
255, -57581.91, -42046.78, -183478.22, -101170.07, -144042.22, 18579.02, 11901.39, -185031.27, 0.03, 0.02, -0.93
0, -56728.86, -46089.32, -182655.70, -98894.22, -143297.16, 19428.38, 8146.32, -184339.38, 0.03, 0.02, -0.93
1, -56982.71, -44564.19, -182950.19, -100439.23, -143663.94, 19186.58, 9545.27, -184576.88, 0.03, 0.02, -0.93
2, -57883.91, -40307.84, -183832.70, -102900.66, -144685.66, 18314.75, 13561.72, -185300.84, 0.03, 0.02, -0.93
3, -57760.04, -41386.42, -183624.73, -101593.55, -144675.39, 18459.12, 12755.04, -185146.56, 0.02, 0.02, -0.93
4, -56861.79, -45810.26, -182749.02, -98915.36, -143883.45, 19357.30, 8683.94, -184407.61, 0.02, 0.02, -0.93
5, -56888.18, -45422.52, -182818.20, -99786.72, -144022.86, 19337.92, 9016.63, -184465.14, 0.02, 0.02, -0.93
6, -57814.91, -40983.87, -183740.05, -102520.52, -145069.50, 18437.71, 13174.59, -185220.20, 0.02, 0.02, -0.93
7, -57926.55, -40934.78, -183749.66, -101903.37, -145294.73, 18348.12, 13390.88, -185260.53, 0.02, 0.02, -0.93
8, -57033.02, -45436.11, -182864.05, -99015.12, -144508.19, 19242.01, 9292.67, -184501.03, 0.02, 0.02, -0.93
9, -56822.29, -46216.59, -182698.59, -99156.58, -144409.41, 19457.33, 8559.13, -184361.11, 0.02, 0.02, -0.93
10, -57699.73, -41952.26, -183592.55, -101960.16, -145406.83, 18605.52, 12602.72, -185092.20, 0.02, 0.02, -0.93
11, -58053.11, -40716.96, -183846.94, -102134.10, -145876.13, 18277.58, 13950.26, -185340.23, 0.02, 0.02, -0.93
12, -57238.99, -44942.52, -183018.73, -99284.63, -145171.56, 19093.93, 10166.65, -184632.33, 0.02, 0.02, -0.93
13, -56813.73, -46739.62, -182637.08, -98754.48, -144856.05, 19520.34, 8458.26, -184294.59, 0.02, 0.01, -0.93
14, -57588.15, -42837.23, -183438.80, -101491.13, -145746.91, 18770.12, 12105.64, -184955.06, 0.02, 0.01, -0.93
15, -58148.08, -40481.67, -183906.30, -102406.13, -146423.55, 18238.82, 14431.81, -185381.20, 0.02, 0.01, -0.93
16, -57452.70, -44173.50, -183168.83, -99700.78, -145836.25, 18941.74, 11154.62, -184762.86, 0.02, 0.01, -0.93
17, -56823.16, -46999.37, -182579.53, -98416.38, -145312.08, 19572.15, 8491.43, -184276.94, 0.02, 0.01, -0.93
18, -57437.59, -43801.04, -183231.56, -100844.07, -146042.97, 18978.06, 11478.67, -184794.58, 0.03, 0.01, -0.93
19, -58163.59, -40552.90, -183892.63, -102434.78, -146888.63, 18282.01, 14597.59, -185365.27, 0.03, 0.01, -0.93
20, -57645.75, -43484.25, -183316.17, -100108.45, -146481.91, 18810.45, 12064.13, -184889.36, 0.03, 0.01, -0.93
21, -56876.74, -47062.25, -182587.11, -98237.97, -145822.95, 19576.60, 8709.78, -184272.11, 0.03, 0.01, -0.93
22, -57295.88, -44749.09, -183048.28, -100220.84, -146357.11, 19173.68, 10847.37, -184649.88, 0.03, 0.01, -0.93
23, -58139.88, -40807.94, -183853.17, -102373.31, -147317.30, 18360.79, 14574.63, -185320.97, 0.03, 0.01, -0.94
24, -57824.61, -42768.09, -183460.14, -100571.02, -147113.30, 18689.81, 12951.81, -185006.97, 0.03, 0.01, -0.94
25, -56955.28, -46907.14, -182621.86, -98211.46, -146351.73, 19557.22, 9096.06, -184313.22, 0.03, 0.01, -0.94
26, -57153.57, -45628.83, -182863.66, -99624.90, -146664.61, 19369.98, 10240.14, -184507.59, 0.03, 0.01, -0.94
27, -58066.23, -41273.16, -183764.08, -102196.58, -147697.50, 18485.50, 14304.29, -185237.14, 0.03, 0.01, -0.94
28, -57997.50, -42066.63, -183611.95, -101074.61, -147741.27, 18571.28, 13716.50, -185127.28, 0.03, 0.01, -0.93
29, -57094.51, -46499.16, -182729.69, -98370.85, -146944.92, 19473.15, 9590.80, -184383.69, 0.03, 0.01, -0.93
30, -57065.25, -46344.82, -182742.69, -99117.73, -147026.39, 19510.97, 9651.26, -184397.06, 0.03, 0.01, -0.93
31, -57986.61, -41900.15, -183665.94, -101916.09, -148064.34, 18618.96, 13786.53, -185146.09, 0.03, 0.01, -0.93
32, -58162.07, -41523.24, -183738.58, -101526.13, -148353.23, 18466.32, 14277.71, -185238.16, 0.03, 0.01, -0.93
33, -57281.55, -45970.54, -182856.63, -98652.82, -147579.05, 19347.63, 10182.45, -184491.78, 0.03, 0.01, -0.93
34, -57014.76, -46986.76, -182634.94, -98667.46, -147421.42, 19618.68, 9155.97, -184308.25, 0.03, 0.01, -0.93
35, -57873.05, -42746.04, -183513.98, -101512.27, -148396.41, 18784.47, 13082.48, -185015.80, 0.03, 0.01, -0.93
36, -58275.67, -41227.81, -183818.89, -101878.11, -148911.61, 18409.52, 14600.52, -185304.27, 0.03, 0.01, -0.93
37, -57482.25, -45349.68, -183007.03, -99049.56, -148223.05, 19206.70, 10838.11, -184612.80, 0.03, 0.01, -0.93
38, -57006.20, -47382.88, -182575.22, -98354.87, -147855.05, 19681.36, 8807.50, -184237.17, 0.02, 0.01, -0.95
39, -57746.42, -43612.63, -183345.86, -101065.69, -148712.28, 18961.68, 12228.73, -184872.61, 0.02, 0.01, -0.95
40, -58352.78, -41005.93, -183865.72, -102195.70, -149436.00, 18383.06, 14680.76, -185337.44, 0.02, 0.01, -0.95
41, -57703.80, -44511.08, -183175.31, -99626.73, -148897.14, 19038.50, 11487.90, -184754.02, 0.02, 0.01, -0.95
42, -57055.11, -47451.32, -182569.73, -98286.83, -148356.22, 19685.70, 8600.59, -184223.52, 0.02, 0.01, -0.95
43, -57638.62, -44398.54, -183193.75, -100695.19, -149056.41, 19119.26, 11329.92, -184738.41, 0.02, 0.02, -0.94
44, -58410.29, -40929.86, -183895.03, -102495.40, -149945.98, 18376.44, 14538.76, -185351.09, 0.02, 0.02, -0.94
45, -57952.95, -43593.25, -183359.67, -100348.27, -149598.59, 18844.15, 12146.14, -184913.98, 0.02, 0.02, -0.94
46, -57161.66, -47333.82, -182605.14, -98382.41, -148914.27, 19633.59, 8548.60, -184259.50, 0.02, 0.02, -0.94
47, -57542.55, -45230.86, -183027.86, -100291.58, -149409.77, 19267.74, 10382.23, -184606.89, 0.02, 0.02, -0.94
48, -58419.30, -41155.50, -183856.09, -102593.27, -150405.31, 18419.58, 14139.53, -185315.31, 0.02, 0.01, -0.95
49, -58174.41, -42816.62, -183515.97, -100991.30, -150271.78, 18677.43, 12670.11, -185056.36, 0.02, 0.01, -0.95
50, -57300.28, -47040.79, -182671.91, -98570.67, -149502.88, 19547.61, 8621.83, -184323.98, 0.02, 0.01, -0.95
51, -57457.01, -46020.21, -182873.92, -99868.02, -149768.33, 19399.99, 9423.81, -184482.84, 0.02, 0.01, -0.95
52, -58392.97, -41606.41, -183783.33, -102540.44, -150819.44, 18493.36, 13466.86, -185248.09, 0.02, 0.01, -0.95
53, -58390.40, -42152.01, -183657.97, -101592.85, -150928.63, 18515.00, 13055.23, -185191.14, 0.02, 0.01, -0.94
54, -57495.57, -46608.26, -182771.58, -98850.77, -150139.02, 19408.20, 8854.93, -184429.17, 0.02, 0.01, -0.94
55, -57415.75, -46732.42, -182736.84, -99432.89, -150168.31, 19493.69, 8603.57, -184384.70, 0.02, 0.01, -0.94
56, -58329.82, -42312.54, -183653.06, -102256.05, -151198.34, 18604.36, 12678.11, -185137.64, 0.02, 0.01, -0.94
57, -58563.74, -41683.14, -183768.08, -102030.37, -151545.17, 18392.82, 13382.28, -185288.78, 0.02, 0.01, -0.94
58, -57708.11, -46083.57, -182904.23, -99144.49, -150796.11, 19248.85, 9329.68, -184543.08, 0.03, 0.01, -0.94
59, -57401.16, -47331.80, -182646.47, -98991.78, -150598.88, 19557.35, 8044.68, -184311.00, 0.03, 0.01, -0.94
60, -58243.55, -43186.52, -183508.84, -101806.76, -151557.73, 18739.01, 11846.92, -185014.13, 0.03, 0.01, -0.94
61, -58706.27, -41397.75, -183855.20, -102351.25, -152134.38, 18303.69, 13593.91, -185360.13, 0.03, 0.01, -0.94
62, -57951.05, -45410.05, -183064.67, -99548.56, -151487.09, 19061.30, 9947.60, -184678.06, 0.03, 0.01, -0.94
63, -57433.10, -47734.92, -182592.95, -98643.54, -151078.70, 19576.64, 7705.50, -184268.67, 0.03, 0.01, -0.94
64, -58145.60, -44134.68, -183339.78, -101257.27, -151908.73, 18883.49, 11032.53, -184869.11, 0.03, 0.01, -0.94
65, -58796.53, -41345.36, -183896.53, -102491.80, -152677.11, 18258.54, 13734.12, -185383.64, 0.03, 0.01, -0.94
66, -58186.19, -44719.74, -183220.86, -99933.35, -152174.19, 18874.51, 10752.95, -184815.14, 0.03, 0.01, -0.94
67, -57494.74, -47918.05, -182572.53, -98358.34, -151587.98, 19562.38, 7723.40, -184251.39, 0.03, 0.01, -0.94
68, -58033.29, -45104.61, -183153.58, -100590.36, -152239.47, 19039.75, 10338.75, -184722.91, 0.03, 0.02, -0.94
69, -58830.17, -41482.49, -183880.64, -102445.87, -153153.30, 18270.96, 13788.81, -185359.59, 0.03, 0.02, -0.94
70, -58403.52, -43994.76, -183364.42, -100311.32, -152836.33, 18707.83, 11642.89, -184939.98, 0.03, 0.02, -0.94
71, -57583.59, -47874.48, -182578.50, -98169.10, -152121.41, 19523.71, 8018.40, -184259.28, 0.03, 0.02, -0.94
72, -57904.98, -46040.37, -182946.20, -99876.17, -152555.36, 19214.05, 9715.43, -184551.22, 0.03, 0.02, -0.94
73, -58796.24, -41865.75, -183803.44, -102231.35, -153565.23, 18350.80, 13661.16, -185274.52, 0.03, 0.01, -0.94
74, -58605.38, -43287.79, -183518.95, -100717.43, -153485.38, 18556.73, 12539.78, -185057.89, 0.03, 0.01, -0.94
75, -57722.26, -47603.31, -182663.59, -98148.20, -152705.25, 19437.93, 8544.47, -184312.59, 0.03, 0.01, -0.94
76, -57824.00, -46827.15, -182812.28, -99245.66, -152916.53, 19344.83, 9214.60, -184429.36, 0.03, 0.01, -0.94
77, -58751.31, -42378.70, -183727.02, -101932.02, -153961.53, 18444.57, 13372.06, -185189.72, 0.03, 0.01, -0.94
78, -58809.29, -42578.15, -183669.16, -101157.29, -154133.28, 18405.99, 13332.14, -185180.64, 0.02, 0.01, -0.94
79, -57918.11, -47025.32, -182788.58, -98343.42, -153350.83, 19293.94, 9208.31, -184417.94, 0.02, 0.01, -0.94
80, -57785.83, -47375.13, -182707.59, -98755.05, -153327.95, 19430.33, 8778.58, -184336.80, 0.02, 0.01, -0.94
81, -58697.33, -42915.04, -183622.25, -101623.09, -154353.67, 18546.76, 12868.41, -185091.28, 0.02, 0.01, -0.94
82, -58986.21, -41948.93, -183786.34, -101596.74, -154757.17, 18281.58, 13825.02, -185286.72, 0.02, 0.01, -0.94
83, -58149.76, -46239.41, -182934.20, -98733.17, -154025.67, 19119.44, 9832.33, -184551.39, 0.03, 0.02, -0.94
84, -57802.50, -47688.20, -182637.14, -98434.77, -153784.11, 19469.33, 8321.42, -184288.81, 0.03, 0.02, -0.94
85, -58631.24, -43580.94, -183487.41, -101255.86, -154729.56, 18665.07, 12049.85, -184987.70, 0.03, 0.02, -0.94
86, -59147.34, -41500.15, -183880.00, -101982.27, -155360.02, 18175.97, 14007.35, -185378.59, 0.03, 0.02, -0.94
87, -58423.79, -45374.35, -183105.02, -99230.61, -154742.95, 18903.23, 10441.44, -184715.91, 0.03, 0.02, -0.94
88, -57875.71, -47835.84, -182604.84, -98218.23, -154302.17, 19449.35, 7984.31, -184282.59, 0.03, 0.02, -0.94
89, -58565.79, -44334.50, -183329.27, -100804.11, -155106.86, 18779.55, 11118.85, -184861.80, 0.03, 0.02, -0.94
90, -59271.84, -41253.23, -183930.06, -102257.15, -155928.73, 18101.76, 13950.55, -185428.95, 0.03, 0.02, -0.94
91, -58724.60, -44366.33, -183299.47, -99854.36, -155489.02, 18657.80, 11092.23, -184899.17, 0.03, 0.02, -0.94
92, -58018.33, -47692.61, -182634.63, -98189.13, -154888.94, 19361.62, 7804.27, -184327.39, 0.03, 0.02, -0.94
93, -58530.75, -45016.23, -183186.59, -100388.59, -155514.98, 18867.40, 10110.72, -184765.66, 0.02, 0.02, -0.93
94, -59379.22, -41178.80, -183946.11, -102454.54, -156481.03, 18048.43, 13587.96, -185459.55, 0.02, 0.02, -0.93
95, -59041.59, -43362.61, -183483.86, -100546.99, -156251.72, 18399.40, 11599.66, -185097.67, 0.02, 0.02, -0.93
96, -58226.52, -47338.24, -182695.83, -98335.52, -155542.83, 19210.09, 7766.43, -184418.69, 0.02, 0.02, -0.93
97, -58524.09, -45693.47, -183039.59, -99963.39, -155952.88, 18923.54, 9146.04, -184675.41, 0.02, 0.02, -0.93
98, -59458.99, -41368.83, -183911.47, -102470.56, -157001.80, 18019.82, 13096.62, -185446.92, 0.02, 0.01, -0.95
99, -59344.71, -42500.93, -183649.17, -101146.18, -156994.33, 18152.41, 12115.32, -185281.14, 0.02, 0.01, -0.95
100, -58478.71, -46835.75, -182791.64, -98546.70, -156232.27, 19016.86, 7983.33, -184533.25, 0.02, 0.01, -0.95
101, -58548.71, -46279.55, -182910.94, -99524.70, -156412.50, 18955.42, 8326.07, -184613.09, 0.02, 0.01, -0.95
102, -59504.19, -41733.34, -183834.08, -102321.73, -157485.33, 18027.64, 12442.17, -185399.64, 0.02, 0.01, -0.95
103, -59628.84, -41658.71, -183798.25, -101722.38, -157724.56, 17922.81, 12560.34, -185454.30, 0.02, 0.01, -0.95
104, -58762.27, -46064.51, -182914.84, -98896.05, -156964.77, 18788.50, 8427.41, -184676.97, 0.02, 0.01, -0.95
105, -58595.57, -46631.17, -182797.75, -99148.65, -156907.55, 18960.58, 7755.70, -184563.08, 0.02, 0.01, -0.95
106, -59503.85, -42197.39, -183703.13, -102017.60, -157932.39, 18080.30, 11809.14, -185302.92, 0.02, 0.01, -0.95
107, -59861.90, -40926.16, -183908.47, -102171.20, -158402.67, 17748.58, 13056.03, -185574.70, 0.02, 0.01, -0.95
108, -59062.40, -45113.24, -183066.80, -99310.65, -157707.83, 18552.57, 9186.99, -184822.66, 0.02, 0.02, -0.94
109, -58676.14, -46773.95, -182728.33, -98834.80, -157428.42, 18942.72, 7485.22, -184530.94, 0.02, 0.02, -0.94
110, -59489.19, -42734.01, -183555.63, -101629.89, -158355.00, 18155.72, 11132.42, -185188.72, 0.02, 0.02, -0.94
111, -60066.33, -40353.26, -183987.22, -102554.38, -159045.22, 17607.74, 13372.51, -185661.94, 0.02, 0.02, -0.94
112, -59390.73, -44020.46, -183228.83, -99870.20, -158476.25, 18290.83, 10037.68, -184998.20, 0.02, 0.02, -0.94
113, -58805.58, -46686.38, -182687.64, -98669.34, -157997.06, 18875.73, 7458.17, -184530.72, 0.02, 0.01, -0.94
114, -59458.45, -43339.20, -183373.28, -101154.85, -158764.80, 18243.09, 10536.88, -185052.34, 0.02, 0.01, -0.94
115, -60193.25, -40065.50, -183993.31, -102716.61, -159617.11, 17538.09, 13652.87, -185671.17, 0.02, 0.01, -0.94
116, -59667.78, -43044.90, -183364.58, -100337.24, -159199.17, 18074.27, 11059.78, -185133.45, 0.02, 0.01, -0.94
117, -58916.67, -46563.18, -182649.38, -98488.91, -158553.53, 18824.50, 7761.49, -184514.47, 0.02, 0.01, -0.94
118, -59363.23, -44140.60, -183138.20, -100509.69, -159113.81, 18396.47, 10000.48, -184875.72, 0.02, 0.02, -0.93
119, -60219.51, -40163.89, -183920.08, -102651.05, -160085.72, 17573.46, 13742.05, -185589.91, 0.02, 0.02, -0.93
120, -59908.51, -42130.55, -183493.64, -100820.49, -159886.02, 17899.23, 12070.90, -185245.64, 0.02, 0.02, -0.93
121, -59066.47, -46193.52, -182682.91, -98485.41, -159150.61, 18740.98, 8224.39, -184532.36, 0.02, 0.02, -0.93
122, -59307.60, -44761.20, -182975.00, -99964.30, -159504.34, 18512.85, 9430.74, -184743.48, 0.02, 0.02, -0.93
123, -60245.04, -40343.09, -183865.42, -102550.83, -160559.53, 17607.16, 13480.76, -185518.69, 0.02, 0.02, -0.94
124, -60186.29, -41167.31, -183660.67, -101406.13, -160611.81, 17686.67, 12803.30, -185403.36, 0.02, 0.02, -0.94
125, -59302.89, -45587.50, -182784.38, -98713.30, -159834.45, 18569.07, 8638.93, -184627.33, 0.02, 0.02, -0.94
126, -59305.57, -45349.30, -182839.83, -99502.14, -159946.03, 18575.51, 8758.87, -184645.78, 0.02, 0.02, -0.94
127, -60241.79, -40865.85, -183762.38, -102308.83, -161000.08, 17667.91, 12908.60, -185415.92, 0.02, 0.02, -0.94
128, -60408.65, -40576.62, -183787.48, -101855.47, -161281.16, 17524.10, 13327.12, -185511.97, 0.02, 0.01, -0.95
129, -59537.58, -45042.21, -182906.58, -98957.49, -160515.45, 18397.83, 9252.71, -184718.25, 0.02, 0.01, -0.95
130, -59300.52, -45948.75, -182721.02, -98991.78, -160387.69, 18639.74, 8348.67, -184549.98, 0.02, 0.01, -0.95
131, -60173.29, -41633.61, -183603.81, -101820.51, -161378.06, 17793.66, 12345.27, -185258.27, 0.02, 0.01, -0.95
132, -60565.20, -40154.04, -183858.84, -102116.71, -161883.33, 17428.57, 13815.75, -185559.02, 0.02, 0.01, -0.95
133, -59771.51, -44308.00, -183026.45, -99243.51, -161195.83, 18227.91, 10022.03, -184814.30, 0.02, 0.01, -0.93
134, -59325.30, -46251.66, -182630.53, -98577.74, -160858.53, 18678.08, 8087.49, -184472.06, 0.02, 0.01, -0.93
135, -60097.13, -42380.85, -183430.52, -101302.51, -161746.81, 17931.40, 11602.03, -185096.42, 0.02, 0.01, -0.93
136, -60708.77, -39805.59, -183922.98, -102382.43, -162475.09, 17349.33, 14015.53, -185598.83, 0.02, 0.01, -0.93
137, -60065.39, -43367.32, -183209.33, -99764.20, -161942.39, 17997.45, 10786.79, -184972.38, 0.02, 0.01, -0.93
138, -59442.47, -46274.97, -182633.28, -98415.84, -161426.33, 18619.45, 7960.66, -184478.94, 0.02, 0.01, -0.93
139, -60056.25, -43128.63, -183285.38, -100826.73, -162154.22, 18028.38, 10803.11, -184981.56, 0.02, 0.01, -0.93
140, -60834.34, -39669.27, -183959.91, -102562.38, -163048.48, 17285.47, 14039.04, -185628.58, 0.02, 0.01, -0.93
141, -60366.94, -42410.24, -183386.72, -100319.12, -162689.98, 17767.13, 11616.16, -185143.31, 0.02, 0.01, -0.93
142, -59589.95, -46093.79, -182645.94, -98333.68, -162018.22, 18546.20, 8127.90, -184501.80, 0.02, 0.01, -0.93
143, -59992.28, -43886.80, -183094.27, -100237.29, -162532.63, 18163.41, 10130.24, -184840.22, 0.02, 0.01, -0.93
144, -60871.20, -39790.55, -183904.05, -102486.14, -163527.30, 17317.59, 13973.28, -185568.58, 0.03, 0.02, -0.94
145, -60616.01, -41543.38, -183528.42, -100782.49, -163381.55, 17591.29, 12515.05, -185271.02, 0.03, 0.02, -0.94
146, -59756.83, -45743.98, -182697.81, -98322.23, -162627.84, 18449.67, 8585.95, -184534.91, 0.03, 0.02, -0.94
147, -59940.16, -44610.86, -182932.55, -99621.90, -162921.03, 18279.95, 9548.53, -184694.89, 0.03, 0.02, -0.94
148, -60880.45, -40147.55, -183837.48, -102269.45, -163978.30, 17372.15, 13651.62, -185474.14, 0.03, 0.02, -0.94
149, -60865.39, -40733.17, -183682.09, -101263.39, -164077.42, 17407.11, 13208.38, -185403.84, 0.02, 0.02, -0.94
150, -59982.80, -45153.34, -182804.00, -98519.80, -163303.89, 18289.07, 9053.89, -184624.69, 0.02, 0.02, -0.94
151, -59934.43, -45122.05, -182808.47, -99151.30, -163367.17, 18347.14, 8941.68, -184615.30, 0.02, 0.02, -0.94
152, -60864.82, -40589.96, -183729.19, -102001.51, -164415.53, 17448.22, 13077.07, -185380.91, 0.02, 0.02, -0.94
153, -61093.77, -39968.36, -183811.84, -101746.23, -164757.70, 17247.37, 13738.25, -185531.56, 0.02, 0.02, -0.94
154, -60243.70, -44356.84, -182942.81, -98857.13, -164011.66, 18104.11, 9684.59, -184749.50, 0.03, 0.01, -0.94
155, -59962.87, -45489.46, -182716.47, -98748.26, -163838.77, 18389.32, 8514.65, -184545.63, 0.03, 0.01, -0.94
156, -60827.68, -41230.52, -183593.02, -101595.98, -164822.08, 17552.13, 12429.40, -185248.03, 0.03, 0.01, -0.94
157, -61279.29, -39469.65, -183905.00, -102089.94, -165389.20, 17130.96, 14148.07, -185607.66, 0.03, 0.01, -0.94
158, -60514.89, -43514.62, -183095.89, -99256.63, -164732.08, 17902.12, 10452.03, -184875.30, 0.03, 0.01, -0.94
159, -60022.34, -45700.44, -182652.66, -98422.02, -164346.50, 18399.93, 8284.47, -184495.89, 0.03, 0.01, -0.93
160, -60758.84, -41966.05, -183418.13, -101093.70, -165196.86, 17689.42, 11666.58, -185092.08, 0.03, 0.01, -0.93
161, -61411.55, -39151.29, -183947.72, -102338.04, -165963.86, 17069.33, 14297.07, -185632.38, 0.03, 0.01, -0.93
162, -60805.66, -42545.25, -183256.63, -99787.68, -165464.53, 17687.29, 11219.23, -185030.08, 0.03, 0.01, -0.93
163, -60144.81, -45634.84, -182640.36, -98290.14, -164910.52, 18348.28, 8201.37, -184499.92, 0.03, 0.01, -0.93
164, -60712.57, -42687.63, -183249.27, -100602.72, -165590.75, 17801.35, 10818.42, -184959.30, 0.03, 0.01, -0.93
165, -61516.69, -39053.05, -183956.50, -102488.35, -166509.67, 17027.07, 14175.83, -185633.17, 0.03, 0.01, -0.93
166, -61101.26, -41577.26, -183430.61, -100384.01, -166201.89, 17455.66, 11938.94, -185192.25, 0.03, 0.01, -0.93
167, -60309.43, -45403.45, -182673.11, -98298.97, -165515.44, 18249.13, 8295.38, -184532.73, 0.03, 0.01, -0.93
168, -60665.14, -43423.45, -183078.23, -100095.38, -165985.72, 17910.65, 10031.78, -184831.86, 0.03, 0.01, -0.93
169, -61565.84, -39200.98, -183916.81, -102477.36, -167006.58, 17043.29, 13930.12, -185584.53, 0.03, 0.01, -0.93
170, -61369.59, -40655.45, -183585.17, -100961.80, -166922.36, 17257.89, 12702.90, -185340.70, 0.03, 0.01, -0.93
171, -60497.21, -44943.25, -182732.02, -98423.27, -166156.20, 18129.21, 8683.23, -184583.73, 0.03, 0.01, -0.93
172, -60627.23, -44055.27, -182914.28, -99585.27, -166397.53, 18012.49, 9401.57, -184699.95, 0.03, 0.01, -0.93
173, -61572.71, -39538.13, -183825.75, -102313.92, -167461.13, 17100.83, 13551.50, -185486.77, 0.03, 0.01, -0.93
174, -61617.63, -39839.57, -183723.16, -101490.57, -167618.03, 17079.55, 13384.20, -185469.84, 0.03, 0.01, -0.95
175, -60732.86, -44307.06, -182838.84, -98689.36, -166839.19, 17966.76, 9213.90, -184674.94, 0.03, 0.01, -0.95
176, -60627.34, -44567.19, -182787.06, -99150.34, -166842.33, 18083.05, 8845.12, -184613.05, 0.03, 0.01, -0.95
177, -61550.24, -40068.81, -183705.45, -102028.60, -167882.20, 17190.84, 12958.83, -185368.53, 0.03, 0.01, -0.95
178, -61831.07, -39185.76, -183837.59, -101957.08, -168277.03, 16936.99, 13865.84, -185570.70, 0.03, 0.01, -0.95
179, -60993.62, -43552.68, -182970.44, -99063.42, -167545.52, 17780.68, 9831.73, -184790.17, 0.03, 0.01, -0.94
180, -60661.16, -44978.01, -182688.92, -98779.02, -167319.39, 18119.78, 8366.06, -184541.14, 0.03, 0.01, -0.94
181, -61501.02, -40815.45, -183544.50, -101607.74, -168273.73, 17307.54, 12158.81, -185221.39, 0.03, 0.01, -0.94
182, -62004.05, -38776.43, -183908.02, -102305.16, -168889.75, 16837.32, 14117.16, -185632.94, 0.03, 0.01, -0.94
183, -61271.18, -42714.74, -183118.09, -99523.22, -168264.38, 17582.08, 10563.25, -184926.61, 0.03, 0.01, -0.94
184, -60734.65, -45148.42, -182632.98, -98522.75, -167835.17, 18123.93, 8178.82, -184507.88, 0.03, 0.01, -0.95
185, -61435.85, -41579.00, -183368.39, -101131.16, -168652.22, 17448.29, 11392.53, -185076.80, 0.03, 0.01, -0.95
186, -62121.22, -38573.97, -183938.27, -102523.45, -169455.36, 16795.44, 14226.06, -185647.97, 0.03, 0.01, -0.95
187, -61554.87, -41789.51, -183289.64, -100062.90, -168998.05, 17373.27, 11344.16, -185075.55, 0.03, 0.01, -0.95
188, -60858.19, -45104.21, -182639.58, -98409.79, -168408.83, 18071.03, 8126.04, -184510.45, 0.03, 0.01, -0.95
189, -61378.20, -42361.00, -183203.39, -100612.38, -169043.59, 17571.02, 10573.69, -184930.75, 0.03, 0.01, -0.95
190, -62208.50, -38555.53, -183943.92, -102626.73, -169991.00, 16774.09, 14103.84, -185634.45, 0.03, 0.01, -0.95
191, -61836.23, -40865.13, -183458.83, -100638.19, -169730.06, 17161.67, 12068.44, -185231.45, 0.03, 0.01, -0.95
192, -61021.87, -44814.73, -182678.34, -98445.38, -169021.47, 17977.80, 8303.54, -184543.81, 0.03, 0.01, -0.95
193, -61325.03, -43083.57, -183031.33, -100096.27, -169436.80, 17691.58, 9839.10, -184796.55, 0.03, 0.01, -0.95
194, -62237.80, -38766.66, -183888.41, -102570.95, -170467.94, 16811.17, 13824.53, -185561.84, 0.02, 0.01, -0.94
195, -62089.16, -40000.64, -183600.89, -101198.80, -170431.20, 16982.27, 12793.49, -185364.00, 0.02, 0.01, -0.94
0, 0.00, -39784.52, -183707.02, -102161.57, -171399.66, 16911.46, 12731.71, -185441.06, 0.02, 0.01, -0.95
1, 0.00, -38886.80, -183895.11, -102183.08, -171853.14, 16598.70, 13670.86, -185709.42, 0.02, 0.01, -0.95
2, 0.00, -43152.59, -182929.63, -99195.38, -171035.00, 17527.41, 9775.13, -184841.72, 0.02, 0.01, -0.95
3, 0.00, -44601.65, -182599.11, -98826.65, -170768.28, 17909.92, 8319.36, -184561.23, 0.02, 0.01, -0.95
4, 0.00, -40587.10, -183554.73, -101754.44, -171829.20, 16996.33, 12000.18, -185355.09, 0.02, 0.01, -0.95
5, 0.00, -38573.61, -183995.78, -102552.44, -172531.50, 16444.78, 13955.36, -185852.95, 0.02, 0.01, -0.95
6, 0.00, -42436.37, -183111.41, -99686.99, -171828.50, 17263.71, 10494.55, -185056.19, 0.02, 0.01, -0.95
7, 0.00, -44918.67, -182544.70, -98564.41, -171326.98, 17874.85, 8105.41, -184564.50, 0.02, 0.01, -0.94
8, 0.00, -41540.43, -183358.11, -101211.35, -172225.58, 17117.61, 11184.12, -185215.27, 0.02, 0.01, -0.94
9, 0.00, -38618.58, -184036.19, -102721.04, -173137.70, 16357.79, 13934.86, -185912.17, 0.02, 0.01, -0.94
10, 0.00, -41847.11, -183316.22, -100190.73, -172626.25, 16989.20, 11059.60, -185274.20, 0.02, 0.01, -0.94
11, 0.00, -45247.68, -182569.47, -98385.80, -171949.44, 17772.01, 7771.99, -184613.31, 0.02, 0.01, -0.94
12, 0.00, -42707.16, -183199.34, -100595.66, -172657.08, 17201.19, 9997.73, -185101.36, 0.02, 0.02, -0.94
13, 0.00, -38973.55, -184065.73, -102754.34, -173740.59, 16273.70, 13423.12, -185960.41, 0.02, 0.02, -0.94
14, 0.00, -41222.92, -183543.42, -100761.99, -173468.55, 16675.05, 11431.55, -185533.53, 0.02, 0.02, -0.94
15, 0.00, -45210.47, -182657.53, -98419.60, -172672.19, 17578.10, 7609.67, -184728.52, 0.02, 0.02, -0.94
16, 0.00, -43582.08, -183054.61, -100078.45, -173140.45, 17241.82, 8967.81, -185022.73, 0.02, 0.02, -0.94
17, 0.00, -39269.20, -184042.47, -102726.29, -174318.08, 16220.39, 12909.21, -185960.11, 0.02, 0.01, -0.94
18, 0.00, -40373.24, -183756.19, -101423.20, -174303.39, 16368.25, 11999.76, -185780.86, 0.02, 0.01, -0.94
19, 0.00, -44725.35, -182785.94, -98692.05, -173438.48, 17338.54, 7917.12, -184871.25, 0.02, 0.01, -0.94
20, 0.00, -44192.88, -182929.27, -99666.78, -173644.48, 17257.07, 8282.08, -184955.66, 0.02, 0.01, -0.94
21, 0.00, -39663.73, -183970.75, -102602.30, -174846.73, 16210.36, 12449.32, -185907.63, 0.02, 0.01, -0.94
22, 0.00, -39615.25, -183934.33, -102032.94, -175098.02, 16102.93, 12618.41, -185985.27, 0.02, 0.01, -0.94
23, 0.00, -44085.84, -182930.27, -99079.89, -174229.55, 17082.23, 8479.49, -185030.75, 0.02, 0.01, -0.94
24, 0.00, -44712.25, -182801.52, -99287.36, -174158.84, 17270.30, 7770.87, -184875.11, 0.02, 0.01, -0.94
25, 0.00, -40294.65, -183820.81, -102302.10, -175311.00, 16269.72, 11815.13, -185776.78, 0.02, 0.01, -0.94
26, 0.00, -39076.21, -184045.47, -102520.05, -175821.47, 15908.50, 13039.22, -186111.38, 0.02, 0.01, -0.94
27, 0.00, -43343.18, -183077.48, -99542.77, -175019.34, 16825.03, 9147.94, -185193.89, 0.02, 0.02, -0.94
28, 0.00, -45073.59, -182695.83, -98996.55, -174702.25, 17257.78, 7419.82, -184827.23, 0.02, 0.02, -0.94
29, 0.00, -41096.43, -183630.39, -101884.86, -175742.78, 16368.92, 11047.75, -185613.63, 0.02, 0.02, -0.94
30, 0.00, -38792.19, -184117.17, -102876.90, -176495.11, 15771.03, 13262.41, -186183.00, 0.02, 0.02, -0.94
31, 0.00, -42535.93, -183252.31, -100093.32, -175829.36, 16555.69, 9910.67, -185378.66, 0.02, 0.02, -0.94
32, 0.00, -45255.62, -182639.72, -98812.08, -175283.02, 17214.60, 7290.92, -184802.09, 0.02, 0.01, -0.94
33, 0.00, -41996.73, -183413.42, -101386.86, -176140.50, 16501.64, 10253.91, -185426.06, 0.02, 0.01, -0.94
34, 0.00, -38810.52, -184127.86, -103069.27, -177091.69, 15707.22, 13267.01, -186181.67, 0.02, 0.01, -0.94
35, 0.00, -41735.42, -183436.30, -100675.25, -176628.64, 16298.31, 10705.55, -185563.81, 0.02, 0.01, -0.94
36, 0.00, -45189.21, -182644.53, -98756.84, -175910.02, 17127.20, 7446.68, -184816.16, 0.02, 0.01, -0.94
37, 0.00, -42784.59, -183210.69, -100865.73, -176547.34, 16628.65, 9638.03, -185247.47, 0.02, 0.01, -0.93
38, 0.00, -38909.29, -184093.86, -103133.27, -177640.30, 15695.93, 13278.12, -186130.08, 0.02, 0.01, -0.93
39, 0.00, -40903.45, -183608.98, -101267.81, -177408.61, 16059.46, 11612.04, -185736.48, 0.02, 0.01, -0.93
40, 0.00, -44924.90, -182688.42, -98832.84, -176575.17, 17002.08, 7843.76, -184861.58, 0.02, 0.01, -0.93
41, 0.00, -43549.22, -183011.92, -100336.58, -176962.75, 16745.64, 9044.37, -185080.42, 0.02, 0.01, -0.93
42, 0.00, -39257.71, -184003.89, -103027.99, -178131.28, 15735.69, 13029.81, -186021.56, 0.02, 0.02, -0.93
43, 0.00, -40185.91, -183756.48, -101829.90, -178152.83, 15854.63, 12328.86, -185874.95, 0.02, 0.02, -0.93
44, 0.00, -44540.16, -182762.81, -99039.52, -177265.89, 16853.17, 8282.84, -184937.67, 0.02, 0.02, -0.93
45, 0.00, -44267.76, -182828.48, -99854.02, -177392.13, 16853.71, 8440.38, -184951.89, 0.02, 0.02, -0.93
46, 0.00, -39851.41, -183868.70, -102794.17, -178569.33, 15833.33, 12518.88, -185877.13, 0.02, 0.02, -0.93
47, 0.00, -39584.96, -183901.19, -102378.20, -178870.19, 15679.55, 12904.76, -186004.66, 0.02, 0.02, -0.93
48, 0.00, -43962.84, -182900.08, -99407.16, -178000.19, 16664.54, 8879.92, -185055.16, 0.02, 0.02, -0.93
49, 0.00, -44809.46, -182700.41, -99464.23, -177859.34, 16925.72, 7981.38, -184844.20, 0.02, 0.02, -0.93
50, 0.00, -40568.21, -183702.81, -102453.17, -178976.36, 15962.59, 11874.79, -185699.52, 0.02, 0.02, -0.93
51, 0.00, -39156.66, -184000.50, -102831.03, -179539.31, 15552.12, 13289.59, -186082.53, 0.02, 0.02, -0.93
0, 0.00, -41799.46, 0.00, -102037.52, -180019.31, 16013.26, 10606.93, -185590.39, 0.03, 0.02, -0.94
1, 0.00, -39055.78, 0.00, -103581.53, -181020.88, 15175.00, 13193.03, -186400.11, 0.03, 0.02, -0.94
2, 0.00, -42224.50, 0.00, -100937.81, -180400.78, 15920.90, 10364.64, -185635.28, 0.02, 0.02, -0.94
3, 0.00, -45306.89, 0.00, -99198.80, -179661.89, 16769.75, 7376.03, -184866.17, 0.02, 0.02, -0.94
4, 0.00, -42673.52, 0.00, -101626.59, -180491.30, 16082.59, 9715.92, -185477.66, 0.02, 0.02, -0.94
5, 0.00, -39182.99, 0.00, -103827.05, -181671.00, 15065.17, 12968.84, -186464.06, 0.02, 0.02, -0.94
6, 0.00, -41513.31, 0.00, -101704.14, -181297.50, 15570.31, 10960.89, -185930.50, 0.02, 0.02, -0.94
7, 0.00, -45247.53, 0.00, -99380.45, -180403.81, 16572.32, 7397.82, -184968.61, 0.02, 0.02, -0.94
8, 0.00, -43551.05, 0.00, -101231.88, -180970.83, 16143.17, 8830.88, -185353.09, 0.02, 0.02, -0.94
9, 0.00, -39549.60, 0.00, -103942.45, -182275.77, 15003.79, 12534.61, -186456.59, 0.02, 0.02, -0.94
10, 0.00, -40823.87, 0.00, -102504.05, -182203.08, 15218.77, 11485.13, -186217.34, 0.02, 0.02, -0.94
11, 0.00, -44971.82, 0.00, -99736.12, -181226.00, 16306.33, 7584.13, -185110.69, 0.02, 0.02, -0.94
12, 0.00, -44331.24, 0.00, -100875.68, -181500.39, 16163.37, 8059.73, -185222.66, 0.02, 0.02, -0.95
13, 0.00, -40098.13, 0.00, -103915.72, -182851.97, 14977.97, 11957.31, -186384.84, 0.02, 0.02, -0.95
14, 0.00, -40269.93, 0.00, -103235.64, -183084.05, 14895.56, 11951.19, -186450.09, 0.02, 0.02, -0.95
15, 0.00, -44541.71, 0.00, -100218.00, -182100.75, 15991.67, 7966.05, -185295.98, 0.02, 0.02, -0.95
16, 0.00, -44989.39, 0.00, -100585.66, -182069.84, 16145.36, 7401.53, -185094.67, 0.02, 0.02, -0.95
17, 0.00, -40812.29, 0.00, -103746.40, -183382.02, 14995.02, 11225.40, -186239.48, 0.02, 0.01, -0.94
18, 0.00, -39870.53, 0.00, -103885.70, -183914.44, 14619.14, 12223.79, -186605.08, 0.02, 0.01, -0.94
19, 0.00, -43984.75, 0.00, -100822.75, -183001.30, 15649.26, 8461.57, -185521.34, 0.02, 0.01, -0.94
20, 0.00, -45466.06, 0.00, -100412.21, -182697.39, 16072.07, 6912.77, -185046.00, 0.02, 0.01, -0.94
21, 0.00, -41621.38, 0.00, -103495.19, -183929.30, 15023.52, 10396.91, -186083.47, 0.02, 0.01, -0.94
22, 0.00, -39603.24, 0.00, -104476.37, -184946.13, 14350.69, 12280.12, -186743.52, 0.02, 0.02, -0.94
23, 0.00, -43294.23, 0.00, -101604.86, -183969.95, 15219.70, 8901.29, -185813.27, 0.02, 0.02, -0.94
24, 0.00, -45741.86, 0.00, -100431.21, -183225.33, 15890.55, 6473.20, -185082.81, 0.02, 0.02, -0.94
25, 0.00, -42490.02, 0.00, -103235.38, -184347.30, 15011.88, 9377.03, -185945.03, 0.02, 0.02, -0.94
26, 0.00, -39570.32, 0.00, -104952.92, -185600.86, 14105.31, 12126.07, -186838.94, 0.02, 0.02, -0.94
27, 0.00, -42574.15, 0.00, -102441.06, -184822.81, 14762.16, 9434.54, -186122.80, 0.02, 0.02, -0.94
28, 0.00, -45847.38, 0.00, -100564.43, -183695.89, 15636.34, 6272.03, -185181.48, 0.02, 0.02, -0.94
29, 0.00, -43431.02, 0.00, -102867.13, -184532.06, 15000.68, 8425.40, -185792.80, 0.02, 0.02, -0.94
30, 0.00, -39814.76, 0.00, -105205.79, -185945.61, 13928.80, 11798.23, -186853.69, 0.02, 0.02, -0.94
31, 0.00, -41931.71, 0.00, -103237.02, -185496.20, 14335.25, 9984.66, -186394.63, 0.02, 0.02, -0.94
32, 0.00, -45797.96, 0.00, -100802.61, -184194.17, 15338.04, 6311.93, -185317.13, 0.02, 0.01, -0.94
33, 0.00, -44343.78, 0.00, -102498.37, -184643.00, 14968.07, 7544.52, -185652.63, 0.02, 0.01, -0.94
34, 0.00, -40265.53, 0.00, -105316.61, -186156.41, 13787.90, 11294.87, -186821.28, 0.02, 0.01, -0.94
35, 0.00, -41315.68, 0.00, -104053.27, -186033.14, 13899.45, 10447.34, -186666.50, 0.02, 0.01, -0.94
36, 0.00, -45519.08, 0.00, -101228.70, -184763.63, 14958.23, 6505.72, -185529.67, 0.02, 0.01, -0.94
37, 0.00, -45116.19, 0.00, -102213.30, -184741.28, 14863.66, 6724.14, -185576.56, 0.02, 0.01, -0.94
38, 0.00, -40866.95, 0.00, -105322.69, -186255.83, 13655.44, 10586.43, -186769.36, 0.02, 0.01, -0.94
39, 0.00, -40812.29, 0.00, -104833.61, -186440.09, 13475.60, 10748.22, -186914.16, 0.02, 0.01, -0.94
40, 0.00, -45094.11, 0.00, -101792.48, -185289.50, 14538.54, 6789.97, -185776.20, 0.02, 0.01, -0.94
41, 0.00, -45798.77, 0.00, -101990.05, -185025.66, 14724.50, 6011.14, -185522.53, 0.02, 0.01, -0.94
42, 0.00, -41686.65, 0.00, -105168.73, -186159.56, 13553.29, 9766.01, -186666.25, 0.02, 0.01, -0.94
43, 0.00, -40496.26, 0.00, -105517.09, -186600.47, 13073.24, 10978.93, -187118.11, 0.02, 0.01, -0.94
44, 0.00, -44551.83, 0.00, -102468.24, -185541.02, 14051.89, 7288.28, -186070.78, 0.02, 0.01, -0.94
45, 0.00, -46294.06, 0.00, -101859.71, -184992.84, 14519.83, 5535.70, -185532.13, 0.02, 0.01, -0.94
46, 0.00, -42575.07, 0.00, -104908.84, -185997.11, 13478.06, 8882.90, -186544.61, 0.02, 0.01, -0.94
47, 0.00, -40341.63, 0.00, -106068.55, -186709.08, 12737.66, 11000.32, -187267.05, 0.02, 0.01, -0.94
48, 0.00, -43899.03, 0.00, -103243.28, -185806.33, 13569.48, 7791.04, -186374.81, 0.02, 0.01, -0.94
49, 0.00, -46543.62, 0.00, -101912.98, -185022.61, 14268.71, 5185.76, -185599.97, 0.02, 0.01, -0.94
50, 0.00, -43470.27, 0.00, -104630.45, -185828.58, 13416.66, 7939.72, -186415.31, 0.02, 0.01, -0.94
51, 0.00, -40362.62, 0.00, -106516.14, -186763.50, 12455.02, 10852.17, -187359.61, 0.02, 0.01, -0.94
52, 0.00, -43170.56, 0.00, -104115.63, -186090.81, 13063.32, 8372.94, -186698.50, 0.03, 0.02, -0.93
53, 0.00, -46576.63, 0.00, -102113.98, -185109.61, 13960.52, 5101.63, -185726.83, 0.03, 0.02, -0.93
0, 0.00, -46469.99, 0.00, 0.00, -185645.47, 13021.54, 4988.02, -186342.58, 0.03, 0.02, -0.94
1, 0.00, -45714.25, 0.00, 0.00, -185946.66, 12666.02, 5505.86, -186651.75, 0.03, 0.02, -0.94
2, 0.00, -41747.40, 0.00, 0.00, -187406.94, 11196.30, 9137.91, -187500.02, 0.02, 0.01, -0.94
3, 0.00, -42103.24, 0.00, 0.00, -187444.83, 11126.76, 8945.50, -187500.02, 0.02, 0.01, -0.94
4, 0.00, -46164.20, 0.00, 0.00, -186142.97, 12347.71, 5142.82, -186878.77, 0.02, 0.01, -0.94
5, 0.00, -46456.89, 0.00, 0.00, -186078.00, 12351.10, 4724.35, -186820.86, 0.02, 0.01, -0.94
6, 0.00, -42517.13, 0.00, 0.00, -187500.02, 10903.67, 8322.65, -187500.02, 0.02, 0.01, -0.94
7, 0.00, -41814.28, 0.00, 0.00, -187500.02, 10485.09, 9089.54, -187500.02, 0.02, 0.02, -0.94
8, 0.00, -45768.46, 0.00, 0.00, -186659.44, 11664.53, 5453.56, -187433.72, 0.02, 0.02, -0.94
9, 0.00, -47063.09, 0.00, 0.00, -186248.34, 12008.61, 4098.75, -187030.27, 0.02, 0.02, -0.94
10, 0.00, -43415.25, 0.00, 0.00, -187500.02, 10669.29, 7422.92, -187500.02, 0.02, 0.02, -0.94
11, 0.00, -41710.75, 0.00, 0.00, -187500.02, 9927.37, 9084.26, -187500.02, 0.02, 0.02, -0.94
12, 0.00, -45307.45, 0.00, 0.00, -187205.13, 10966.77, 5830.54, -187500.02, 0.02, 0.01, -0.94
13, 0.00, -47532.14, 0.00, 0.00, -186485.98, 11614.41, 3607.57, -187304.61, 0.02, 0.01, -0.94
14, 0.00, -44415.35, 0.00, 0.00, -187500.02, 10465.22, 6408.87, -187500.02, 0.02, 0.01, -0.94
15, 0.00, -41814.30, 0.00, 0.00, -187500.02, 9438.09, 8891.55, -187500.02, 0.02, 0.01, -0.94
16, 0.00, -44784.94, 0.00, 0.00, -187500.02, 10269.49, 6267.74, -187500.02, 0.02, 0.01, -0.94
17, 0.00, -47792.99, 0.00, 0.00, -186767.02, 11182.33, 3344.49, -187500.02, 0.03, 0.01, -0.95
18, 0.00, -45411.61, 0.00, 0.00, -187500.02, 10290.50, 5441.73, -187500.02, 0.03, 0.01, -0.95
19, 0.00, -42106.75, 0.00, 0.00, -187500.02, 9038.62, 8529.58, -187500.02, 0.03, 0.01, -0.95
20, 0.00, -44257.37, 0.00, 0.00, -187500.02, 9583.67, 6692.85, -187500.02, 0.03, 0.01, -0.95
21, 0.00, -47862.82, 0.00, 0.00, -187123.25, 10687.67, 3271.87, -187500.02, 0.03, 0.01, -0.95
