%OpenBCI Raw EEG Data
%
%Sample Rate = 250.0 Hz
%First Column = SampleIndex
%Other Columns = EEG data in microvolts followed by Accel Data (in G) interleaved with Aux Data
0, 0.00, 19167.27, 0.00, 0.00, 0.00, 0.00, 0.00, 0.00, 0.01, 0.02, 0.52
1, 0.00, 19163.36, 0.00, 0.00, 0.00, 0.00, 0.00, 0.00, 0.01, 0.02, 0.52
2, 0.00, 19171.89, 0.00, 0.00, 0.00, 0.00, 0.00, 0.00, 0.02, 0.02, 1.03
3, 0.00, 19193.35, 0.00, 0.00, 0.00, 0.00, 0.00, 0.00, 0.02, 0.02, 1.03
4, 0.00, 19185.80, 0.00, 0.00, 0.00, 0.00, 0.00, 0.00, 0.02, 0.02, 1.03
5, 0.00, 19174.82, 0.00, 0.00, 0.00, 0.00, 0.00, 0.00, 0.02, 0.02, 1.03
6, 0.00, 19179.18, 0.00, 0.00, 0.00, 0.00, 0.00, 0.00, 0.02, 0.02, 1.03
7, 0.00, 19180.66, 0.00, 0.00, 0.00, 0.00, 0.00, 0.00, 0.02, 0.02, 1.03
8, 0.00, 19175.38, 0.00, 0.00, 0.00, 0.00, 0.00, 0.00, 0.02, 0.02, 1.03
9, 0.00, 19183.63, 0.00, 0.00, 0.00, 0.00, 0.00, 0.00, 0.02, 0.02, 1.03
10, 0.00, 19211.28, 0.00, 0.00, 0.00, 0.00, 0.00, 0.00, 0.02, 0.02, 1.03
11, 0.00, 19224.60, 0.00, 0.00, 0.00, 0.00, 0.00, 0.00, 0.02, 0.02, 1.03
12, 0.00, 19211.79, 0.00, 0.00, 0.00, 0.00, 0.00, 0.00, 0.02, 0.03, 1.03
13, 0.00, 19211.39, 0.00, 0.00, 0.00, 0.00, 0.00, 0.00, 0.02, 0.03, 1.03
14, 0.00, 19226.84, 0.00, 0.00, 0.00, 0.00, 0.00, 0.00, 0.02, 0.03, 1.03
15, 0.00, 19221.49, 0.00, 0.00, 0.00, 0.00, 0.00, 0.00, 0.02, 0.03, 1.03
16, 0.00, 19226.95, 0.00, 0.00, 0.00, 0.00, 0.00, 0.00, 0.02, 0.03, 1.03
17, 0.00, 19216.80, 0.00, 0.00, 0.00, 0.00, 0.00, 0.00, 0.02, 0.03, 1.04
18, 0.00, 19229.47, 0.00, 0.00, 0.00, 0.00, 0.00, 0.00, 0.02, 0.03, 1.04
19, 0.00, 19244.92, 0.00, 0.00, 0.00, 0.00, 0.00, 0.00, 0.02, 0.03, 1.04
20, 0.00, 19249.72, 0.00, 0.00, 0.00, 0.00, 0.00, 0.00, 0.02, 0.03, 1.04
21, 0.00, 19249.54, 0.00, 0.00, 0.00, 0.00, 0.00, 0.00, 0.02, 0.03, 1.04
22, 0.00, 19255.94, 0.00, 0.00, 0.00, 0.00, 0.00, 0.00, 0.02, 0.03, 1.03
23, 0.00, 19251.89, 0.00, 0.00, 0.00, 0.00, 0.00, 0.00, 0.02, 0.03, 1.03
24, 0.00, 19235.64, 0.00, 0.00, 0.00, 0.00, 0.00, 0.00, 0.02, 0.03, 1.03
25, 0.00, 19253.90, 0.00, 0.00, 0.00, 0.00, 0.00, 0.00, 0.02, 0.03, 1.03
26, 0.00, 19258.31, 0.00, 0.00, 0.00, 0.00, 0.00, 0.00, 0.02, 0.03, 1.03
27, 0.00, 19256.92, 0.00, 0.00, 0.00, 0.00, 0.00, 0.00, 0.02, 0.04, 1.04
28, 0.00, 19280.93, 0.00, 0.00, 0.00, 0.00, 0.00, 0.00, 0.02, 0.04, 1.04
29, 0.00, 19278.60, 0.00, 0.00, 0.00, 0.00, 0.00, 0.00, 0.02, 0.04, 1.04
30, 0.00, 19255.96, 0.00, 0.00, 0.00, 0.00, 0.00, 0.00, 0.02, 0.04, 1.04
31, 0.00, 19270.62, 0.00, 0.00, 0.00, 0.00, 0.00, 0.00, 0.02, 0.04, 1.04
32, 0.00, 19274.13, 0.00, 0.00, 0.00, 0.00, 0.00, 0.00, 0.02, 0.03, 1.04
33, 0.00, 19268.97, 0.00, 0.00, 0.00, 0.00, 0.00, 0.00, 0.02, 0.03, 1.04
34, 0.00, 19301.47, 0.00, 0.00, 0.00, 0.00, 0.00, 0.00, 0.02, 0.03, 1.04
35, 0.00, 19277.98, 0.00, 0.00, 0.00, 0.00, 0.00, 0.00, 0.02, 0.03, 1.04
36, 0.00, 19287.65, 0.00, 0.00, 0.00, 0.00, 0.00, 0.00, 0.02, 0.03, 1.04
37, 0.00, 19281.22, 0.00, 0.00, 0.00, 0.00, 0.00, 0.00, 0.02, 0.03, 1.04
38, 0.00, 19277.98, 0.00, 0.00, 0.00, 0.00, 0.00, 0.00, 0.02, 0.03, 1.04
39, 0.00, 19304.69, 0.00, 0.00, 0.00, 0.00, 0.00, 0.00, 0.02, 0.03, 1.04
40, 0.00, 19311.66, 0.00, 0.00, 0.00, 0.00, 0.00, 0.00, 0.02, 0.03, 1.04
41, 0.00, 19316.29, 0.00, 0.00, 0.00, 0.00, 0.00, 0.00, 0.02, 0.03, 1.04
42, 0.00, 19303.03, 0.00, 0.00, 0.00, 0.00, 0.00, 0.00, 0.02, 0.03, 1.04
43, 0.00, 19287.34, 0.00, 0.00, 0.00, 0.00, 0.00, 0.00, 0.02, 0.03, 1.04
44, 0.00, 19289.98, 0.00, 0.00, 0.00, 0.00, 0.00, 0.00, 0.02, 0.03, 1.04
45, 0.00, 19317.07, 0.00, 0.00, 0.00, 0.00, 0.00, 0.00, 0.02, 0.03, 1.04
46, 0.00, 19311.59, 0.00, 0.00, 0.00, 0.00, 0.00, 0.00, 0.02, 0.03, 1.04
47, 0.00, 19305.47, 0.00, 0.00, 0.00, 0.00, 0.00, 0.00, 0.02, 0.02, 1.04
48, 0.00, 19324.58, 0.00, 0.00, 0.00, 0.00, 0.00, 0.00, 0.02, 0.02, 1.04
49, 0.00, 19340.65, 0.00, 0.00, 0.00, 0.00, 0.00, 0.00, 0.02, 0.02, 1.04
50, 0.00, 19321.27, 0.00, 0.00, 0.00, 0.00, 0.00, 0.00, 0.02, 0.02, 1.04
51, 0.00, 19308.71, 0.00, 0.00, 0.00, 0.00, 0.00, 0.00, 0.02, 0.02, 1.04
52, 0.00, 19324.96, 0.00, 0.00, 0.00, 0.00, 0.00, 0.00, 0.03, 0.03, 1.03
53, 0.00, 19325.36, 0.00, 0.00, 0.00, 0.00, 0.00, 0.00, 0.03, 0.03, 1.03
54, 0.00, 19328.25, 0.00, 0.00, 0.00, 0.00, 0.00, 0.00, 0.03, 0.03, 1.03
55, 0.00, 19346.13, 0.00, 0.00, 0.00, 0.00, 0.00, 0.00, 0.03, 0.03, 1.03
56, 0.00, 19354.35, 0.00, 0.00, 0.00, 0.00, 0.00, 0.00, 0.03, 0.03, 1.03
57, 0.00, 19372.14, 0.00, 0.00, 0.00, 0.00, 0.00, 0.00, 0.03, 0.03, 1.03
58, 0.00, 19386.09, 0.00, 0.00, 0.00, 0.00, 0.00, 0.00, 0.03, 0.03, 1.03
59, 0.00, 19370.27, 0.00, 0.00, 0.00, 0.00, 0.00, 0.00, 0.03, 0.03, 1.03
60, 0.00, 19382.43, 0.00, 0.00, 0.00, 0.00, 0.00, 0.00, 0.03, 0.03, 1.03
61, 0.00, 19379.81, 0.00, 0.00, 0.00, 0.00, 0.00, 0.00, 0.03, 0.03, 1.03
62, 0.00, 19385.35, 0.00, 0.00, 0.00, 0.00, 0.00, 0.00, 0.02, 0.04, 1.03
63, 0.00, 19372.73, 0.00, 0.00, 0.00, 0.00, 0.00, 0.00, 0.02, 0.04, 1.03
64, 0.00, 19383.12, 0.00, 0.00, 0.00, 0.00, 0.00, 0.00, 0.02, 0.04, 1.03
65, 0.00, 19385.67, 0.00, 0.00, 0.00, 0.00, 0.00, 0.00, 0.02, 0.04, 1.03
66, 0.00, 19367.21, 0.00, 0.00, 0.00, 0.00, 0.00, 0.00, 0.02, 0.04, 1.03
67, 0.00, 19364.41, 0.00, 0.00, 0.00, 0.00, 0.00, 0.00, 0.02, 0.03, 1.04
68, 0.00, 19376.10, 0.00, 0.00, 0.00, 0.00, 0.00, 0.00, 0.02, 0.03, 1.04
69, 0.00, 19386.90, 0.00, 0.00, 0.00, 0.00, 0.00, 0.00, 0.02, 0.03, 1.04
70, 0.00, 19393.38, 0.00, 0.00, 0.00, 0.00, 0.00, 0.00, 0.02, 0.03, 1.04
71, 0.00, 19427.93, 0.00, 0.00, 0.00, 0.00, 0.00, 0.00, 0.02, 0.03, 1.04
72, 0.00, 19420.22, 0.00, 0.00, 0.00, 0.00, 0.00, 0.00, 0.03, 0.03, 1.04
73, 0.00, 19383.68, 0.00, 0.00, 0.00, 0.00, 0.00, 0.00, 0.03, 0.03, 1.04
74, 0.00, 19398.25, 0.00, 0.00, 0.00, 0.00, 0.00, 0.00, 0.03, 0.03, 1.04
75, 0.00, 19400.84, 0.00, 0.00, 0.00, 0.00, 0.00, 0.00, 0.03, 0.03, 1.04
76, 0.00, 19400.98, 0.00, 0.00, 0.00, 0.00, 0.00, 0.00, 0.03, 0.03, 1.04
77, 0.00, 19422.62, 0.00, 0.00, 0.00, 0.00, 0.00, 0.00, 0.03, 0.03, 1.04
78, 0.00, 19425.99, 0.00, 0.00, 0.00, 0.00, 0.00, 0.00, 0.03, 0.03, 1.04
79, 0.00, 19436.92, 0.00, 0.00, 0.00, 0.00, 0.00, 0.00, 0.03, 0.03, 1.04
80, 0.00, 19422.32, 0.00, 0.00, 0.00, 0.00, 0.00, 0.00, 0.03, 0.03, 1.04
81, 0.00, 19421.74, 0.00, 0.00, 0.00, 0.00, 0.00, 0.00, 0.03, 0.03, 1.04
82, 0.00, 19423.46, 0.00, 0.00, 0.00, 0.00, 0.00, 0.00, 0.02, 0.03, 1.03
83, 0.00, 19422.53, 0.00, 0.00, 0.00, 0.00, 0.00, 0.00, 0.02, 0.03, 1.03
84, 0.00, 19423.64, 0.00, 0.00, 0.00, 0.00, 0.00, 0.00, 0.02, 0.03, 1.03
85, 0.00, 19430.71, 0.00, 0.00, 0.00, 0.00, 0.00, 0.00, 0.02, 0.03, 1.03
86, 0.00, 19439.29, 0.00, 0.00, 0.00, 0.00, 0.00, 0.00, 0.02, 0.03, 1.03
87, 0.00, 19448.50, 0.00, 0.00, 0.00, 0.00, 0.00, 0.00, 0.02, 0.03, 1.04
88, 0.00, 19437.72, 0.00, 0.00, 0.00, 0.00, 0.00, 0.00, 0.02, 0.03, 1.04
89, 0.00, 19421.30, 0.00, 0.00, 0.00, 0.00, 0.00, 0.00, 0.02, 0.03, 1.04
90, 0.00, 19429.61, 0.00, 0.00, 0.00, 0.00, 0.00, 0.00, 0.02, 0.03, 1.04
91, 0.00, 19450.13, 0.00, 0.00, 0.00, 0.00, 0.00, 0.00, 0.02, 0.03, 1.04
92, 0.00, 19457.55, 0.00, 0.00, 0.00, 0.00, 0.00, 0.00, 0.03, 0.03, 1.03
93, 0.00, 19455.25, 0.00, 0.00, 0.00, 0.00, 0.00, 0.00, 0.03, 0.03, 1.03
94, 0.00, 19456.14, 0.00, 0.00, 0.00, 0.00, 0.00, 0.00, 0.03, 0.03, 1.03
95, 0.00, 19477.55, 0.00, 0.00, 0.00, 0.00, 0.00, 0.00, 0.03, 0.03, 1.03
96, 0.00, 19489.80, 0.00, 0.00, 0.00, 0.00, 0.00, 0.00, 0.03, 0.03, 1.03
97, 0.00, 19492.35, 0.00, 0.00, 0.00, 0.00, 0.00, 0.00, 0.03, 0.03, 1.03
98, 0.00, 19493.92, 0.00, 0.00, 0.00, 0.00, 0.00, 0.00, 0.03, 0.03, 1.03
99, 0.00, 19461.28, 0.00, 0.00, 0.00, 0.00, 0.00, 0.00, 0.03, 0.03, 1.03
100, 0.00, 19470.89, 0.00, 0.00, 0.00, 0.00, 0.00, 0.00, 0.03, 0.03, 1.03
101, 0.00, 19491.30, 0.00, 0.00, 0.00, 0.00, 0.00, 0.00, 0.03, 0.03, 1.03
102, 0.00, 19488.60, 0.00, 0.00, 0.00, 0.00, 0.00, 0.00, 0.03, 0.03, 1.03
103, 0.00, 19500.22, 0.00, 0.00, 0.00, 0.00, 0.00, 0.00, 0.03, 0.03, 1.03
104, 0.00, 19522.08, 0.00, 0.00, 0.00, 0.00, 0.00, 0.00, 0.03, 0.03, 1.03
105, 0.00, 19516.71, 0.00, 0.00, 0.00, 0.00, 0.00, 0.00, 0.03, 0.03, 1.03
106, 0.00, 19514.37, 0.00, 0.00, 0.00, 0.00, 0.00, 0.00, 0.03, 0.03, 1.03
107, 0.00, 19526.17, 0.00, 0.00, 0.00, 0.00, 0.00, 0.00, 0.03, 0.03, 1.03
108, 0.00, 19533.81, 0.00, 0.00, 0.00, 0.00, 0.00, 0.00, 0.03, 0.03, 1.03
109, 0.00, 19533.88, 0.00, 0.00, 0.00, 0.00, 0.00, 0.00, 0.03, 0.03, 1.03
110, 0.00, 19537.41, 0.00, 0.00, 0.00, 0.00, 0.00, 0.00, 0.03, 0.03, 1.03
111, 0.00, 19545.88, 0.00, 0.00, 0.00, 0.00, 0.00, 0.00, 0.03, 0.03, 1.03
112, 0.00, 19563.95, 0.00, 0.00, 0.00, 0.00, 0.00, 0.00, 0.02, 0.03, 1.03
113, 0.00, 19563.27, 0.00, 0.00, 0.00, 0.00, 0.00, 0.00, 0.02, 0.03, 1.03
114, 0.00, 19552.54, 0.00, 0.00, 0.00, 0.00, 0.00, 0.00, 0.02, 0.03, 1.03
115, 0.00, 19562.09, 0.00, 0.00, 0.00, 0.00, 0.00, 0.00, 0.02, 0.03, 1.03
116, 0.00, 19579.19, 0.00, 0.00, 0.00, 0.00, 0.00, 0.00, 0.02, 0.03, 1.03
117, 0.00, 19571.10, 0.00, 0.00, 0.00, 0.00, 0.00, 0.00, 0.03, 0.03, 1.03
118, 0.00, 19585.69, 0.00, 0.00, 0.00, 0.00, 0.00, 0.00, 0.03, 0.03, 1.03
119, 0.00, 19561.89, 0.00, 0.00, 0.00, 0.00, 0.00, 0.00, 0.03, 0.03, 1.03
120, 0.00, 19581.67, 0.00, 0.00, 0.00, 0.00, 0.00, 0.00, 0.03, 0.03, 1.03
121, 0.00, 19587.19, 0.00, 0.00, 0.00, 0.00, 0.00, 0.00, 0.03, 0.03, 1.03
122, 0.00, 19586.92, 0.00, 0.00, 0.00, 0.00, 0.00, 0.00, 0.02, 0.02, 1.04
123, 0.00, 19579.30, 0.00, 0.00, 0.00, 0.00, 0.00, 0.00, 0.02, 0.02, 1.04
124, 0.00, 19598.46, 0.00, 0.00, 0.00, 0.00, 0.00, 0.00, 0.02, 0.02, 1.04
125, 0.00, 19593.85, 0.00, 0.00, 0.00, 0.00, 0.00, 0.00, 0.02, 0.02, 1.04
126, 0.00, 19592.38, 0.00, 0.00, 0.00, 0.00, 0.00, 0.00, 0.02, 0.02, 1.04
127, 0.00, 19588.38, 0.00, 0.00, 0.00, 0.00, 0.00, 0.00, 0.03, 0.02, 1.04
128, 0.00, 19610.77, 0.00, 0.00, 0.00, 0.00, 0.00, 0.00, 0.03, 0.02, 1.04
129, 0.00, 19602.14, 0.00, 0.00, 0.00, 0.00, 0.00, 0.00, 0.03, 0.02, 1.04
130, 0.00, 19612.22, 0.00, 0.00, 0.00, 0.00, 0.00, 0.00, 0.03, 0.02, 1.04
131, 0.00, 19631.67, 0.00, 0.00, 0.00, 0.00, 0.00, 0.00, 0.03, 0.02, 1.04
132, 0.00, 19613.72, 0.00, 0.00, 0.00, 0.00, 0.00, 0.00, 0.03, 0.03, 1.04
133, 0.00, 19602.19, 0.00, 0.00, 0.00, 0.00, 0.00, 0.00, 0.03, 0.03, 1.04
134, 0.00, 19607.46, 0.00, 0.00, 0.00, 0.00, 0.00, 0.00, 0.03, 0.03, 1.04
135, 0.00, 19619.82, 0.00, 0.00, 0.00, 0.00, 0.00, 0.00, 0.03, 0.03, 1.04
136, 0.00, 19631.60, 0.00, 0.00, 0.00, 0.00, 0.00, 0.00, 0.03, 0.03, 1.04
137, 0.00, 19643.40, 0.00, 0.00, 0.00, 0.00, 0.00, 0.00, 0.03, 0.03, 1.04
138, 0.00, 19617.59, 0.00, 0.00, 0.00, 0.00, 0.00, 0.00, 0.03, 0.03, 1.04
139, 0.00, 19612.07, 0.00, 0.00, 0.00, 0.00, 0.00, 0.00, 0.03, 0.03, 1.04
140, 0.00, 19620.92, 0.00, 0.00, 0.00, 0.00, 0.00, 0.00, 0.03, 0.03, 1.04
141, 0.00, 19648.50, 0.00, 0.00, 0.00, 0.00, 0.00, 0.00, 0.03, 0.03, 1.04
142, 0.00, 19638.15, 0.00, 0.00, 0.00, 0.00, 0.00, 0.00, 0.03, 0.03, 1.04
143, 0.00, 19621.23, 0.00, 0.00, 0.00, 0.00, 0.00, 0.00, 0.03, 0.03, 1.04
144, 0.00, 19623.18, 0.00, 0.00, 0.00, 0.00, 0.00, 0.00, 0.03, 0.03, 1.04
145, 0.00, 19631.87, 0.00, 0.00, 0.00, 0.00, 0.00, 0.00, 0.03, 0.03, 1.04
146, 0.00, 19645.82, 0.00, 0.00, 0.00, 0.00, 0.00, 0.00, 0.03, 0.03, 1.04
147, 0.00, 19638.55, 0.00, 0.00, 0.00, 0.00, 0.00, 0.00, 0.03, 0.03, 1.03
148, 0.00, 19637.41, 0.00, 0.00, 0.00, 0.00, 0.00, 0.00, 0.03, 0.03, 1.03
149, 0.00, 19656.30, 0.00, 0.00, 0.00, 0.00, 0.00, 0.00, 0.03, 0.03, 1.03
150, 0.00, 19664.68, 0.00, 0.00, 0.00, 0.00, 0.00, 0.00, 0.03, 0.03, 1.03
151, 0.00, 19669.56, 0.00, 0.00, 0.00, 0.00, 0.00, 0.00, 0.03, 0.03, 1.03
152, 0.00, 19661.55, 0.00, 0.00, 0.00, 0.00, 0.00, 0.00, 0.03, 0.03, 1.03
153, 0.00, 19646.78, 0.00, 0.00, 0.00, 0.00, 0.00, 0.00, 0.03, 0.03, 1.03
154, 0.00, 19655.36, 0.00, 0.00, 0.00, 0.00, 0.00, 0.00, 0.03, 0.03, 1.03
155, 0.00, 19666.32, 0.00, 0.00, 0.00, 0.00, 0.00, 0.00, 0.03, 0.03, 1.03
156, 0.00, 19664.42, 0.00, 0.00, 0.00, 0.00, 0.00, 0.00, 0.03, 0.03, 1.03
157, 0.00, 19671.12, 0.00, 0.00, 0.00, 0.00, 0.00, 0.00, 0.03, 0.03, 1.03
158, 0.00, 19693.25, 0.00, 0.00, 0.00, 0.00, 0.00, 0.00, 0.02, 0.03, 1.03
159, 0.00, 19688.62, 0.00, 0.00, 0.00, 0.00, 0.00, 0.00, 0.02, 0.03, 1.03
160, 0.00, 19687.28, 0.00, 0.00, 0.00, 0.00, 0.00, 0.00, 0.02, 0.03, 1.03
161, 0.00, 19683.86, 0.00, 0.00, 0.00, 0.00, 0.00, 0.00, 0.02, 0.03, 1.03
162, 0.00, 19683.15, 0.00, 0.00, 0.00, 0.00, 0.00, 0.00, 0.02, 0.03, 1.03
163, 0.00, 19698.99, 0.00, 0.00, 0.00, 0.00, 0.00, 0.00, 0.02, 0.03, 1.03
164, 0.00, 19683.19, 0.00, 0.00, 0.00, 0.00, 0.00, 0.00, 0.02, 0.03, 1.03
165, 0.00, 19712.96, 0.00, 0.00, 0.00, 0.00, 0.00, 0.00, 0.02, 0.03, 1.03
166, 0.00, 19714.48, 0.00, 0.00, 0.00, 0.00, 0.00, 0.00, 0.02, 0.03, 1.03
167, 0.00, 19698.26, 0.00, 0.00, 0.00, 0.00, 0.00, 0.00, 0.02, 0.03, 1.03
168, 0.00, 19704.02, 0.00, 0.00, 0.00, 0.00, 0.00, 0.00, 0.02, 0.03, 1.03
169, 0.00, 19701.16, 0.00, 0.00, 0.00, 0.00, 0.00, 0.00, 0.02, 0.03, 1.03
170, 0.00, 19714.66, 0.00, 0.00, 0.00, 0.00, 0.00, 0.00, 0.02, 0.03, 1.03
171, 0.00, 19721.14, 0.00, 0.00, 0.00, 0.00, 0.00, 0.00, 0.02, 0.03, 1.03
172, 0.00, 19698.84, 0.00, 0.00, 0.00, 0.00, 0.00, 0.00, 0.02, 0.03, 1.03
173, 0.00, 19683.01, 0.00, 0.00, 0.00, 0.00, 0.00, 0.00, 0.03, 0.03, 1.02
174, 0.00, 19716.43, 0.00, 0.00, 0.00, 0.00, 0.00, 0.00, 0.03, 0.03, 1.02
175, 0.00, 19703.87, 0.00, 0.00, 0.00, 0.00, 0.00, 0.00, 0.03, 0.03, 1.02
176, 0.00, 19679.32, 0.00, 0.00, 0.00, 0.00, 0.00, 0.00, 0.03, 0.03, 1.02
177, 0.00, 19697.61, 0.00, 0.00, 0.00, 0.00, 0.00, 0.00, 0.03, 0.03, 1.02
178, 0.00, 19697.97, 0.00, 0.00, 0.00, 0.00, 0.00, 0.00, 0.02, 0.03, 1.03
179, 0.00, 19710.30, 0.00, 0.00, 0.00, 0.00, 0.00, 0.00, 0.02, 0.03, 1.03
180, 0.00, 19714.69, 0.00, 0.00, 0.00, 0.00, 0.00, 0.00, 0.02, 0.03, 1.03
181, 0.00, 19710.21, 0.00, 0.00, 0.00, 0.00, 0.00, 0.00, 0.02, 0.03, 1.03
182, 0.00, 19727.20, 0.00, 0.00, 0.00, 0.00, 0.00, 0.00, 0.02, 0.03, 1.03
183, 0.00, 19731.47, 0.00, 0.00, 0.00, 0.00, 0.00, 0.00, 0.02, 0.04, 1.03
184, 0.00, 19731.52, 0.00, 0.00, 0.00, 0.00, 0.00, 0.00, 0.02, 0.04, 1.03
185, 0.00, 19743.05, 0.00, 0.00, 0.00, 0.00, 0.00, 0.00, 0.02, 0.04, 1.03
186, 0.00, 19737.46, 0.00, 0.00, 0.00, 0.00, 0.00, 0.00, 0.02, 0.04, 1.03
187, 0.00, 19748.79, 0.00, 0.00, 0.00, 0.00, 0.00, 0.00, 0.02, 0.04, 1.03
188, 0.00, 19747.56, 0.00, 0.00, 0.00, 0.00, 0.00, 0.00, 0.02, 0.03, 1.04
189, 0.00, 19723.38, 0.00, 0.00, 0.00, 0.00, 0.00, 0.00, 0.02, 0.03, 1.04
190, 0.00, 19731.27, 0.00, 0.00, 0.00, 0.00, 0.00, 0.00, 0.02, 0.03, 1.04
191, 0.00, 19745.73, 0.00, 0.00, 0.00, 0.00, 0.00, 0.00, 0.02, 0.03, 1.04
192, 0.00, 19751.83, 0.00, 0.00, 0.00, 0.00, 0.00, 0.00, 0.02, 0.03, 1.04
193, 0.00, 19767.88, 0.00, 0.00, 0.00, 0.00, 0.00, 0.00, 0.03, 0.02, 1.03
194, 0.00, 19765.29, 0.00, 0.00, 0.00, 0.00, 0.00, 0.00, 0.03, 0.02, 1.03
195, 0.00, 19777.72, 0.00, 0.00, 0.00, 0.00, 0.00, 0.00, 0.03, 0.02, 1.03
196, 0.00, 19793.12, 0.00, 0.00, 0.00, 0.00, 0.00, 0.00, 0.03, 0.02, 1.03
197, 0.00, 19791.82, 0.00, 0.00, 0.00, 0.00, 0.00, 0.00, 0.03, 0.02, 1.03
198, 0.00, 19782.54, 0.00, 0.00, 0.00, 0.00, 0.00, 0.00, 0.04, 0.03, 1.04
199, 0.00, 19768.26, 0.00, 0.00, 0.00, 0.00, 0.00, 0.00, 0.04, 0.03, 1.04
200, 0.00, 19789.63, 0.00, 0.00, 0.00, 0.00, 0.00, 0.00, 0.04, 0.03, 1.04
201, 0.00, 19805.48, 0.00, 0.00, 0.00, 0.00, 0.00, 0.00, 0.04, 0.03, 1.04
202, 0.00, 19813.61, 0.00, 0.00, 0.00, 0.00, 0.00, 0.00, 0.04, 0.03, 1.04
203, 0.00, 19824.05, 0.00, 0.00, 0.00, 0.00, 0.00, 0.00, 0.03, 0.03, 1.03
204, 0.00, 19832.17, 0.00, 0.00, 0.00, 0.00, 0.00, 0.00, 0.03, 0.03, 1.03
205, 0.00, 19818.53, 0.00, 0.00, 0.00, 0.00, 0.00, 0.00, 0.03, 0.03, 1.03
206, 0.00, 19809.81, 0.00, 0.00, 0.00, 0.00, 0.00, 0.00, 0.03, 0.03, 1.03
207, 0.00, 19824.68, 0.00, 0.00, 0.00, 0.00, 0.00, 0.00, 0.03, 0.03, 1.03
208, 0.00, 19827.05, 0.00, 0.00, 0.00, 0.00, 0.00, 0.00, 0.03, 0.03, 1.04
209, 0.00, 19823.40, 0.00, 0.00, 0.00, 0.00, 0.00, 0.00, 0.03, 0.03, 1.04
210, 0.00, 19814.73, 0.00, 0.00, 0.00, 0.00, 0.00, 0.00, 0.03, 0.03, 1.04
211, 0.00, 19833.33, 0.00, 0.00, 0.00, 0.00, 0.00, 0.00, 0.03, 0.03, 1.04
212, 0.00, 19826.11, 0.00, 0.00, 0.00, 0.00, 0.00, 0.00, 0.03, 0.03, 1.04
213, 0.00, 19821.32, 0.00, 0.00, 0.00, 0.00, 0.00, 0.00, 0.03, 0.03, 1.04
214, 0.00, 19841.26, 0.00, 0.00, 0.00, 0.00, 0.00, 0.00, 0.03, 0.03, 1.04
215, 0.00, 19850.36, 0.00, 0.00, 0.00, 0.00, 0.00, 0.00, 0.03, 0.03, 1.04
216, 0.00, 19836.26, 0.00, 0.00, 0.00, 0.00, 0.00, 0.00, 0.03, 0.03, 1.04
217, 0.00, 19844.68, 0.00, 0.00, 0.00, 0.00, 0.00, 0.00, 0.03, 0.03, 1.04
218, 0.00, 19842.51, 0.00, 0.00, 0.00, 0.00, 0.00, 0.00, 0.03, 0.03, 1.04
219, 0.00, 19848.68, 0.00, 0.00, 0.00, 0.00, 0.00, 0.00, 0.03, 0.03, 1.04
220, 0.00, 19834.63, 0.00, 0.00, 0.00, 0.00, 0.00, 0.00, 0.03, 0.03, 1.04
221, 0.00, 19828.86, 0.00, 0.00, 0.00, 0.00, 0.00, 0.00, 0.03, 0.03, 1.04
222, 0.00, 19838.20, 0.00, 0.00, 0.00, 0.00, 0.00, 0.00, 0.03, 0.03, 1.04
223, 0.00, 19829.19, 0.00, 0.00, 0.00, 0.00, 0.00, 0.00, 0.03, 0.03, 1.03
224, 0.00, 19859.59, 0.00, 0.00, 0.00, 0.00, 0.00, 0.00, 0.03, 0.03, 1.03
225, 0.00, 19866.07, 0.00, 0.00, 0.00, 0.00, 0.00, 0.00, 0.03, 0.03, 1.03
226, 0.00, 19858.27, 0.00, 0.00, 0.00, 0.00, 0.00, 0.00, 0.03, 0.03, 1.03
227, 0.00, 19856.84, 0.00, 0.00, 0.00, 0.00, 0.00, 0.00, 0.03, 0.03, 1.03
228, 0.00, 19855.30, 0.00, 0.00, 0.00, 0.00, 0.00, 0.00, 0.03, 0.03, 1.03
229, 0.00, 19861.33, 0.00, 0.00, 0.00, 0.00, 0.00, 0.00, 0.03, 0.03, 1.03
230, 0.00, 19858.61, 0.00, 0.00, 0.00, 0.00, 0.00, 0.00, 0.03, 0.03, 1.03
231, 0.00, 19867.08, 0.00, 0.00, 0.00, 0.00, 0.00, 0.00, 0.03, 0.03, 1.03
232, 0.00, 19895.15, 0.00, 0.00, 0.00, 0.00, 0.00, 0.00, 0.03, 0.03, 1.03
233, 0.00, 19881.96, 0.00, 0.00, 0.00, 0.00, 0.00, 0.00, 0.03, 0.03, 1.03
234, 0.00, 19881.36, 0.00, 0.00, 0.00, 0.00, 0.00, 0.00, 0.03, 0.03, 1.03
235, 0.00, 19861.80, 0.00, 0.00, 0.00, 0.00, 0.00, 0.00, 0.03, 0.03, 1.03
236, 0.00, 19858.65, 0.00, 0.00, 0.00, 0.00, 0.00, 0.00, 0.03, 0.03, 1.03
237, 0.00, 19869.94, 0.00, 0.00, 0.00, 0.00, 0.00, 0.00, 0.03, 0.03, 1.03
238, 0.00, 19873.99, 0.00, 0.00, 0.00, 0.00, 0.00, 0.00, 0.03, 0.03, 1.04
239, 0.00, 19897.95, 0.00, 0.00, 0.00, 0.00, 0.00, 0.00, 0.03, 0.03, 1.04
240, 0.00, 19892.81, 0.00, 0.00, 0.00, 0.00, 0.00, 0.00, 0.03, 0.03, 1.04
241, 0.00, 19880.33, 0.00, 0.00, 0.00, 0.00, 0.00, 0.00, 0.03, 0.03, 1.04
242, 0.00, 19888.49, 0.00, 0.00, 0.00, 0.00, 0.00, 0.00, 0.03, 0.03, 1.04
243, 0.00, 19927.12, 0.00, 0.00, 0.00, 0.00, 0.00, 0.00, 0.03, 0.03, 1.04
244, 0.00, 19933.33, 0.00, 0.00, 0.00, 0.00, 0.00, 0.00, 0.03, 0.03, 1.04
245, 0.00, 19951.72, 0.00, 0.00, 0.00, 0.00, 0.00, 0.00, 0.03, 0.03, 1.04
246, 0.00, 19963.59, 0.00, 0.00, 0.00, 0.00, 0.00, 0.00, 0.03, 0.03, 1.04
247, 0.00, 19914.64, 0.00, 0.00, 0.00, 0.00, 0.00, 0.00, 0.03, 0.03, 1.04
248, 0.00, 19866.21, 0.00, 0.00, 0.00, 0.00, 0.00, 0.00, 0.03, 0.03, 1.03
249, 0.00, 19855.84, 0.00, 0.00, 0.00, 0.00, 0.00, 0.00, 0.03, 0.03, 1.03
250, 0.00, 19885.72, 0.00, 0.00, 0.00, 0.00, 0.00, 0.00, 0.03, 0.03, 1.03
251, 0.00, 19885.07, 0.00, 0.00, 0.00, 0.00, 0.00, 0.00, 0.03, 0.03, 1.03
252, 0.00, 19875.13, 0.00, 0.00, 0.00, 0.00, 0.00, 0.00, 0.03, 0.03, 1.03
253, 0.00, 19877.43, 0.00, 0.00, 0.00, 0.00, 0.00, 0.00, 0.03, 0.03, 1.04
254, 0.00, 19906.04, 0.00, 0.00, 0.00, 0.00, 0.00, 0.00, 0.03, 0.03, 1.04
255, 0.00, 19931.18, 0.00, 0.00, 0.00, 0.00, 0.00, 0.00, 0.03, 0.03, 1.04
0, 0.00, 19918.44, 0.00, 0.00, 0.00, 0.00, 0.00, 0.00, 0.03, 0.03, 1.04
1, 0.00, 19908.05, 0.00, 0.00, 0.00, 0.00, 0.00, 0.00, 0.03, 0.03, 1.04
2, 0.00, 19912.99, 0.00, 0.00, 0.00, 0.00, 0.00, 0.00, 0.02, 0.03, 1.04
3, 0.00, 19905.86, 0.00, 0.00, 0.00, 0.00, 0.00, 0.00, 0.02, 0.03, 1.04
4, 0.00, 19910.33, 0.00, 0.00, 0.00, 0.00, 0.00, 0.00, 0.02, 0.03, 1.04
5, 0.00, 19910.73, 0.00, 0.00, 0.00, 0.00, 0.00, 0.00, 0.02, 0.03, 1.04
6, 0.00, 19932.14, 0.00, 0.00, 0.00, 0.00, 0.00, 0.00, 0.02, 0.03, 1.04
7, 0.00, 19927.90, 0.00, 0.00, 0.00, 0.00, 0.00, 0.00, 0.02, 0.03, 1.03
8, 0.00, 19932.17, 0.00, 0.00, 0.00, 0.00, 0.00, 0.00, 0.02, 0.03, 1.03
9, 0.00, 19936.77, 0.00, 0.00, 0.00, 0.00, 0.00, 0.00, 0.02, 0.03, 1.03
10, 0.00, 19944.01, 0.00, 0.00, 0.00, 0.00, 0.00, 0.00, 0.02, 0.03, 1.03
11, 0.00, 19956.51, 0.00, 0.00, 0.00, 0.00, 0.00, 0.00, 0.02, 0.03, 1.03
12, 0.00, 19935.43, 0.00, 0.00, 0.00, 0.00, 0.00, 0.00, 0.02, 0.03, 1.04
13, 0.00, 19947.77, 0.00, 0.00, 0.00, 0.00, 0.00, 0.00, 0.02, 0.03, 1.04
14, 0.00, 19974.39, 0.00, 0.00, 0.00, 0.00, 0.00, 0.00, 0.02, 0.03, 1.04
15, 0.00, 19984.83, 0.00, 0.00, 0.00, 0.00, 0.00, 0.00, 0.02, 0.03, 1.04
16, 0.00, 19981.23, 0.00, 0.00, 0.00, 0.00, 0.00, 0.00, 0.02, 0.03, 1.04
17, 0.00, 19974.43, 0.00, 0.00, 0.00, 0.00, 0.00, 0.00, 0.02, 0.02, 1.03
18, 0.00, 19970.08, 0.00, 0.00, 0.00, 0.00, 0.00, 0.00, 0.02, 0.02, 1.03
19, 0.00, 19986.55, 0.00, 0.00, 0.00, 0.00, 0.00, 0.00, 0.02, 0.02, 1.03
20, 0.00, 19993.50, 0.00, 0.00, 0.00, 0.00, 0.00, 0.00, 0.02, 0.02, 1.03
21, 0.00, 19997.17, 0.00, 0.00, 0.00, 0.00, 0.00, 0.00, 0.02, 0.02, 1.03
22, 0.00, 20015.56, 0.00, 0.00, 0.00, 0.00, 0.00, 0.00, 0.02, 0.03, 1.03
23, 0.00, 20006.55, 0.00, 0.00, 0.00, 0.00, 0.00, 0.00, 0.02, 0.03, 1.03
24, 0.00, 19995.65, 0.00, 0.00, 0.00, 0.00, 0.00, 0.00, 0.02, 0.03, 1.03
25, 0.00, 20004.03, 0.00, 0.00, 0.00, 0.00, 0.00, 0.00, 0.02, 0.03, 1.03
26, 0.00, 20002.31, 0.00, 0.00, 0.00, 0.00, 0.00, 0.00, 0.02, 0.03, 1.03
27, 0.00, 20010.11, 0.00, 0.00, 0.00, 0.00, 0.00, 0.00, 0.02, 0.03, 1.03
28, 0.00, 20040.10, 0.00, 0.00, 0.00, 0.00, 0.00, 0.00, 0.02, 0.03, 1.03
29, 0.00, 20042.29, 0.00, 0.00, 0.00, 0.00, 0.00, 0.00, 0.02, 0.03, 1.03
30, 0.00, 20020.93, 0.00, 0.00, 0.00, 0.00, 0.00, 0.00, 0.02, 0.03, 1.03
31, 0.00, 20037.62, 0.00, 0.00, 0.00, 0.00, 0.00, 0.00, 0.02, 0.03, 1.03
32, 0.00, 20027.74, 0.00, 0.00, 0.00, 0.00, 0.00, 0.00, 0.02, 0.03, 1.04
33, 0.00, 20037.60, 0.00, 0.00, 0.00, 0.00, 0.00, 0.00, 0.02, 0.03, 1.04
34, 0.00, 20044.93, 0.00, 0.00, 0.00, 0.00, 0.00, 0.00, 0.02, 0.03, 1.04
35, 0.00, 20041.27, 0.00, 0.00, 0.00, 0.00, 0.00, 0.00, 0.02, 0.03, 1.04
36, 0.00, 20028.03, 0.00, 0.00, 0.00, 0.00, 0.00, 0.00, 0.02, 0.03, 1.04
37, 0.00, 20057.56, 0.00, 0.00, 0.00, 0.00, 0.00, 0.00, 0.02, 0.02, 1.03
38, 0.00, 20075.73, 0.00, 0.00, 0.00, 0.00, 0.00, 0.00, 0.02, 0.02, 1.03
39, 0.00, 20067.87, 0.00, 0.00, 0.00, 0.00, 0.00, 0.00, 0.02, 0.02, 1.03
40, 0.00, 20036.35, 0.00, 0.00, 0.00, 0.00, 0.00, 0.00, 0.02, 0.02, 1.03
41, 0.00, 20010.51, 0.00, 0.00, 0.00, 0.00, 0.00, 0.00, 0.02, 0.02, 1.03
42, 0.00, 20012.16, 0.00, 0.00, 0.00, 0.00, 0.00, 0.00, 0.02, 0.02, 1.04
43, 0.00, 20038.96, 0.00, 0.00, 0.00, 0.00, 0.00, 0.00, 0.02, 0.02, 1.04
44, 0.00, 20059.84, 0.00, 0.00, 0.00, 0.00, 0.00, 0.00, 0.02, 0.02, 1.04
45, 0.00, 20064.60, 0.00, 0.00, 0.00, 0.00, 0.00, 0.00, 0.02, 0.02, 1.04
46, 0.00, 20049.60, 0.00, 0.00, 0.00, 0.00, 0.00, 0.00, 0.02, 0.02, 1.04
47, 0.00, 20038.32, 0.00, 0.00, 0.00, 0.00, 0.00, 0.00, 0.02, 0.02, 1.04
48, 0.00, 20051.66, 0.00, 0.00, 0.00, 0.00, 0.00, 0.00, 0.02, 0.02, 1.04
49, 0.00, 20057.99, 0.00, 0.00, 0.00, 0.00, 0.00, 0.00, 0.02, 0.02, 1.04
50, 0.00, 20075.89, 0.00, 0.00, 0.00, 0.00, 0.00, 0.00, 0.02, 0.02, 1.04
51, 0.00, 20074.79, 0.00, 0.00, 0.00, 0.00, 0.00, 0.00, 0.02, 0.02, 1.04
52, 0.00, 20068.49, 0.00, 0.00, 0.00, 0.00, 0.00, 0.00, 0.02, 0.02, 1.03
53, 0.00, 20093.79, 0.00, 0.00, 0.00, 0.00, 0.00, 0.00, 0.02, 0.02, 1.03
54, 0.00, 20087.15, 0.00, 0.00, 0.00, 0.00, 0.00, 0.00, 0.02, 0.02, 1.03
55, 0.00, 20084.72, 0.00, 0.00, 0.00, 0.00, 0.00, 0.00, 0.02, 0.02, 1.03
56, 0.00, 20090.82, 0.00, 0.00, 0.00, 0.00, 0.00, 0.00, 0.02, 0.02, 1.03
57, 0.00, 20109.91, 0.00, 0.00, 0.00, 0.00, 0.00, 0.00, 0.02, 0.03, 1.03
58, 0.00, 20089.55, 0.00, 0.00, 0.00, 0.00, 0.00, 0.00, 0.02, 0.03, 1.03
59, 0.00, 20097.15, 0.00, 0.00, 0.00, 0.00, 0.00, 0.00, 0.02, 0.03, 1.03
60, 0.00, 20105.46, 0.00, 0.00, 0.00, 0.00, 0.00, 0.00, 0.02, 0.03, 1.03
61, 0.00, 20110.02, 0.00, 0.00, 0.00, 0.00, 0.00, 0.00, 0.02, 0.03, 1.03
62, 0.00, 20113.19, 0.00, 0.00, 0.00, 0.00, 0.00, 0.00, 0.02, 0.03, 1.03
63, 0.00, 20108.37, 0.00, 0.00, 0.00, 0.00, 0.00, 0.00, 0.02, 0.03, 1.03
64, 0.00, 20121.15, 0.00, 0.00, 0.00, 0.00, 0.00, 0.00, 0.02, 0.03, 1.03
65, 0.00, 20096.77, 0.00, 0.00, 0.00, 0.00, 0.00, 0.00, 0.02, 0.03, 1.03
66, 0.00, 20111.21, 0.00, 0.00, 0.00, 0.00, 0.00, 0.00, 0.02, 0.03, 1.03
67, 0.00, 20129.87, 0.00, 0.00, 0.00, 0.00, 0.00, 0.00, 0.02, 0.03, 1.03
68, 0.00, 20141.07, 0.00, 0.00, 0.00, 0.00, 0.00, 0.00, 0.03, 0.03, 1.03
69, 0.00, 20127.32, 0.00, 0.00, 0.00, 0.00, 0.00, 0.00, 0.03, 0.03, 1.03
70, 0.00, 20124.08, 0.00, 0.00, 0.00, 0.00, 0.00, 0.00, 0.03, 0.03, 1.03
71, 0.00, 20142.88, 0.00, 0.00, 0.00, 0.00, 0.00, 0.00, 0.03, 0.03, 1.03
72, 0.00, 20133.47, 0.00, 0.00, 0.00, 0.00, 0.00, 0.00, 0.03, 0.03, 1.03
73, 0.00, 20136.39, 0.00, 0.00, 0.00, 0.00, 0.00, 0.00, 0.03, 0.03, 1.03
74, 0.00, 20143.37, 0.00, 0.00, 0.00, 0.00, 0.00, 0.00, 0.03, 0.03, 1.03
75, 0.00, 20142.50, 0.00, 0.00, 0.00, 0.00, 0.00, 0.00, 0.03, 0.03, 1.03
76, 0.00, 20147.84, 0.00, 0.00, 0.00, 0.00, 0.00, 0.00, 0.03, 0.03, 1.03
77, 0.00, 20172.87, 0.00, 0.00, 0.00, 0.00, 0.00, 0.00, 0.03, 0.03, 1.03
78, 0.00, 20181.03, 0.00, 0.00, 0.00, 0.00, 0.00, 0.00, 0.03, 0.02, 1.03
79, 0.00, 20170.17, 0.00, 0.00, 0.00, 0.00, 0.00, 0.00, 0.03, 0.02, 1.03
80, 0.00, 20162.26, 0.00, 0.00, 0.00, 0.00, 0.00, 0.00, 0.03, 0.02, 1.03
81, 0.00, 20169.43, 0.00, 0.00, 0.00, 0.00, 0.00, 0.00, 0.03, 0.02, 1.03
82, 0.00, 20154.63, 0.00, 0.00, 0.00, 0.00, 0.00, 0.00, 0.03, 0.02, 1.03
83, 0.00, 20154.52, 0.00, 0.00, 0.00, 0.00, 0.00, 0.00, 0.03, 0.02, 1.03
84, 0.00, 20165.77, 0.00, 0.00, 0.00, 0.00, 0.00, 0.00, 0.03, 0.02, 1.03
85, 0.00, 20173.88, 0.00, 0.00, 0.00, 0.00, 0.00, 0.00, 0.03, 0.02, 1.03
86, 0.00, 20198.18, 0.00, 0.00, 0.00, 0.00, 0.00, 0.00, 0.03, 0.02, 1.03
87, 0.00, 20193.32, 0.00, 0.00, 0.00, 0.00, 0.00, 0.00, 0.03, 0.02, 1.03
88, 0.00, 20165.30, 0.00, 0.00, 0.00, 0.00, 0.00, 0.00, 0.02, 0.03, 1.03
89, 0.00, 20166.23, 0.00, 0.00, 0.00, 0.00, 0.00, 0.00, 0.02, 0.03, 1.03
90, 0.00, 20197.46, 0.00, 0.00, 0.00, 0.00, 0.00, 0.00, 0.02, 0.03, 1.03
91, 0.00, 20200.57, 0.00, 0.00, 0.00, 0.00, 0.00, 0.00, 0.02, 0.03, 1.03
92, 0.00, 20204.99, 0.00, 0.00, 0.00, 0.00, 0.00, 0.00, 0.02, 0.03, 1.03
93, 0.00, 20197.55, 0.00, 0.00, 0.00, 0.00, 0.00, 0.00, 0.02, 0.03, 1.03
94, 0.00, 20189.55, 0.00, 0.00, 0.00, 0.00, 0.00, 0.00, 0.02, 0.03, 1.03
95, 0.00, 20183.54, 0.00, 0.00, 0.00, 0.00, 0.00, 0.00, 0.02, 0.03, 1.03
96, 0.00, 20177.12, 0.00, 0.00, 0.00, 0.00, 0.00, 0.00, 0.02, 0.03, 1.03
97, 0.00, 20200.41, 0.00, 0.00, 0.00, 0.00, 0.00, 0.00, 0.02, 0.03, 1.03
98, 0.00, 20210.22, 0.00, 0.00, 0.00, 0.00, 0.00, 0.00, 0.03, 0.04, 1.03
99, 0.00, 20207.92, 0.00, 0.00, 0.00, 0.00, 0.00, 0.00, 0.03, 0.04, 1.03
100, 0.00, 20203.58, 0.00, 0.00, 0.00, 0.00, 0.00, 0.00, 0.03, 0.04, 1.03
101, 0.00, 20207.61, 0.00, 0.00, 0.00, 0.00, 0.00, 0.00, 0.03, 0.04, 1.03
102, 0.00, 20222.27, 0.00, 0.00, 0.00, 0.00, 0.00, 0.00, 0.03, 0.04, 1.03
103, 0.00, 20218.11, 0.00, 0.00, 0.00, 0.00, 0.00, 0.00, 0.03, 0.04, 1.03
104, 0.00, 20211.25, 0.00, 0.00, 0.00, 0.00, 0.00, 0.00, 0.03, 0.04, 1.03
105, 0.00, 20213.24, 0.00, 0.00, 0.00, 0.00, 0.00, 0.00, 0.03, 0.04, 1.03
106, 0.00, 20228.71, 0.00, 0.00, 0.00, 0.00, 0.00, 0.00, 0.03, 0.04, 1.03
107, 0.00, 20221.71, 0.00, 0.00, 0.00, 0.00, 0.00, 0.00, 0.03, 0.04, 1.03
108, 0.00, 20241.83, 0.00, 0.00, 0.00, 0.00, 0.00, 0.00, 0.03, 0.03, 1.04
109, 0.00, 20254.79, 0.00, 0.00, 0.00, 0.00, 0.00, 0.00, 0.03, 0.03, 1.04
110, 0.00, 20253.34, 0.00, 0.00, 0.00, 0.00, 0.00, 0.00, 0.03, 0.03, 1.04
111, 0.00, 20258.28, 0.00, 0.00, 0.00, 0.00, 0.00, 0.00, 0.03, 0.03, 1.04
112, 0.00, 20245.79, 0.00, 0.00, 0.00, 0.00, 0.00, 0.00, 0.03, 0.03, 1.04
113, 0.00, 20265.90, 0.00, 0.00, 0.00, 0.00, 0.00, 0.00, 0.03, 0.03, 1.02
114, 0.00, 20270.42, 0.00, 0.00, 0.00, 0.00, 0.00, 0.00, 0.03, 0.03, 1.02
115, 0.00, 20261.86, 0.00, 0.00, 0.00, 0.00, 0.00, 0.00, 0.03, 0.03, 1.02
116, 0.00, 20243.06, 0.00, 0.00, 0.00, 0.00, 0.00, 0.00, 0.03, 0.03, 1.02
117, 0.00, 20257.86, 0.00, 0.00, 0.00, 0.00, 0.00, 0.00, 0.03, 0.03, 1.02
118, 0.00, 20262.71, 0.00, 0.00, 0.00, 0.00, 0.00, 0.00, 0.03, 0.03, 1.02
119, 0.00, 20248.18, 0.00, 0.00, 0.00, 0.00, 0.00, 0.00, 0.03, 0.03, 1.02
120, 0.00, 20253.18, 0.00, 0.00, 0.00, 0.00, 0.00, 0.00, 0.03, 0.03, 1.02
121, 0.00, 20254.35, 0.00, 0.00, 0.00, 0.00, 0.00, 0.00, 0.03, 0.03, 1.02
122, 0.00, 20284.65, 0.00, 0.00, 0.00, 0.00, 0.00, 0.00, 0.03, 0.03, 1.02
123, 0.00, 20303.79, 0.00, 0.00, 0.00, 0.00, 0.00, 0.00, 0.03, 0.03, 1.03
124, 0.00, 20281.70, 0.00, 0.00, 0.00, 0.00, 0.00, 0.00, 0.03, 0.03, 1.03
125, 0.00, 20259.04, 0.00, 0.00, 0.00, 0.00, 0.00, 0.00, 0.03, 0.03, 1.03
126, 0.00, 20278.06, 0.00, 0.00, 0.00, 0.00, 0.00, 0.00, 0.03, 0.03, 1.03
127, 0.00, 20288.52, 0.00, 0.00, 0.00, 0.00, 0.00, 0.00, 0.03, 0.03, 1.03
128, 0.00, 20295.29, 0.00, 0.00, 0.00, 0.00, 0.00, 0.00, 0.03, 0.03, 1.03
129, 0.00, 20299.09, 0.00, 0.00, 0.00, 0.00, 0.00, 0.00, 0.03, 0.03, 1.03
130, 0.00, 20295.25, 0.00, 0.00, 0.00, 0.00, 0.00, 0.00, 0.03, 0.03, 1.03
131, 0.00, 20307.01, 0.00, 0.00, 0.00, 0.00, 0.00, 0.00, 0.03, 0.03, 1.03
132, 0.00, 20301.11, 0.00, 0.00, 0.00, 0.00, 0.00, 0.00, 0.03, 0.03, 1.03
133, 0.00, 20304.06, 0.00, 0.00, 0.00, 0.00, 0.00, 0.00, 0.03, 0.02, 1.03
134, 0.00, 20340.71, 0.00, 0.00, 0.00, 0.00, 0.00, 0.00, 0.03, 0.02, 1.03
135, 0.00, 20338.43, 0.00, 0.00, 0.00, 0.00, 0.00, 0.00, 0.03, 0.02, 1.03
136, 0.00, 20344.54, 0.00, 0.00, 0.00, 0.00, 0.00, 0.00, 0.03, 0.02, 1.03
137, 0.00, 20323.32, 0.00, 0.00, 0.00, 0.00, 0.00, 0.00, 0.03, 0.02, 1.03
138, 0.00, 20309.35, 0.00, 0.00, 0.00, 0.00, 0.00, 0.00, 0.03, 0.03, 1.04
139, 0.00, 20318.99, 0.00, 0.00, 0.00, 0.00, 0.00, 0.00, 0.03, 0.03, 1.04
140, 0.00, 20324.11, 0.00, 0.00, 0.00, 0.00, 0.00, 0.00, 0.03, 0.03, 1.04
141, 0.00, 20319.10, 0.00, 0.00, 0.00, 0.00, 0.00, 0.00, 0.03, 0.03, 1.04
142, 0.00, 20330.36, 0.00, 0.00, 0.00, 0.00, 0.00, 0.00, 0.03, 0.03, 1.04
143, 0.00, 20346.14, 0.00, 0.00, 0.00, 0.00, 0.00, 0.00, 0.03, 0.03, 1.03
144, 0.00, 20328.64, 0.00, 0.00, 0.00, 0.00, 0.00, 0.00, 0.03, 0.03, 1.03
145, 0.00, 20332.11, 0.00, 0.00, 0.00, 0.00, 0.00, 0.00, 0.03, 0.03, 1.03
146, 0.00, 20361.03, 0.00, 0.00, 0.00, 0.00, 0.00, 0.00, 0.03, 0.03, 1.03
147, 0.00, 20368.50, 0.00, 0.00, 0.00, 0.00, 0.00, 0.00, 0.03, 0.03, 1.03
148, 0.00, 20372.94, 0.00, 0.00, 0.00, 0.00, 0.00, 0.00, 0.03, 0.03, 1.04
149, 0.00, 20356.98, 0.00, 0.00, 0.00, 0.00, 0.00, 0.00, 0.03, 0.03, 1.04
150, 0.00, 20349.09, 0.00, 0.00, 0.00, 0.00, 0.00, 0.00, 0.03, 0.03, 1.04
151, 0.00, 20338.61, 0.00, 0.00, 0.00, 0.00, 0.00, 0.00, 0.03, 0.03, 1.04
152, 0.00, 20339.71, 0.00, 0.00, 0.00, 0.00, 0.00, 0.00, 0.03, 0.03, 1.04
153, 0.00, 20360.63, 0.00, 0.00, 0.00, 0.00, 0.00, 0.00, 0.03, 0.04, 1.04
154, 0.00, 20373.68, 0.00, 0.00, 0.00, 0.00, 0.00, 0.00, 0.03, 0.04, 1.04
155, 0.00, 20382.13, 0.00, 0.00, 0.00, 0.00, 0.00, 0.00, 0.03, 0.04, 1.04
156, 0.00, 20379.45, 0.00, 0.00, 0.00, 0.00, 0.00, 0.00, 0.03, 0.04, 1.04
157, 0.00, 20377.32, 0.00, 0.00, 0.00, 0.00, 0.00, 0.00, 0.03, 0.04, 1.04
158, 0.00, 20374.35, 0.00, 0.00, 0.00, 0.00, 0.00, 0.00, 0.03, 0.03, 1.04
159, 0.00, 20399.74, 0.00, 0.00, 0.00, 0.00, 0.00, 0.00, 0.03, 0.03, 1.04
160, 0.00, 20415.68, 0.00, 0.00, 0.00, 0.00, 0.00, 0.00, 0.03, 0.03, 1.04
161, 0.00, 20408.77, 0.00, 0.00, 0.00, 0.00, 0.00, 0.00, 0.03, 0.03, 1.04
162, 0.00, 20405.60, 0.00, 0.00, 0.00, 0.00, 0.00, 0.00, 0.03, 0.03, 1.04
163, 0.00, 20386.09, 0.00, 0.00, 0.00, 0.00, 0.00, 0.00, 0.03, 0.03, 1.03
164, 0.00, 20373.88, 0.00, 0.00, 0.00, 0.00, 0.00, 0.00, 0.03, 0.03, 1.03
165, 0.00, 20387.32, 0.00, 0.00, 0.00, 0.00, 0.00, 0.00, 0.03, 0.03, 1.03
166, 0.00, 20384.41, 0.00, 0.00, 0.00, 0.00, 0.00, 0.00, 0.03, 0.03, 1.03
167, 0.00, 20382.78, 0.00, 0.00, 0.00, 0.00, 0.00, 0.00, 0.03, 0.03, 1.03
168, 0.00, 20403.23, 0.00, 0.00, 0.00, 0.00, 0.00, 0.00, 0.03, 0.03, 1.04
169, 0.00, 20421.94, 0.00, 0.00, 0.00, 0.00, 0.00, 0.00, 0.03, 0.03, 1.04
170, 0.00, 20410.56, 0.00, 0.00, 0.00, 0.00, 0.00, 0.00, 0.03, 0.03, 1.04
171, 0.00, 20396.17, 0.00, 0.00, 0.00, 0.00, 0.00, 0.00, 0.03, 0.03, 1.04
172, 0.00, 20411.90, 0.00, 0.00, 0.00, 0.00, 0.00, 0.00, 0.03, 0.03, 1.04
173, 0.00, 20431.91, 0.00, 0.00, 0.00, 0.00, 0.00, 0.00, 0.03, 0.03, 1.04
174, 0.00, 20417.87, 0.00, 0.00, 0.00, 0.00, 0.00, 0.00, 0.03, 0.03, 1.04
175, 0.00, 20407.03, 0.00, 0.00, 0.00, 0.00, 0.00, 0.00, 0.03, 0.03, 1.04
176, 0.00, 20409.29, 0.00, 0.00, 0.00, 0.00, 0.00, 0.00, 0.03, 0.03, 1.04
177, 0.00, 20419.05, 0.00, 0.00, 0.00, 0.00, 0.00, 0.00, 0.03, 0.03, 1.04
178, 0.00, 20441.43, 0.00, 0.00, 0.00, 0.00, 0.00, 0.00, 0.03, 0.03, 1.04
179, 0.00, 20420.69, 0.00, 0.00, 0.00, 0.00, 0.00, 0.00, 0.03, 0.03, 1.04
180, 0.00, 20432.71, 0.00, 0.00, 0.00, 0.00, 0.00, 0.00, 0.03, 0.03, 1.04
181, 0.00, 20451.38, 0.00, 0.00, 0.00, 0.00, 0.00, 0.00, 0.03, 0.03, 1.04
182, 0.00, 20440.40, 0.00, 0.00, 0.00, 0.00, 0.00, 0.00, 0.03, 0.03, 1.04
183, 0.00, 20447.44, 0.00, 0.00, 0.00, 0.00, 0.00, 0.00, 0.03, 0.03, 1.03
184, 0.00, 20438.86, 0.00, 0.00, 0.00, 0.00, 0.00, 0.00, 0.03, 0.03, 1.03
185, 0.00, 20451.24, 0.00, 0.00, 0.00, 0.00, 0.00, 0.00, 0.03, 0.03, 1.03
186, 0.00, 20464.65, 0.00, 0.00, 0.00, 0.00, 0.00, 0.00, 0.03, 0.03, 1.03
187, 0.00, 20469.75, 0.00, 0.00, 0.00, 0.00, 0.00, 0.00, 0.03, 0.03, 1.03
188, 0.00, 20473.21, 0.00, 0.00, 0.00, 0.00, 0.00, 0.00, 0.03, 0.03, 1.04
189, 0.00, 20457.63, 0.00, 0.00, 0.00, 0.00, 0.00, 0.00, 0.03, 0.03, 1.04
190, 0.00, 20457.17, 0.00, 0.00, 0.00, 0.00, 0.00, 0.00, 0.03, 0.03, 1.04
191, 0.00, 20474.82, 0.00, 0.00, 0.00, 0.00, 0.00, 0.00, 0.03, 0.03, 1.04
192, 0.00, 20487.70, 0.00, 0.00, 0.00, 0.00, 0.00, 0.00, 0.03, 0.03, 1.04
193, 0.00, 20479.54, 0.00, 0.00, 0.00, 0.00, 0.00, 0.00, 0.03, 0.03, 1.04
194, 0.00, 20485.17, 0.00, 0.00, 0.00, 0.00, 0.00, 0.00, 0.03, 0.03, 1.04
195, 0.00, 20492.17, 0.00, 0.00, 0.00, 0.00, 0.00, 0.00, 0.03, 0.03, 1.04
196, 0.00, 20494.94, 0.00, 0.00, 0.00, 0.00, 0.00, 0.00, 0.03, 0.03, 1.04
197, 0.00, 20481.13, 0.00, 0.00, 0.00, 0.00, 0.00, 0.00, 0.03, 0.03, 1.04
198, 0.00, 20496.06, 0.00, 0.00, 0.00, 0.00, 0.00, 0.00, 0.03, 0.03, 1.03
199, 0.00, 20504.37, 0.00, 0.00, 0.00, 0.00, 0.00, 0.00, 0.03, 0.03, 1.03
200, 0.00, 20497.17, 0.00, 0.00, 0.00, 0.00, 0.00, 0.00, 0.03, 0.03, 1.03
201, 0.00, 20511.57, 0.00, 0.00, 0.00, 0.00, 0.00, 0.00, 0.03, 0.03, 1.03
202, 0.00, 20513.45, 0.00, 0.00, 0.00, 0.00, 0.00, 0.00, 0.03, 0.03, 1.03
203, 0.00, 20526.12, 0.00, 0.00, 0.00, 0.00, 0.00, 0.00, 0.03, 0.03, 1.04
204, 0.00, 20523.79, 0.00, 0.00, 0.00, 0.00, 0.00, 0.00, 0.03, 0.03, 1.04
205, 0.00, 20492.73, 0.00, 0.00, 0.00, 0.00, 0.00, 0.00, 0.03, 0.03, 1.04
206, 0.00, 20532.15, 0.00, 0.00, 0.00, 0.00, 0.00, 0.00, 0.03, 0.03, 1.04
207, 0.00, 20543.22, 0.00, 0.00, 0.00, 0.00, 0.00, 0.00, 0.03, 0.03, 1.04
208, 0.00, 20530.84, 0.00, 0.00, 0.00, 0.00, 0.00, 0.00, 0.03, 0.03, 1.03
209, 0.00, 20528.58, 0.00, 0.00, 0.00, 0.00, 0.00, 0.00, 0.03, 0.03, 1.03
210, 0.00, 20538.26, 0.00, 0.00, 0.00, 0.00, 0.00, 0.00, 0.03, 0.03, 1.03
211, 0.00, 20561.95, 0.00, 0.00, 0.00, 0.00, 0.00, 0.00, 0.03, 0.03, 1.03
212, 0.00, 20539.38, 0.00, 0.00, 0.00, 0.00, 0.00, 0.00, 0.03, 0.03, 1.03
213, 0.00, 20560.77, 0.00, 0.00, 0.00, 0.00, 0.00, 0.00, 0.03, 0.03, 1.03
214, 0.00, 20562.62, 0.00, 0.00, 0.00, 0.00, 0.00, 0.00, 0.03, 0.03, 1.03
215, 0.00, 20555.20, 0.00, 0.00, 0.00, 0.00, 0.00, 0.00, 0.03, 0.03, 1.03
216, 0.00, 20552.07, 0.00, 0.00, 0.00, 0.00, 0.00, 0.00, 0.03, 0.03, 1.03
217, 0.00, 20546.04, 0.00, 0.00, 0.00, 0.00, 0.00, 0.00, 0.03, 0.03, 1.03
218, 0.00, 20556.56, 0.00, 0.00, 0.00, 0.00, 0.00, 0.00, 0.02, 0.02, 1.03
219, 0.00, 20573.17, 0.00, 0.00, 0.00, 0.00, 0.00, 0.00, 0.02, 0.02, 1.03
220, 0.00, 20566.71, 0.00, 0.00, 0.00, 0.00, 0.00, 0.00, 0.02, 0.02, 1.03
221, 0.00, 20572.39, 0.00, 0.00, 0.00, 0.00, 0.00, 0.00, 0.02, 0.02, 1.03
222, 0.00, 20573.06, 0.00, 0.00, 0.00, 0.00, 0.00, 0.00, 0.02, 0.02, 1.03
223, 0.00, 20562.67, 0.00, 0.00, 0.00, 0.00, 0.00, 0.00, 0.02, 0.03, 1.03
224, 0.00, 20566.11, 0.00, 0.00, 0.00, 0.00, 0.00, 0.00, 0.02, 0.03, 1.03
225, 0.00, 20556.12, 0.00, 0.00, 0.00, 0.00, 0.00, 0.00, 0.02, 0.03, 1.03
226, 0.00, 20566.91, 0.00, 0.00, 0.00, 0.00, 0.00, 0.00, 0.02, 0.03, 1.03
227, 0.00, 20586.85, 0.00, 0.00, 0.00, 0.00, 0.00, 0.00, 0.02, 0.03, 1.03
228, 0.00, 20596.19, 0.00, 0.00, 0.00, 0.00, 0.00, 0.00, 0.03, 0.03, 1.03
229, 0.00, 20595.37, 0.00, 0.00, 0.00, 0.00, 0.00, 0.00, 0.03, 0.03, 1.03
230, 0.00, 20586.29, 0.00, 0.00, 0.00, 0.00, 0.00, 0.00, 0.03, 0.03, 1.03
231, 0.00, 20606.14, 0.00, 0.00, 0.00, 0.00, 0.00, 0.00, 0.03, 0.03, 1.03
232, 0.00, 20607.23, 0.00, 0.00, 0.00, 0.00, 0.00, 0.00, 0.03, 0.03, 1.03
233, 0.00, 20600.51, 0.00, 0.00, 0.00, 0.00, 0.00, 0.00, 0.03, 0.03, 1.03
234, 0.00, 20615.66, 0.00, 0.00, 0.00, 0.00, 0.00, 0.00, 0.03, 0.03, 1.03
235, 0.00, 20602.85, 0.00, 0.00, 0.00, 0.00, 0.00, 0.00, 0.03, 0.03, 1.03
236, 0.00, 20593.98, 0.00, 0.00, 0.00, 0.00, 0.00, 0.00, 0.03, 0.03, 1.03
237, 0.00, 20592.79, 0.00, 0.00, 0.00, 0.00, 0.00, 0.00, 0.03, 0.03, 1.03
238, 0.00, 20598.34, 0.00, 0.00, 0.00, 0.00, 0.00, 0.00, 0.03, 0.03, 1.04
239, 0.00, 20620.62, 0.00, 0.00, 0.00, 0.00, 0.00, 0.00, 0.03, 0.03, 1.04
240, 0.00, 20625.81, 0.00, 0.00, 0.00, 0.00, 0.00, 0.00, 0.03, 0.03, 1.04
241, 0.00, 20633.70, 0.00, 0.00, 0.00, 0.00, 0.00, 0.00, 0.03, 0.03, 1.04
242, 0.00, 20633.25, 0.00, 0.00, 0.00, 0.00, 0.00, 0.00, 0.03, 0.03, 1.04
243, 0.00, 20631.75, 0.00, 0.00, 0.00, 0.00, 0.00, 0.00, 0.03, 0.03, 1.04
244, 0.00, 20629.27, 0.00, 0.00, 0.00, 0.00, 0.00, 0.00, 0.03, 0.03, 1.03
245, 0.00, 20631.35, 0.00, 0.00, 0.00, 0.00, 0.00, 0.00, 0.03, 0.03, 1.03
246, 0.00, 20637.79, 0.00, 0.00, 0.00, 0.00, 0.00, 0.00, 0.03, 0.03, 1.03
247, 0.00, 20646.87, 0.00, 0.00, 0.00, 0.00, 0.00, 0.00, 0.03, 0.03, 1.03
248, 0.00, 20642.24, 0.00, 0.00, 0.00, 0.00, 0.00, 0.00, 0.03, 0.03, 1.03
249, 0.00, 20647.22, 0.00, 0.00, 0.00, 0.00, 0.00, 0.00, 0.03, 0.03, 1.04
250, 0.00, 20660.32, 0.00, 0.00, 0.00, 0.00, 0.00, 0.00, 0.03, 0.03, 1.04
251, 0.00, 20654.80, 0.00, 0.00, 0.00, 0.00, 0.00, 0.00, 0.03, 0.03, 1.04
252, 0.00, 20644.16, 0.00, 0.00, 0.00, 0.00, 0.00, 0.00, 0.03, 0.03, 1.04
253, 0.00, 20647.15, 0.00, 0.00, 0.00, 0.00, 0.00, 0.00, 0.03, 0.03, 1.04
254, 0.00, 20650.33, 0.00, 0.00, 0.00, 0.00, 0.00, 0.00, 0.03, 0.03, 1.03
255, 0.00, 20642.75, 0.00, 0.00, 0.00, 0.00, 0.00, 0.00, 0.03, 0.03, 1.03
0, 0.00, 20656.28, 0.00, 0.00, 0.00, 0.00, 0.00, 0.00, 0.03, 0.03, 1.03
1, 0.00, 20674.38, 0.00, 0.00, 0.00, 0.00, 0.00, 0.00, 0.03, 0.03, 1.03
2, 0.00, 20668.08, 0.00, 0.00, 0.00, 0.00, 0.00, 0.00, 0.03, 0.03, 1.03
3, 0.00, 20649.26, 0.00, 0.00, 0.00, 0.00, 0.00, 0.00, 0.03, 0.03, 1.04
4, 0.00, 20669.17, 0.00, 0.00, 0.00, 0.00, 0.00, 0.00, 0.03, 0.03, 1.04
5, 0.00, 20698.03, 0.00, 0.00, 0.00, 0.00, 0.00, 0.00, 0.03, 0.03, 1.04
6, 0.00, 20667.72, 0.00, 0.00, 0.00, 0.00, 0.00, 0.00, 0.03, 0.03, 1.04
7, 0.00, 20639.73, 0.00, 0.00, 0.00, 0.00, 0.00, 0.00, 0.03, 0.03, 1.04
8, 0.00, 20682.38, 0.00, 0.00, 0.00, 0.00, 0.00, 0.00, 0.03, 0.03, 1.03
9, 0.00, 20701.25, 0.00, 0.00, 0.00, 0.00, 0.00, 0.00, 0.03, 0.03, 1.03
10, 0.00, 20684.15, 0.00, 0.00, 0.00, 0.00, 0.00, 0.00, 0.03, 0.03, 1.03
11, 0.00, 20663.63, 0.00, 0.00, 0.00, 0.00, 0.00, 0.00, 0.03, 0.03, 1.03
12, 0.00, 20672.37, 0.00, 0.00, 0.00, 0.00, 0.00, 0.00, 0.03, 0.03, 1.03
13, 0.00, 20672.10, 0.00, 0.00, 0.00, 0.00, 0.00, 0.00, 0.03, 0.03, 1.03
14, 0.00, 20690.03, 0.00, 0.00, 0.00, 0.00, 0.00, 0.00, 0.03, 0.03, 1.03
15, 0.00, 20685.85, 0.00, 0.00, 0.00, 0.00, 0.00, 0.00, 0.03, 0.03, 1.03
16, 0.00, 20702.68, 0.00, 0.00, 0.00, 0.00, 0.00, 0.00, 0.03, 0.03, 1.03
17, 0.00, 20698.86, 0.00, 0.00, 0.00, 0.00, 0.00, 0.00, 0.03, 0.03, 1.03
18, 0.00, 20703.88, 0.00, 0.00, 0.00, 0.00, 0.00, 0.00, 0.03, 0.03, 1.03
19, 0.00, 20688.10, 0.00, 0.00, 0.00, 0.00, 0.00, 0.00, 0.03, 0.03, 1.03
20, 0.00, 20695.77, 0.00, 0.00, 0.00, 0.00, 0.00, 0.00, 0.03, 0.03, 1.03
21, 0.00, 20719.02, 0.00, 0.00, 0.00, 0.00, 0.00, 0.00, 0.03, 0.03, 1.03
22, 0.00, 20714.84, 0.00, 0.00, 0.00, 0.00, 0.00, 0.00, 0.03, 0.03, 1.03
23, 0.00, 20696.20, 0.00, 0.00, 0.00, 0.00, 0.00, 0.00, 0.03, 0.03, 1.03
24, 0.00, 20713.05, 0.00, 0.00, 0.00, 0.00, 0.00, 0.00, 0.03, 0.03, 1.03
25, 0.00, 20725.12, 0.00, 0.00, 0.00, 0.00, 0.00, 0.00, 0.03, 0.03, 1.03
26, 0.00, 20737.25, 0.00, 0.00, 0.00, 0.00, 0.00, 0.00, 0.03, 0.03, 1.03
27, 0.00, 20725.47, 0.00, 0.00, 0.00, 0.00, 0.00, 0.00, 0.03, 0.03, 1.03
28, 0.00, 20713.54, 0.00, 0.00, 0.00, 0.00, 0.00, 0.00, 0.02, 0.02, 1.04
29, 0.00, 20720.94, 0.00, 0.00, 0.00, 0.00, 0.00, 0.00, 0.02, 0.02, 1.04
30, 0.00, 20734.13, 0.00, 0.00, 0.00, 0.00, 0.00, 0.00, 0.02, 0.02, 1.04
31, 0.00, 20738.24, 0.00, 0.00, 0.00, 0.00, 0.00, 0.00, 0.02, 0.02, 1.04
32, 0.00, 20735.69, 0.00, 0.00, 0.00, 0.00, 0.00, 0.00, 0.02, 0.02, 1.04
33, 0.00, 20738.64, 0.00, 0.00, 0.00, 0.00, 0.00, 0.00, 0.02, 0.03, 1.04
34, 0.00, 20739.60, 0.00, 0.00, 0.00, 0.00, 0.00, 0.00, 0.02, 0.03, 1.04
35, 0.00, 20740.83, 0.00, 0.00, 0.00, 0.00, 0.00, 0.00, 0.02, 0.03, 1.04
36, 0.00, 20743.71, 0.00, 0.00, 0.00, 0.00, 0.00, 0.00, 0.02, 0.03, 1.04
37, 0.00, 20748.30, 0.00, 0.00, 0.00, 0.00, 0.00, 0.00, 0.02, 0.03, 1.04
38, 0.00, 20752.97, 0.00, 0.00, 0.00, 0.00, 0.00, 0.00, 0.02, 0.03, 1.03
39, 0.00, 20768.93, 0.00, 0.00, 0.00, 0.00, 0.00, 0.00, 0.02, 0.03, 1.03
40, 0.00, 20769.78, 0.00, 0.00, 0.00, 0.00, 0.00, 0.00, 0.02, 0.03, 1.03
41, 0.00, 20737.77, 0.00, 0.00, 0.00, 0.00, 0.00, 0.00, 0.02, 0.03, 1.03
42, 0.00, 20733.46, 0.00, 0.00, 0.00, 0.00, 0.00, 0.00, 0.02, 0.03, 1.03
43, 0.00, 20757.19, 0.00, 0.00, 0.00, 0.00, 0.00, 0.00, 0.03, 0.03, 1.04
44, 0.00, 20757.60, 0.00, 0.00, 0.00, 0.00, 0.00, 0.00, 0.03, 0.03, 1.04
45, 0.00, 20770.36, 0.00, 0.00, 0.00, 0.00, 0.00, 0.00, 0.03, 0.03, 1.04
46, 0.00, 20767.47, 0.00, 0.00, 0.00, 0.00, 0.00, 0.00, 0.03, 0.03, 1.04
47, 0.00, 20777.35, 0.00, 0.00, 0.00, 0.00, 0.00, 0.00, 0.03, 0.03, 1.04
48, 0.00, 20773.42, 0.00, 0.00, 0.00, 0.00, 0.00, 0.00, 0.03, 0.02, 1.03
49, 0.00, 20778.43, 0.00, 0.00, 0.00, 0.00, 0.00, 0.00, 0.03, 0.02, 1.03
50, 0.00, 20795.41, 0.00, 0.00, 0.00, 0.00, 0.00, 0.00, 0.03, 0.02, 1.03
51, 0.00, 20785.49, 0.00, 0.00, 0.00, 0.00, 0.00, 0.00, 0.03, 0.02, 1.03
52, 0.00, 20776.71, 0.00, 0.00, 0.00, 0.00, 0.00, 0.00, 0.03, 0.02, 1.03
53, 0.00, 20750.33, 0.00, 0.00, 0.00, 0.00, 0.00, 0.00, 0.03, 0.03, 1.03
54, 0.00, 20766.42, 0.00, 0.00, 0.00, 0.00, 0.00, 0.00, 0.03, 0.03, 1.03
55, 0.00, 20800.64, 0.00, 0.00, 0.00, 0.00, 0.00, 0.00, 0.03, 0.03, 1.03
56, 0.00, 20815.71, 0.00, 0.00, 0.00, 0.00, 0.00, 0.00, 0.03, 0.03, 1.03
57, 0.00, 20806.88, 0.00, 0.00, 0.00, 0.00, 0.00, 0.00, 0.03, 0.03, 1.03
58, 0.00, 20782.90, 0.00, 0.00, 0.00, 0.00, 0.00, 0.00, 0.03, 0.03, 1.03
59, 0.00, 20780.82, 0.00, 0.00, 0.00, 0.00, 0.00, 0.00, 0.03, 0.03, 1.03
60, 0.00, 20805.88, 0.00, 0.00, 0.00, 0.00, 0.00, 0.00, 0.03, 0.03, 1.03
61, 0.00, 20820.27, 0.00, 0.00, 0.00, 0.00, 0.00, 0.00, 0.03, 0.03, 1.03
62, 0.00, 20793.58, 0.00, 0.00, 0.00, 0.00, 0.00, 0.00, 0.03, 0.03, 1.03
63, 0.00, 20782.79, 0.00, 0.00, 0.00, 0.00, 0.00, 0.00, 0.03, 0.03, 1.03
64, 0.00, 20813.56, 0.00, 0.00, 0.00, 0.00, 0.00, 0.00, 0.03, 0.03, 1.03
65, 0.00, 20802.50, 0.00, 0.00, 0.00, 0.00, 0.00, 0.00, 0.03, 0.03, 1.03
66, 0.00, 20810.30, 0.00, 0.00, 0.00, 0.00, 0.00, 0.00, 0.03, 0.03, 1.03
67, 0.00, 20833.19, 0.00, 0.00, 0.00, 0.00, 0.00, 0.00, 0.03, 0.03, 1.03
68, 0.00, 20851.90, 0.00, 0.00, 0.00, 0.00, 0.00, 0.00, 0.02, 0.03, 1.04
69, 0.00, 20843.98, 0.00, 0.00, 0.00, 0.00, 0.00, 0.00, 0.02, 0.03, 1.04
70, 0.00, 20856.52, 0.00, 0.00, 0.00, 0.00, 0.00, 0.00, 0.02, 0.03, 1.04
71, 0.00, 20871.30, 0.00, 0.00, 0.00, 0.00, 0.00, 0.00, 0.02, 0.03, 1.04
72, 0.00, 20864.97, 0.00, 0.00, 0.00, 0.00, 0.00, 0.00, 0.02, 0.03, 1.04
73, 0.00, 20837.50, 0.00, 0.00, 0.00, 0.00, 0.00, 0.00, 0.02, 0.04, 1.03
74, 0.00, 20833.70, 0.00, 0.00, 0.00, 0.00, 0.00, 0.00, 0.02, 0.04, 1.03
75, 0.00, 20844.65, 0.00, 0.00, 0.00, 0.00, 0.00, 0.00, 0.02, 0.04, 1.03
76, 0.00, 20859.72, 0.00, 0.00, 0.00, 0.00, 0.00, 0.00, 0.02, 0.04, 1.03
77, 0.00, 20870.54, 0.00, 0.00, 0.00, 0.00, 0.00, 0.00, 0.02, 0.04, 1.03
78, 0.00, 20847.83, 0.00, 0.00, 0.00, 0.00, 0.00, 0.00, 0.02, 0.03, 1.04
79, 0.00, 20849.77, 0.00, 0.00, 0.00, 0.00, 0.00, 0.00, 0.02, 0.03, 1.04
80, 0.00, 20874.36, 0.00, 0.00, 0.00, 0.00, 0.00, 0.00, 0.02, 0.03, 1.04
81, 0.00, 20866.02, 0.00, 0.00, 0.00, 0.00, 0.00, 0.00, 0.02, 0.03, 1.04
82, 0.00, 20860.41, 0.00, 0.00, 0.00, 0.00, 0.00, 0.00, 0.02, 0.03, 1.04
83, 0.00, 20869.15, 0.00, 0.00, 0.00, 0.00, 0.00, 0.00, 0.02, 0.03, 1.03
84, 0.00, 20874.47, 0.00, 0.00, 0.00, 0.00, 0.00, 0.00, 0.02, 0.03, 1.03
85, 0.00, 20872.19, 0.00, 0.00, 0.00, 0.00, 0.00, 0.00, 0.02, 0.03, 1.03
86, 0.00, 20877.45, 0.00, 0.00, 0.00, 0.00, 0.00, 0.00, 0.02, 0.03, 1.03
87, 0.00, 20882.29, 0.00, 0.00, 0.00, 0.00, 0.00, 0.00, 0.02, 0.03, 1.03
88, 0.00, 20899.42, 0.00, 0.00, 0.00, 0.00, 0.00, 0.00, 0.02, 0.04, 1.03
89, 0.00, 20884.11, 0.00, 0.00, 0.00, 0.00, 0.00, 0.00, 0.02, 0.04, 1.03
90, 0.00, 20871.90, 0.00, 0.00, 0.00, 0.00, 0.00, 0.00, 0.02, 0.04, 1.03
91, 0.00, 20884.62, 0.00, 0.00, 0.00, 0.00, 0.00, 0.00, 0.02, 0.04, 1.03
92, 0.00, 20903.31, 0.00, 0.00, 0.00, 0.00, 0.00, 0.00, 0.02, 0.04, 1.03
93, 0.00, 20889.78, 0.00, 0.00, 0.00, 0.00, 0.00, 0.00, 0.02, 0.03, 1.03
94, 0.00, 20875.88, 0.00, 0.00, 0.00, 0.00, 0.00, 0.00, 0.02, 0.03, 1.03
95, 0.00, 20886.90, 0.00, 0.00, 0.00, 0.00, 0.00, 0.00, 0.02, 0.03, 1.03
96, 0.00, 20909.30, 0.00, 0.00, 0.00, 0.00, 0.00, 0.00, 0.02, 0.03, 1.03
97, 0.00, 20926.13, 0.00, 0.00, 0.00, 0.00, 0.00, 0.00, 0.02, 0.03, 1.03
98, 0.00, 20932.47, 0.00, 0.00, 0.00, 0.00, 0.00, 0.00, 0.03, 0.02, 1.03
99, 0.00, 20921.05, 0.00, 0.00, 0.00, 0.00, 0.00, 0.00, 0.03, 0.02, 1.03
100, 0.00, 20909.03, 0.00, 0.00, 0.00, 0.00, 0.00, 0.00, 0.03, 0.02, 1.03
101, 0.00, 20908.98, 0.00, 0.00, 0.00, 0.00, 0.00, 0.00, 0.03, 0.02, 1.03
102, 0.00, 20909.34, 0.00, 0.00, 0.00, 0.00, 0.00, 0.00, 0.03, 0.02, 1.03
103, 0.00, 20917.63, 0.00, 0.00, 0.00, 0.00, 0.00, 0.00, 0.03, 0.02, 1.04
104, 0.00, 20937.46, 0.00, 0.00, 0.00, 0.00, 0.00, 0.00, 0.03, 0.02, 1.04
105, 0.00, 20947.81, 0.00, 0.00, 0.00, 0.00, 0.00, 0.00, 0.03, 0.02, 1.04
106, 0.00, 20946.38, 0.00, 0.00, 0.00, 0.00, 0.00, 0.00, 0.03, 0.02, 1.04
107, 0.00, 20922.64, 0.00, 0.00, 0.00, 0.00, 0.00, 0.00, 0.03, 0.02, 1.04
108, 0.00, 20938.09, 0.00, 0.00, 0.00, 0.00, 0.00, 0.00, 0.03, 0.02, 1.03
109, 0.00, 20955.83, 0.00, 0.00, 0.00, 0.00, 0.00, 0.00, 0.03, 0.02, 1.03
110, 0.00, 20946.85, 0.00, 0.00, 0.00, 0.00, 0.00, 0.00, 0.03, 0.02, 1.03
111, 0.00, 20957.64, 0.00, 0.00, 0.00, 0.00, 0.00, 0.00, 0.03, 0.02, 1.03
112, 0.00, 20944.25, 0.00, 0.00, 0.00, 0.00, 0.00, 0.00, 0.03, 0.02, 1.03
113, 0.00, 20971.14, 0.00, 0.00, 0.00, 0.00, 0.00, 0.00, 0.03, 0.03, 1.04
114, 0.00, 20979.01, 0.00, 0.00, 0.00, 0.00, 0.00, 0.00, 0.03, 0.03, 1.04
115, 0.00, 20951.38, 0.00, 0.00, 0.00, 0.00, 0.00, 0.00, 0.03, 0.03, 1.04
116, 0.00, 20950.83, 0.00, 0.00, 0.00, 0.00, 0.00, 0.00, 0.03, 0.03, 1.04
117, 0.00, 20965.20, 0.00, 0.00, 0.00, 0.00, 0.00, 0.00, 0.03, 0.03, 1.04
118, 0.00, 20985.98, 0.00, 0.00, 0.00, 0.00, 0.00, 0.00, 0.02, 0.03, 1.04
119, 0.00, 20965.69, 0.00, 0.00, 0.00, 0.00, 0.00, 0.00, 0.02, 0.03, 1.04
120, 0.00, 20955.01, 0.00, 0.00, 0.00, 0.00, 0.00, 0.00, 0.02, 0.03, 1.04
121, 0.00, 20981.31, 0.00, 0.00, 0.00, 0.00, 0.00, 0.00, 0.02, 0.03, 1.04
122, 0.00, 21008.72, 0.00, 0.00, 0.00, 0.00, 0.00, 0.00, 0.02, 0.03, 1.04
123, 0.00, 20998.90, 0.00, 0.00, 0.00, 0.00, 0.00, 0.00, 0.02, 0.03, 1.04
124, 0.00, 20993.41, 0.00, 0.00, 0.00, 0.00, 0.00, 0.00, 0.02, 0.03, 1.04
125, 0.00, 21012.70, 0.00, 0.00, 0.00, 0.00, 0.00, 0.00, 0.02, 0.03, 1.04
126, 0.00, 21004.11, 0.00, 0.00, 0.00, 0.00, 0.00, 0.00, 0.02, 0.03, 1.04
127, 0.00, 20998.59, 0.00, 0.00, 0.00, 0.00, 0.00, 0.00, 0.02, 0.03, 1.04
128, 0.00, 21014.91, 0.00, 0.00, 0.00, 0.00, 0.00, 0.00, 0.02, 0.03, 1.03
129, 0.00, 21027.98, 0.00, 0.00, 0.00, 0.00, 0.00, 0.00, 0.02, 0.03, 1.03
130, 0.00, 21025.86, 0.00, 0.00, 0.00, 0.00, 0.00, 0.00, 0.02, 0.03, 1.03
131, 0.00, 21016.36, 0.00, 0.00, 0.00, 0.00, 0.00, 0.00, 0.02, 0.03, 1.03
132, 0.00, 21024.97, 0.00, 0.00, 0.00, 0.00, 0.00, 0.00, 0.02, 0.03, 1.03
133, 0.00, 21009.88, 0.00, 0.00, 0.00, 0.00, 0.00, 0.00, 0.03, 0.03, 1.03
134, 0.00, 21029.39, 0.00, 0.00, 0.00, 0.00, 0.00, 0.00, 0.03, 0.03, 1.03
135, 0.00, 21027.16, 0.00, 0.00, 0.00, 0.00, 0.00, 0.00, 0.03, 0.03, 1.03
136, 0.00, 21022.44, 0.00, 0.00, 0.00, 0.00, 0.00, 0.00, 0.03, 0.03, 1.03
137, 0.00, 21039.21, 0.00, 0.00, 0.00, 0.00, 0.00, 0.00, 0.03, 0.03, 1.03
138, 0.00, 21040.32, 0.00, 0.00, 0.00, 0.00, 0.00, 0.00, 0.03, 0.03, 1.03
139, 0.00, 21017.52, 0.00, 0.00, 0.00, 0.00, 0.00, 0.00, 0.03, 0.03, 1.03
140, 0.00, 21011.04, 0.00, 0.00, 0.00, 0.00, 0.00, 0.00, 0.03, 0.03, 1.03
141, 0.00, 21043.05, 0.00, 0.00, 0.00, 0.00, 0.00, 0.00, 0.03, 0.03, 1.03
142, 0.00, 21049.04, 0.00, 0.00, 0.00, 0.00, 0.00, 0.00, 0.03, 0.03, 1.03
143, 0.00, 21051.95, 0.00, 0.00, 0.00, 0.00, 0.00, 0.00, 0.03, 0.03, 1.03
144, 0.00, 21067.88, 0.00, 0.00, 0.00, 0.00, 0.00, 0.00, 0.03, 0.03, 1.03
145, 0.00, 21056.06, 0.00, 0.00, 0.00, 0.00, 0.00, 0.00, 0.03, 0.03, 1.03
146, 0.00, 21063.95, 0.00, 0.00, 0.00, 0.00, 0.00, 0.00, 0.03, 0.03, 1.03
147, 0.00, 21080.69, 0.00, 0.00, 0.00, 0.00, 0.00, 0.00, 0.03, 0.03, 1.03
148, 0.00, 21061.18, 0.00, 0.00, 0.00, 0.00, 0.00, 0.00, 0.03, 0.03, 1.04
149, 0.00, 21057.18, 0.00, 0.00, 0.00, 0.00, 0.00, 0.00, 0.03, 0.03, 1.04
150, 0.00, 21059.79, 0.00, 0.00, 0.00, 0.00, 0.00, 0.00, 0.03, 0.03, 1.04
151, 0.00, 21075.32, 0.00, 0.00, 0.00, 0.00, 0.00, 0.00, 0.03, 0.03, 1.04
152, 0.00, 21079.62, 0.00, 0.00, 0.00, 0.00, 0.00, 0.00, 0.03, 0.03, 1.04
153, 0.00, 21061.58, 0.00, 0.00, 0.00, 0.00, 0.00, 0.00, 0.03, 0.04, 1.03
154, 0.00, 21060.21, 0.00, 0.00, 0.00, 0.00, 0.00, 0.00, 0.03, 0.04, 1.03
155, 0.00, 21086.19, 0.00, 0.00, 0.00, 0.00, 0.00, 0.00, 0.03, 0.04, 1.03
156, 0.00, 21095.64, 0.00, 0.00, 0.00, 0.00, 0.00, 0.00, 0.03, 0.04, 1.03
157, 0.00, 21104.96, 0.00, 0.00, 0.00, 0.00, 0.00, 0.00, 0.03, 0.04, 1.03
158, 0.00, 21116.61, 0.00, 0.00, 0.00, 0.00, 0.00, 0.00, 0.03, 0.04, 1.03
159, 0.00, 21113.79, 0.00, 0.00, 0.00, 0.00, 0.00, 0.00, 0.03, 0.04, 1.03
160, 0.00, 21106.37, 0.00, 0.00, 0.00, 0.00, 0.00, 0.00, 0.03, 0.04, 1.03
161, 0.00, 21094.68, 0.00, 0.00, 0.00, 0.00, 0.00, 0.00, 0.03, 0.04, 1.03
162, 0.00, 21090.52, 0.00, 0.00, 0.00, 0.00, 0.00, 0.00, 0.03, 0.04, 1.03
163, 0.00, 21106.39, 0.00, 0.00, 0.00, 0.00, 0.00, 0.00, 0.03, 0.04, 1.03
164, 0.00, 21121.06, 0.00, 0.00, 0.00, 0.00, 0.00, 0.00, 0.03, 0.04, 1.03
165, 0.00, 21112.54, 0.00, 0.00, 0.00, 0.00, 0.00, 0.00, 0.03, 0.04, 1.03
166, 0.00, 21111.67, 0.00, 0.00, 0.00, 0.00, 0.00, 0.00, 0.03, 0.04, 1.03
167, 0.00, 21132.84, 0.00, 0.00, 0.00, 0.00, 0.00, 0.00, 0.03, 0.04, 1.03
168, 0.00, 21136.44, 0.00, 0.00, 0.00, 0.00, 0.00, 0.00, 0.03, 0.04, 1.03
169, 0.00, 21132.25, 0.00, 0.00, 0.00, 0.00, 0.00, 0.00, 0.02, 0.03, 1.03
170, 0.00, 21118.22, 0.00, 0.00, 0.00, 0.00, 0.00, 0.00, 0.02, 0.03, 1.03
171, 0.00, 21113.61, 0.00, 0.00, 0.00, 0.00, 0.00, 0.00, 0.02, 0.03, 1.03
172, 0.00, 21125.10, 0.00, 0.00, 0.00, 0.00, 0.00, 0.00, 0.02, 0.03, 1.03
173, 0.00, 21115.04, 0.00, 0.00, 0.00, 0.00, 0.00, 0.00, 0.02, 0.03, 1.03
174, 0.00, 21122.20, 0.00, 0.00, 0.00, 0.00, 0.00, 0.00, 0.03, 0.04, 1.03
175, 0.00, 21144.24, 0.00, 0.00, 0.00, 0.00, 0.00, 0.00, 0.03, 0.04, 1.03
176, 0.00, 21160.42, 0.00, 0.00, 0.00, 0.00, 0.00, 0.00, 0.03, 0.04, 1.03
177, 0.00, 21161.78, 0.00, 0.00, 0.00, 0.00, 0.00, 0.00, 0.03, 0.04, 1.03
178, 0.00, 21144.82, 0.00, 0.00, 0.00, 0.00, 0.00, 0.00, 0.03, 0.04, 1.03
179, 0.00, 21142.43, 0.00, 0.00, 0.00, 0.00, 0.00, 0.00, 0.02, 0.04, 1.03
180, 0.00, 21144.62, 0.00, 0.00, 0.00, 0.00, 0.00, 0.00, 0.02, 0.04, 1.03
181, 0.00, 21145.08, 0.00, 0.00, 0.00, 0.00, 0.00, 0.00, 0.02, 0.04, 1.03
182, 0.00, 21145.06, 0.00, 0.00, 0.00, 0.00, 0.00, 0.00, 0.02, 0.04, 1.03
183, 0.00, 21143.25, 0.00, 0.00, 0.00, 0.00, 0.00, 0.00, 0.02, 0.04, 1.03
184, 0.00, 21165.38, 0.00, 0.00, 0.00, 0.00, 0.00, 0.00, 0.03, 0.03, 1.03
185, 0.00, 21172.00, 0.00, 0.00, 0.00, 0.00, 0.00, 0.00, 0.03, 0.03, 1.03
186, 0.00, 21186.86, 0.00, 0.00, 0.00, 0.00, 0.00, 0.00, 0.03, 0.03, 1.03
187, 0.00, 21171.26, 0.00, 0.00, 0.00, 0.00, 0.00, 0.00, 0.03, 0.03, 1.03
188, 0.00, 21162.16, 0.00, 0.00, 0.00, 0.00, 0.00, 0.00, 0.03, 0.03, 1.03
189, 0.00, 21166.95, 0.00, 0.00, 0.00, 0.00, 0.00, 0.00, 0.03, 0.04, 1.04
190, 0.00, 21166.97, 0.00, 0.00, 0.00, 0.00, 0.00, 0.00, 0.03, 0.04, 1.04
191, 0.00, 21181.21, 0.00, 0.00, 0.00, 0.00, 0.00, 0.00, 0.03, 0.04, 1.04
192, 0.00, 21193.61, 0.00, 0.00, 0.00, 0.00, 0.00, 0.00, 0.03, 0.04, 1.04
193, 0.00, 21184.67, 0.00, 0.00, 0.00, 0.00, 0.00, 0.00, 0.03, 0.04, 1.04
194, 0.00, 21165.18, 0.00, 0.00, 0.00, 0.00, 0.00, 0.00, 0.03, 0.03, 1.03
195, 0.00, 21172.13, 0.00, 0.00, 0.00, 0.00, 0.00, 0.00, 0.03, 0.03, 1.03
196, 0.00, 21195.24, 0.00, 0.00, 0.00, 0.00, 0.00, 0.00, 0.03, 0.03, 1.03
197, 0.00, 21206.91, 0.00, 0.00, 0.00, 0.00, 0.00, 0.00, 0.03, 0.03, 1.03
198, 0.00, 21167.88, 0.00, 0.00, 0.00, 0.00, 0.00, 0.00, 0.03, 0.03, 1.03
199, 0.00, 21139.68, 0.00, 0.00, 0.00, 0.00, 0.00, 0.00, 0.03, 0.03, 1.03
200, 0.00, 21115.94, 0.00, 0.00, 0.00, 0.00, 0.00, 0.00, 0.03, 0.03, 1.03
201, 0.00, 21106.17, 0.00, 0.00, 0.00, 0.00, 0.00, 0.00, 0.03, 0.03, 1.03
202, 0.00, 21040.54, 0.00, 0.00, 0.00, 0.00, 0.00, 0.00, 0.03, 0.03, 1.03
203, 0.00, 20974.96, 0.00, 0.00, 0.00, 0.00, 0.00, 0.00, 0.03, 0.03, 1.03
204, 0.00, 20956.95, 0.00, 0.00, 0.00, 0.00, 0.00, 0.00, 0.03, 0.03, 1.03
205, 0.00, 20904.22, 0.00, 0.00, 0.00, 0.00, 0.00, 0.00, 0.03, 0.03, 1.03
206, 0.00, 20834.66, 0.00, 0.00, 0.00, 0.00, 0.00, 0.00, 0.03, 0.03, 1.03
207, 0.00, 20763.21, 0.00, 0.00, 0.00, 0.00, 0.00, 0.00, 0.03, 0.03, 1.03
208, 0.00, 20729.03, 0.00, 0.00, 0.00, 0.00, 0.00, 0.00, 0.03, 0.03, 1.03
209, 0.00, 20684.71, 0.00, 0.00, 0.00, 0.00, 0.00, 0.00, 0.03, 0.03, 1.03
210, 0.00, 20655.04, 0.00, 0.00, 0.00, 0.00, 0.00, 0.00, 0.03, 0.03, 1.03
211, 0.00, 20635.00, 0.00, 0.00, 0.00, 0.00, 0.00, 0.00, 0.03, 0.03, 1.03
212, 0.00, 20653.14, 0.00, 0.00, 0.00, 0.00, 0.00, 0.00, 0.03, 0.03, 1.03
213, 0.00, 20651.83, 0.00, 0.00, 0.00, 0.00, 0.00, 0.00, 0.03, 0.03, 1.03
214, 0.00, 20655.04, 0.00, 0.00, 0.00, 0.00, 0.00, 0.00, 0.02, 0.03, 1.03
215, 0.00, 20658.89, 0.00, 0.00, 0.00, 0.00, 0.00, 0.00, 0.02, 0.03, 1.03
216, 0.00, 20644.58, 0.00, 0.00, 0.00, 0.00, 0.00, 0.00, 0.02, 0.03, 1.03
217, 0.00, 20666.98, 0.00, 0.00, 0.00, 0.00, 0.00, 0.00, 0.02, 0.03, 1.03
218, 0.00, 20675.01, 0.00, 0.00, 0.00, 0.00, 0.00, 0.00, 0.02, 0.03, 1.03
219, 0.00, 20670.78, 0.00, 0.00, 0.00, 0.00, 0.00, 0.00, 0.03, 0.03, 1.03
220, 0.00, 20697.80, 0.00, 0.00, 0.00, 0.00, 0.00, 0.00, 0.03, 0.03, 1.03
221, 0.00, 20722.19, 0.00, 0.00, 0.00, 0.00, 0.00, 0.00, 0.03, 0.03, 1.03
222, 0.00, 20753.50, 0.00, 0.00, 0.00, 0.00, 0.00, 0.00, 0.03, 0.03, 1.03
223, 0.00, 20763.29, 0.00, 0.00, 0.00, 0.00, 0.00, 0.00, 0.03, 0.03, 1.03
224, 0.00, 20805.90, 0.00, 0.00, 0.00, 0.00, 0.00, 0.00, 0.02, 0.03, 1.03
225, 0.00, 20823.00, 0.00, 0.00, 0.00, 0.00, 0.00, 0.00, 0.02, 0.03, 1.03
226, 0.00, 20864.48, 0.00, 0.00, 0.00, 0.00, 0.00, 0.00, 0.02, 0.03, 1.03
227, 0.00, 20899.30, 0.00, 0.00, 0.00, 0.00, 0.00, 0.00, 0.02, 0.03, 1.03
228, 0.00, 20949.19, 0.00, 0.00, 0.00, 0.00, 0.00, 0.00, 0.02, 0.03, 1.03
229, 0.00, 20994.21, 0.00, 0.00, 0.00, 0.00, 0.00, 0.00, 0.03, 0.04, 1.04
230, 0.00, 21011.94, 0.00, 0.00, 0.00, 0.00, 0.00, 0.00, 0.03, 0.04, 1.04
231, 0.00, 21033.68, 0.00, 0.00, 0.00, 0.00, 0.00, 0.00, 0.03, 0.04, 1.04
232, 0.00, 21064.98, 0.00, 0.00, 0.00, 0.00, 0.00, 0.00, 0.03, 0.04, 1.04
233, 0.00, 21092.38, 0.00, 0.00, 0.00, 0.00, 0.00, 0.00, 0.03, 0.04, 1.04
234, 0.00, 21132.21, 0.00, 0.00, 0.00, 0.00, 0.00, 0.00, 0.03, 0.03, 1.04
235, 0.00, 21153.96, 0.00, 0.00, 0.00, 0.00, 0.00, 0.00, 0.03, 0.03, 1.04
236, 0.00, 21144.84, 0.00, 0.00, 0.00, 0.00, 0.00, 0.00, 0.03, 0.03, 1.04
237, 0.00, 21151.77, 0.00, 0.00, 0.00, 0.00, 0.00, 0.00, 0.03, 0.03, 1.04
238, 0.00, 21191.51, 0.00, 0.00, 0.00, 0.00, 0.00, 0.00, 0.03, 0.03, 1.04
239, 0.00, 21212.54, 0.00, 0.00, 0.00, 0.00, 0.00, 0.00, 0.03, 0.04, 1.04
240, 0.00, 21212.07, 0.00, 0.00, 0.00, 0.00, 0.00, 0.00, 0.03, 0.04, 1.04
241, 0.00, 21222.51, 0.00, 0.00, 0.00, 0.00, 0.00, 0.00, 0.03, 0.04, 1.04
242, 0.00, 21245.13, 0.00, 0.00, 0.00, 0.00, 0.00, 0.00, 0.03, 0.04, 1.04
243, 0.00, 21265.65, 0.00, 0.00, 0.00, 0.00, 0.00, 0.00, 0.03, 0.04, 1.04
244, 0.00, 21262.95, 0.00, 0.00, 0.00, 0.00, 0.00, 0.00, 0.03, 0.04, 1.04
245, 0.00, 21259.93, 0.00, 0.00, 0.00, 0.00, 0.00, 0.00, 0.03, 0.04, 1.04
246, 0.00, 21268.22, 0.00, 0.00, 0.00, 0.00, 0.00, 0.00, 0.03, 0.04, 1.04
247, 0.00, 21291.58, 0.00, 0.00, 0.00, 0.00, 0.00, 0.00, 0.03, 0.04, 1.04
248, 0.00, 21300.63, 0.00, 0.00, 0.00, 0.00, 0.00, 0.00, 0.03, 0.04, 1.04
249, 0.00, 21301.32, 0.00, 0.00, 0.00, 0.00, 0.00, 0.00, 0.03, 0.03, 1.03
250, 0.00, 21292.45, 0.00, 0.00, 0.00, 0.00, 0.00, 0.00, 0.03, 0.03, 1.03
251, 0.00, 21309.26, 0.00, 0.00, 0.00, 0.00, 0.00, 0.00, 0.03, 0.03, 1.03
252, 0.00, 21318.58, 0.00, 0.00, 0.00, 0.00, 0.00, 0.00, 0.03, 0.03, 1.03
253, 0.00, 21339.01, 0.00, 0.00, 0.00, 0.00, 0.00, 0.00, 0.03, 0.03, 1.03
254, 0.00, 21344.87, 0.00, 0.00, 0.00, 0.00, 0.00, 0.00, 0.03, 0.03, 1.03
255, 0.00, 21347.50, 0.00, 0.00, 0.00, 0.00, 0.00, 0.00, 0.03, 0.03, 1.03
0, 0.00, 21341.51, 0.00, 0.00, 0.00, 0.00, 0.00, 0.00, 0.03, 0.03, 1.03
1, 0.00, 21352.84, 0.00, 0.00, 0.00, 0.00, 0.00, 0.00, 0.03, 0.03, 1.03
2, 0.00, 21374.68, 0.00, 0.00, 0.00, 0.00, 0.00, 0.00, 0.03, 0.03, 1.03
3, 0.00, 21393.48, 0.00, 0.00, 0.00, 0.00, 0.00, 0.00, 0.03, 0.03, 1.04
4, 0.00, 21398.82, 0.00, 0.00, 0.00, 0.00, 0.00, 0.00, 0.03, 0.03, 1.04
5, 0.00, 21385.28, 0.00, 0.00, 0.00, 0.00, 0.00, 0.00, 0.03, 0.03, 1.04
6, 0.00, 21389.97, 0.00, 0.00, 0.00, 0.00, 0.00, 0.00, 0.03, 0.03, 1.04
7, 0.00, 21411.38, 0.00, 0.00, 0.00, 0.00, 0.00, 0.00, 0.03, 0.03, 1.04
8, 0.00, 21407.92, 0.00, 0.00, 0.00, 0.00, 0.00, 0.00, 0.03, 0.03, 1.03
9, 0.00, 21398.91, 0.00, 0.00, 0.00, 0.00, 0.00, 0.00, 0.03, 0.03, 1.03
10, 0.00, 21407.36, 0.00, 0.00, 0.00, 0.00, 0.00, 0.00, 0.03, 0.03, 1.03
11, 0.00, 21420.41, 0.00, 0.00, 0.00, 0.00, 0.00, 0.00, 0.03, 0.03, 1.03
12, 0.00, 21432.60, 0.00, 0.00, 0.00, 0.00, 0.00, 0.00, 0.03, 0.03, 1.03
13, 0.00, 21427.41, 0.00, 0.00, 0.00, 0.00, 0.00, 0.00, 0.03, 0.03, 1.04
14, 0.00, 21418.33, 0.00, 0.00, 0.00, 0.00, 0.00, 0.00, 0.03, 0.03, 1.04
15, 0.00, 21406.47, 0.00, 0.00, 0.00, 0.00, 0.00, 0.00, 0.03, 0.03, 1.04
16, 0.00, 21445.71, 0.00, 0.00, 0.00, 0.00, 0.00, 0.00, 0.03, 0.03, 1.04
17, 0.00, 21462.19, 0.00, 0.00, 0.00, 0.00, 0.00, 0.00, 0.03, 0.03, 1.04
18, 0.00, 21451.39, 0.00, 0.00, 0.00, 0.00, 0.00, 0.00, 0.03, 0.02, 1.03
19, 0.00, 21448.53, 0.00, 0.00, 0.00, 0.00, 0.00, 0.00, 0.03, 0.02, 1.03
20, 0.00, 21442.52, 0.00, 0.00, 0.00, 0.00, 0.00, 0.00, 0.03, 0.02, 1.03
21, 0.00, 21462.21, 0.00, 0.00, 0.00, 0.00, 0.00, 0.00, 0.03, 0.02, 1.03
22, 0.00, 21458.08, 0.00, 0.00, 0.00, 0.00, 0.00, 0.00, 0.03, 0.02, 1.03
23, 0.00, 21460.33, 0.00, 0.00, 0.00, 0.00, 0.00, 0.00, 0.03, 0.03, 1.04
24, 0.00, 21473.39, 0.00, 0.00, 0.00, 0.00, 0.00, 0.00, 0.03, 0.03, 1.04
25, 0.00, 21475.55, 0.00, 0.00, 0.00, 0.00, 0.00, 0.00, 0.03, 0.03, 1.04
26, 0.00, 21463.55, 0.00, 0.00, 0.00, 0.00, 0.00, 0.00, 0.03, 0.03, 1.04
27, 0.00, 21475.58, 0.00, 0.00, 0.00, 0.00, 0.00, 0.00, 0.03, 0.03, 1.04
28, 0.00, 21495.85, 0.00, 0.00, 0.00, 0.00, 0.00, 0.00, 0.03, 0.03, 1.03
29, 0.00, 21493.88, 0.00, 0.00, 0.00, 0.00, 0.00, 0.00, 0.03, 0.03, 1.03
30, 0.00, 21487.18, 0.00, 0.00, 0.00, 0.00, 0.00, 0.00, 0.03, 0.03, 1.03
31, 0.00, 21479.04, 0.00, 0.00, 0.00, 0.00, 0.00, 0.00, 0.03, 0.03, 1.03
32, 0.00, 21488.92, 0.00, 0.00, 0.00, 0.00, 0.00, 0.00, 0.03, 0.03, 1.03
33, 0.00, 21498.96, 0.00, 0.00, 0.00, 0.00, 0.00, 0.00, 0.03, 0.03, 1.03
34, 0.00, 21513.20, 0.00, 0.00, 0.00, 0.00, 0.00, 0.00, 0.03, 0.03, 1.03
35, 0.00, 21520.55, 0.00, 0.00, 0.00, 0.00, 0.00, 0.00, 0.03, 0.03, 1.03
36, 0.00, 21511.07, 0.00, 0.00, 0.00, 0.00, 0.00, 0.00, 0.03, 0.03, 1.03
37, 0.00, 21528.64, 0.00, 0.00, 0.00, 0.00, 0.00, 0.00, 0.03, 0.03, 1.03
38, 0.00, 21526.76, 0.00, 0.00, 0.00, 0.00, 0.00, 0.00, 0.02, 0.03, 1.03
39, 0.00, 21529.51, 0.00, 0.00, 0.00, 0.00, 0.00, 0.00, 0.02, 0.03, 1.03
40, 0.00, 21510.45, 0.00, 0.00, 0.00, 0.00, 0.00, 0.00, 0.02, 0.03, 1.03
41, 0.00, 21518.27, 0.00, 0.00, 0.00, 0.00, 0.00, 0.00, 0.02, 0.03, 1.03
42, 0.00, 21523.75, 0.00, 0.00, 0.00, 0.00, 0.00, 0.00, 0.02, 0.03, 1.03
43, 0.00, 21526.43, 0.00, 0.00, 0.00, 0.00, 0.00, 0.00, 0.02, 0.03, 1.04
44, 0.00, 21531.14, 0.00, 0.00, 0.00, 0.00, 0.00, 0.00, 0.02, 0.03, 1.04
45, 0.00, 21542.07, 0.00, 0.00, 0.00, 0.00, 0.00, 0.00, 0.02, 0.03, 1.04
46, 0.00, 21536.46, 0.00, 0.00, 0.00, 0.00, 0.00, 0.00, 0.02, 0.03, 1.04
47, 0.00, 21531.64, 0.00, 0.00, 0.00, 0.00, 0.00, 0.00, 0.02, 0.03, 1.04
48, 0.00, 21529.78, 0.00, 0.00, 0.00, 0.00, 0.00, 0.00, 0.02, 0.03, 1.04
49, 0.00, 21516.32, 0.00, 0.00, 0.00, 0.00, 0.00, 0.00, 0.02, 0.03, 1.04
50, 0.00, 21515.77, 0.00, 0.00, 0.00, 0.00, 0.00, 0.00, 0.02, 0.03, 1.04
51, 0.00, 21545.81, 0.00, 0.00, 0.00, 0.00, 0.00, 0.00, 0.02, 0.03, 1.04
52, 0.00, 21552.27, 0.00, 0.00, 0.00, 0.00, 0.00, 0.00, 0.02, 0.03, 1.04
53, 0.00, 21551.73, 0.00, 0.00, 0.00, 0.00, 0.00, 0.00, 0.02, 0.03, 1.03
54, 0.00, 21562.95, 0.00, 0.00, 0.00, 0.00, 0.00, 0.00, 0.02, 0.03, 1.03
55, 0.00, 21554.55, 0.00, 0.00, 0.00, 0.00, 0.00, 0.00, 0.02, 0.03, 1.03
56, 0.00, 21561.70, 0.00, 0.00, 0.00, 0.00, 0.00, 0.00, 0.02, 0.03, 1.03
57, 0.00, 21568.16, 0.00, 0.00, 0.00, 0.00, 0.00, 0.00, 0.02, 0.03, 1.03
58, 0.00, 21568.43, 0.00, 0.00, 0.00, 0.00, 0.00, 0.00, 0.03, 0.03, 1.04
59, 0.00, 21586.84, 0.00, 0.00, 0.00, 0.00, 0.00, 0.00, 0.03, 0.03, 1.04
60, 0.00, 21593.35, 0.00, 0.00, 0.00, 0.00, 0.00, 0.00, 0.03, 0.03, 1.04
61, 0.00, 21585.55, 0.00, 0.00, 0.00, 0.00, 0.00, 0.00, 0.03, 0.03, 1.04
62, 0.00, 21578.71, 0.00, 0.00, 0.00, 0.00, 0.00, 0.00, 0.03, 0.03, 1.04
63, 0.00, 21586.00, 0.00, 0.00, 0.00, 0.00, 0.00, 0.00, 0.02, 0.03, 1.04
64, 0.00, 21600.17, 0.00, 0.00, 0.00, 0.00, 0.00, 0.00, 0.02, 0.03, 1.04
65, 0.00, 21585.86, 0.00, 0.00, 0.00, 0.00, 0.00, 0.00, 0.02, 0.03, 1.04
66, 0.00, 21592.79, 0.00, 0.00, 0.00, 0.00, 0.00, 0.00, 0.02, 0.03, 1.04
67, 0.00, 21601.64, 0.00, 0.00, 0.00, 0.00, 0.00, 0.00, 0.02, 0.03, 1.04
68, 0.00, 21586.71, 0.00, 0.00, 0.00, 0.00, 0.00, 0.00, 0.02, 0.03, 1.03
69, 0.00, 21565.57, 0.00, 0.00, 0.00, 0.00, 0.00, 0.00, 0.02, 0.03, 1.03
70, 0.00, 21592.03, 0.00, 0.00, 0.00, 0.00, 0.00, 0.00, 0.02, 0.03, 1.03
71, 0.00, 21605.55, 0.00, 0.00, 0.00, 0.00, 0.00, 0.00, 0.02, 0.03, 1.03
72, 0.00, 21591.54, 0.00, 0.00, 0.00, 0.00, 0.00, 0.00, 0.02, 0.03, 1.03
73, 0.00, 21573.88, 0.00, 0.00, 0.00, 0.00, 0.00, 0.00, 0.02, 0.03, 1.03
74, 0.00, 21604.05, 0.00, 0.00, 0.00, 0.00, 0.00, 0.00, 0.02, 0.03, 1.03
75, 0.00, 21605.60, 0.00, 0.00, 0.00, 0.00, 0.00, 0.00, 0.02, 0.03, 1.03
76, 0.00, 21592.70, 0.00, 0.00, 0.00, 0.00, 0.00, 0.00, 0.02, 0.03, 1.03
77, 0.00, 21602.87, 0.00, 0.00, 0.00, 0.00, 0.00, 0.00, 0.02, 0.03, 1.03
78, 0.00, 21628.75, 0.00, 0.00, 0.00, 0.00, 0.00, 0.00, 0.02, 0.03, 1.03
79, 0.00, 21620.01, 0.00, 0.00, 0.00, 0.00, 0.00, 0.00, 0.02, 0.03, 1.03
80, 0.00, 21610.87, 0.00, 0.00, 0.00, 0.00, 0.00, 0.00, 0.02, 0.03, 1.03
81, 0.00, 21624.11, 0.00, 0.00, 0.00, 0.00, 0.00, 0.00, 0.02, 0.03, 1.03
82, 0.00, 21644.96, 0.00, 0.00, 0.00, 0.00, 0.00, 0.00, 0.02, 0.03, 1.03
83, 0.00, 21640.94, 0.00, 0.00, 0.00, 0.00, 0.00, 0.00, 0.02, 0.03, 1.03
84, 0.00, 21655.71, 0.00, 0.00, 0.00, 0.00, 0.00, 0.00, 0.02, 0.03, 1.04
85, 0.00, 21653.36, 0.00, 0.00, 0.00, 0.00, 0.00, 0.00, 0.02, 0.03, 1.04
86, 0.00, 21673.28, 0.00, 0.00, 0.00, 0.00, 0.00, 0.00, 0.02, 0.03, 1.04
87, 0.00, 21663.11, 0.00, 0.00, 0.00, 0.00, 0.00, 0.00, 0.02, 0.03, 1.04
88, 0.00, 21649.77, 0.00, 0.00, 0.00, 0.00, 0.00, 0.00, 0.02, 0.03, 1.04
89, 0.00, 21643.39, 0.00, 0.00, 0.00, 0.00, 0.00, 0.00, 0.02, 0.03, 1.02
90, 0.00, 21651.78, 0.00, 0.00, 0.00, 0.00, 0.00, 0.00, 0.02, 0.03, 1.02
91, 0.00, 21656.52, 0.00, 0.00, 0.00, 0.00, 0.00, 0.00, 0.02, 0.03, 1.02
92, 0.00, 21678.69, 0.00, 0.00, 0.00, 0.00, 0.00, 0.00, 0.02, 0.03, 1.02
93, 0.00, 21668.32, 0.00, 0.00, 0.00, 0.00, 0.00, 0.00, 0.02, 0.03, 1.02
94, 0.00, 21649.88, 0.00, 0.00, 0.00, 0.00, 0.00, 0.00, 0.02, 0.04, 1.03
95, 0.00, 21672.72, 0.00, 0.00, 0.00, 0.00, 0.00, 0.00, 0.02, 0.04, 1.03
96, 0.00, 21681.44, 0.00, 0.00, 0.00, 0.00, 0.00, 0.00, 0.02, 0.04, 1.03
97, 0.00, 21691.79, 0.00, 0.00, 0.00, 0.00, 0.00, 0.00, 0.02, 0.04, 1.03
98, 0.00, 21667.94, 0.00, 0.00, 0.00, 0.00, 0.00, 0.00, 0.02, 0.04, 1.03
99, 0.00, 21674.66, 0.00, 0.00, 0.00, 0.00, 0.00, 0.00, 0.02, 0.03, 1.03
100, 0.00, 21680.95, 0.00, 0.00, 0.00, 0.00, 0.00, 0.00, 0.02, 0.03, 1.03
101, 0.00, 21690.71, 0.00, 0.00, 0.00, 0.00, 0.00, 0.00, 0.02, 0.03, 1.03
102, 0.00, 21715.37, 0.00, 0.00, 0.00, 0.00, 0.00, 0.00, 0.02, 0.03, 1.03
103, 0.00, 21718.70, 0.00, 0.00, 0.00, 0.00, 0.00, 0.00, 0.02, 0.03, 1.03
104, 0.00, 21706.25, 0.00, 0.00, 0.00, 0.00, 0.00, 0.00, 0.03, 0.03, 1.03
105, 0.00, 21702.09, 0.00, 0.00, 0.00, 0.00, 0.00, 0.00, 0.03, 0.03, 1.03
106, 0.00, 21706.14, 0.00, 0.00, 0.00, 0.00, 0.00, 0.00, 0.03, 0.03, 1.03
107, 0.00, 21719.84, 0.00, 0.00, 0.00, 0.00, 0.00, 0.00, 0.03, 0.03, 1.03
108, 0.00, 21732.35, 0.00, 0.00, 0.00, 0.00, 0.00, 0.00, 0.03, 0.03, 1.03
109, 0.00, 21733.83, 0.00, 0.00, 0.00, 0.00, 0.00, 0.00, 0.03, 0.03, 1.03
110, 0.00, 21732.06, 0.00, 0.00, 0.00, 0.00, 0.00, 0.00, 0.03, 0.03, 1.03
111, 0.00, 21743.06, 0.00, 0.00, 0.00, 0.00, 0.00, 0.00, 0.03, 0.03, 1.03
112, 0.00, 21766.04, 0.00, 0.00, 0.00, 0.00, 0.00, 0.00, 0.03, 0.03, 1.03
113, 0.00, 21765.12, 0.00, 0.00, 0.00, 0.00, 0.00, 0.00, 0.03, 0.03, 1.03
114, 0.00, 21753.19, 0.00, 0.00, 0.00, 0.00, 0.00, 0.00, 0.03, 0.04, 1.03
115, 0.00, 21757.99, 0.00, 0.00, 0.00, 0.00, 0.00, 0.00, 0.03, 0.04, 1.03
116, 0.00, 21767.74, 0.00, 0.00, 0.00, 0.00, 0.00, 0.00, 0.03, 0.04, 1.03
117, 0.00, 21767.71, 0.00, 0.00, 0.00, 0.00, 0.00, 0.00, 0.03, 0.04, 1.03
118, 0.00, 21766.49, 0.00, 0.00, 0.00, 0.00, 0.00, 0.00, 0.03, 0.04, 1.03
119, 0.00, 21771.78, 0.00, 0.00, 0.00, 0.00, 0.00, 0.00, 0.03, 0.03, 1.03
120, 0.00, 21759.00, 0.00, 0.00, 0.00, 0.00, 0.00, 0.00, 0.03, 0.03, 1.03
121, 0.00, 21768.21, 0.00, 0.00, 0.00, 0.00, 0.00, 0.00, 0.03, 0.03, 1.03
122, 0.00, 21793.53, 0.00, 0.00, 0.00, 0.00, 0.00, 0.00, 0.03, 0.03, 1.03
123, 0.00, 21796.93, 0.00, 0.00, 0.00, 0.00, 0.00, 0.00, 0.03, 0.03, 1.03
124, 0.00, 21783.21, 0.00, 0.00, 0.00, 0.00, 0.00, 0.00, 0.03, 0.03, 1.03
125, 0.00, 21767.47, 0.00, 0.00, 0.00, 0.00, 0.00, 0.00, 0.03, 0.03, 1.03
126, 0.00, 21764.12, 0.00, 0.00, 0.00, 0.00, 0.00, 0.00, 0.03, 0.03, 1.03
127, 0.00, 21772.63, 0.00, 0.00, 0.00, 0.00, 0.00, 0.00, 0.03, 0.03, 1.03
128, 0.00, 21796.19, 0.00, 0.00, 0.00, 0.00, 0.00, 0.00, 0.03, 0.03, 1.03
129, 0.00, 21809.38, 0.00, 0.00, 0.00, 0.00, 0.00, 0.00, 0.03, 0.03, 1.03
130, 0.00, 21812.93, 0.00, 0.00, 0.00, 0.00, 0.00, 0.00, 0.03, 0.03, 1.03
131, 0.00, 21804.82, 0.00, 0.00, 0.00, 0.00, 0.00, 0.00, 0.03, 0.03, 1.03
132, 0.00, 21792.93, 0.00, 0.00, 0.00, 0.00, 0.00, 0.00, 0.03, 0.03, 1.03
133, 0.00, 21812.04, 0.00, 0.00, 0.00, 0.00, 0.00, 0.00, 0.03, 0.03, 1.03
134, 0.00, 21799.30, 0.00, 0.00, 0.00, 0.00, 0.00, 0.00, 0.03, 0.04, 1.03
135, 0.00, 21826.90, 0.00, 0.00, 0.00, 0.00, 0.00, 0.00, 0.03, 0.04, 1.03
136, 0.00, 21822.48, 0.00, 0.00, 0.00, 0.00, 0.00, 0.00, 0.03, 0.04, 1.03
137, 0.00, 21817.74, 0.00, 0.00, 0.00, 0.00, 0.00, 0.00, 0.03, 0.04, 1.03
138, 0.00, 21810.14, 0.00, 0.00, 0.00, 0.00, 0.00, 0.00, 0.03, 0.04, 1.03
139, 0.00, 21805.76, 0.00, 0.00, 0.00, 0.00, 0.00, 0.00, 0.03, 0.03, 1.03
140, 0.00, 21824.71, 0.00, 0.00, 0.00, 0.00, 0.00, 0.00, 0.03, 0.03, 1.03
141, 0.00, 21842.08, 0.00, 0.00, 0.00, 0.00, 0.00, 0.00, 0.03, 0.03, 1.03
142, 0.00, 21806.36, 0.00, 0.00, 0.00, 0.00, 0.00, 0.00, 0.03, 0.03, 1.03
143, 0.00, 21801.82, 0.00, 0.00, 0.00, 0.00, 0.00, 0.00, 0.03, 0.03, 1.03
144, 0.00, 21811.97, 0.00, 0.00, 0.00, 0.00, 0.00, 0.00, 0.03, 0.04, 1.03
145, 0.00, 21829.72, 0.00, 0.00, 0.00, 0.00, 0.00, 0.00, 0.03, 0.04, 1.03
146, 0.00, 21836.09, 0.00, 0.00, 0.00, 0.00, 0.00, 0.00, 0.03, 0.04, 1.03
147, 0.00, 21831.71, 0.00, 0.00, 0.00, 0.00, 0.00, 0.00, 0.03, 0.04, 1.03
148, 0.00, 21837.97, 0.00, 0.00, 0.00, 0.00, 0.00, 0.00, 0.03, 0.04, 1.03
149, 0.00, 21850.51, 0.00, 0.00, 0.00, 0.00, 0.00, 0.00, 0.03, 0.03, 1.03
150, 0.00, 21867.25, 0.00, 0.00, 0.00, 0.00, 0.00, 0.00, 0.03, 0.03, 1.03
151, 0.00, 21864.43, 0.00, 0.00, 0.00, 0.00, 0.00, 0.00, 0.03, 0.03, 1.03
152, 0.00, 21863.22, 0.00, 0.00, 0.00, 0.00, 0.00, 0.00, 0.03, 0.03, 1.03
153, 0.00, 21868.28, 0.00, 0.00, 0.00, 0.00, 0.00, 0.00, 0.03, 0.03, 1.03
154, 0.00, 21889.49, 0.00, 0.00, 0.00, 0.00, 0.00, 0.00, 0.03, 0.03, 1.02
155, 0.00, 21896.42, 0.00, 0.00, 0.00, 0.00, 0.00, 0.00, 0.03, 0.03, 1.02
156, 0.00, 21898.36, 0.00, 0.00, 0.00, 0.00, 0.00, 0.00, 0.03, 0.03, 1.02
157, 0.00, 21889.53, 0.00, 0.00, 0.00, 0.00, 0.00, 0.00, 0.03, 0.03, 1.02
158, 0.00, 21892.79, 0.00, 0.00, 0.00, 0.00, 0.00, 0.00, 0.03, 0.03, 1.02
159, 0.00, 21885.64, 0.00, 0.00, 0.00, 0.00, 0.00, 0.00, 0.02, 0.03, 1.03
160, 0.00, 21883.54, 0.00, 0.00, 0.00, 0.00, 0.00, 0.00, 0.02, 0.03, 1.03
161, 0.00, 21888.35, 0.00, 0.00, 0.00, 0.00, 0.00, 0.00, 0.02, 0.03, 1.03
162, 0.00, 21871.65, 0.00, 0.00, 0.00, 0.00, 0.00, 0.00, 0.02, 0.03, 1.03
163, 0.00, 21881.93, 0.00, 0.00, 0.00, 0.00, 0.00, 0.00, 0.02, 0.03, 1.03
164, 0.00, 21889.08, 0.00, 0.00, 0.00, 0.00, 0.00, 0.00, 0.02, 0.03, 1.03
165, 0.00, 21877.66, 0.00, 0.00, 0.00, 0.00, 0.00, 0.00, 0.02, 0.03, 1.03
166, 0.00, 21892.59, 0.00, 0.00, 0.00, 0.00, 0.00, 0.00, 0.02, 0.03, 1.03
167, 0.00, 21891.83, 0.00, 0.00, 0.00, 0.00, 0.00, 0.00, 0.02, 0.03, 1.03
168, 0.00, 21876.79, 0.00, 0.00, 0.00, 0.00, 0.00, 0.00, 0.02, 0.03, 1.03
169, 0.00, 21888.50, 0.00, 0.00, 0.00, 0.00, 0.00, 0.00, 0.02, 0.03, 1.03
170, 0.00, 21922.05, 0.00, 0.00, 0.00, 0.00, 0.00, 0.00, 0.02, 0.03, 1.03
171, 0.00, 21897.47, 0.00, 0.00, 0.00, 0.00, 0.00, 0.00, 0.02, 0.03, 1.03
172, 0.00, 21883.27, 0.00, 0.00, 0.00, 0.00, 0.00, 0.00, 0.02, 0.03, 1.03
173, 0.00, 21911.73, 0.00, 0.00, 0.00, 0.00, 0.00, 0.00, 0.02, 0.03, 1.03
174, 0.00, 21918.21, 0.00, 0.00, 0.00, 0.00, 0.00, 0.00, 0.03, 0.03, 1.03
175, 0.00, 21893.38, 0.00, 0.00, 0.00, 0.00, 0.00, 0.00, 0.03, 0.03, 1.03
176, 0.00, 21881.71, 0.00, 0.00, 0.00, 0.00, 0.00, 0.00, 0.03, 0.03, 1.03
177, 0.00, 21891.39, 0.00, 0.00, 0.00, 0.00, 0.00, 0.00, 0.03, 0.03, 1.03
178, 0.00, 21898.67, 0.00, 0.00, 0.00, 0.00, 0.00, 0.00, 0.03, 0.03, 1.03
179, 0.00, 21928.94, 0.00, 0.00, 0.00, 0.00, 0.00, 0.00, 0.02, 0.04, 1.03
180, 0.00, 21944.72, 0.00, 0.00, 0.00, 0.00, 0.00, 0.00, 0.02, 0.04, 1.03
181, 0.00, 21941.50, 0.00, 0.00, 0.00, 0.00, 0.00, 0.00, 0.02, 0.04, 1.03
182, 0.00, 21931.33, 0.00, 0.00, 0.00, 0.00, 0.00, 0.00, 0.02, 0.04, 1.03
183, 0.00, 21939.55, 0.00, 0.00, 0.00, 0.00, 0.00, 0.00, 0.02, 0.04, 1.03
184, 0.00, 21939.53, 0.00, 0.00, 0.00, 0.00, 0.00, 0.00, 0.03, 0.04, 1.03
185, 0.00, 21945.46, 0.00, 0.00, 0.00, 0.00, 0.00, 0.00, 0.03, 0.04, 1.03
186, 0.00, 21974.58, 0.00, 0.00, 0.00, 0.00, 0.00, 0.00, 0.03, 0.04, 1.03
187, 0.00, 21951.11, 0.00, 0.00, 0.00, 0.00, 0.00, 0.00, 0.03, 0.04, 1.03
188, 0.00, 21944.16, 0.00, 0.00, 0.00, 0.00, 0.00, 0.00, 0.03, 0.04, 1.03
189, 0.00, 21944.21, 0.00, 0.00, 0.00, 0.00, 0.00, 0.00, 0.03, 0.04, 1.03
190, 0.00, 21950.40, 0.00, 0.00, 0.00, 0.00, 0.00, 0.00, 0.03, 0.04, 1.03
191, 0.00, 21958.49, 0.00, 0.00, 0.00, 0.00, 0.00, 0.00, 0.03, 0.04, 1.03
192, 0.00, 21969.33, 0.00, 0.00, 0.00, 0.00, 0.00, 0.00, 0.03, 0.04, 1.03
193, 0.00, 21972.95, 0.00, 0.00, 0.00, 0.00, 0.00, 0.00, 0.03, 0.04, 1.03
194, 0.00, 21991.84, 0.00, 0.00, 0.00, 0.00, 0.00, 0.00, 0.03, 0.04, 1.03
195, 0.00, 22002.97, 0.00, 0.00, 0.00, 0.00, 0.00, 0.00, 0.03, 0.04, 1.03
196, 0.00, 21995.35, 0.00, 0.00, 0.00, 0.00, 0.00, 0.00, 0.03, 0.04, 1.03
197, 0.00, 21976.82, 0.00, 0.00, 0.00, 0.00, 0.00, 0.00, 0.03, 0.04, 1.03
198, 0.00, 21985.04, 0.00, 0.00, 0.00, 0.00, 0.00, 0.00, 0.03, 0.04, 1.03
199, 0.00, 22003.15, 0.00, 0.00, 0.00, 0.00, 0.00, 0.00, 0.03, 0.04, 1.03
200, 0.00, 21997.85, 0.00, 0.00, 0.00, 0.00, 0.00, 0.00, 0.03, 0.04, 1.03
201, 0.00, 21994.65, 0.00, 0.00, 0.00, 0.00, 0.00, 0.00, 0.03, 0.04, 1.03
202, 0.00, 21987.25, 0.00, 0.00, 0.00, 0.00, 0.00, 0.00, 0.03, 0.04, 1.03
203, 0.00, 22010.21, 0.00, 0.00, 0.00, 0.00, 0.00, 0.00, 0.03, 0.04, 1.03
204, 0.00, 22023.64, 0.00, 0.00, 0.00, 0.00, 0.00, 0.00, 0.03, 0.03, 1.03
205, 0.00, 22011.10, 0.00, 0.00, 0.00, 0.00, 0.00, 0.00, 0.03, 0.03, 1.03
206, 0.00, 22012.80, 0.00, 0.00, 0.00, 0.00, 0.00, 0.00, 0.03, 0.03, 1.03
207, 0.00, 22003.82, 0.00, 0.00, 0.00, 0.00, 0.00, 0.00, 0.03, 0.03, 1.03
208, 0.00, 22019.78, 0.00, 0.00, 0.00, 0.00, 0.00, 0.00, 0.03, 0.03, 1.03
209, 0.00, 22026.77, 0.00, 0.00, 0.00, 0.00, 0.00, 0.00, 0.03, 0.03, 1.03
210, 0.00, 22029.21, 0.00, 0.00, 0.00, 0.00, 0.00, 0.00, 0.03, 0.03, 1.03
211, 0.00, 22024.71, 0.00, 0.00, 0.00, 0.00, 0.00, 0.00, 0.03, 0.03, 1.03
212, 0.00, 22043.83, 0.00, 0.00, 0.00, 0.00, 0.00, 0.00, 0.03, 0.03, 1.03
213, 0.00, 22046.08, 0.00, 0.00, 0.00, 0.00, 0.00, 0.00, 0.03, 0.03, 1.03
214, 0.00, 22042.13, 0.00, 0.00, 0.00, 0.00, 0.00, 0.00, 0.03, 0.03, 1.03
215, 0.00, 22030.86, 0.00, 0.00, 0.00, 0.00, 0.00, 0.00, 0.03, 0.03, 1.03
216, 0.00, 22036.76, 0.00, 0.00, 0.00, 0.00, 0.00, 0.00, 0.03, 0.03, 1.03
217, 0.00, 22030.68, 0.00, 0.00, 0.00, 0.00, 0.00, 0.00, 0.03, 0.03, 1.03
218, 0.00, 22029.72, 0.00, 0.00, 0.00, 0.00, 0.00, 0.00, 0.03, 0.03, 1.03
219, 0.00, 22041.12, 0.00, 0.00, 0.00, 0.00, 0.00, 0.00, 0.02, 0.03, 1.04
220, 0.00, 22039.67, 0.00, 0.00, 0.00, 0.00, 0.00, 0.00, 0.02, 0.03, 1.04
221, 0.00, 22039.51, 0.00, 0.00, 0.00, 0.00, 0.00, 0.00, 0.02, 0.03, 1.04
222, 0.00, 22045.99, 0.00, 0.00, 0.00, 0.00, 0.00, 0.00, 0.02, 0.03, 1.04
223, 0.00, 22043.69, 0.00, 0.00, 0.00, 0.00, 0.00, 0.00, 0.02, 0.03, 1.04
224, 0.00, 22044.23, 0.00, 0.00, 0.00, 0.00, 0.00, 0.00, 0.02, 0.03, 1.03
225, 0.00, 22056.16, 0.00, 0.00, 0.00, 0.00, 0.00, 0.00, 0.02, 0.03, 1.03
226, 0.00, 22060.61, 0.00, 0.00, 0.00, 0.00, 0.00, 0.00, 0.02, 0.03, 1.03
227, 0.00, 22054.44, 0.00, 0.00, 0.00, 0.00, 0.00, 0.00, 0.02, 0.03, 1.03
228, 0.00, 22069.98, 0.00, 0.00, 0.00, 0.00, 0.00, 0.00, 0.02, 0.03, 1.03
229, 0.00, 22076.30, 0.00, 0.00, 0.00, 0.00, 0.00, 0.00, 0.02, 0.03, 1.04
230, 0.00, 22071.86, 0.00, 0.00, 0.00, 0.00, 0.00, 0.00, 0.02, 0.03, 1.04
231, 0.00, 22069.98, 0.00, 0.00, 0.00, 0.00, 0.00, 0.00, 0.02, 0.03, 1.04
232, 0.00, 22072.03, 0.00, 0.00, 0.00, 0.00, 0.00, 0.00, 0.02, 0.03, 1.04
233, 0.00, 22087.93, 0.00, 0.00, 0.00, 0.00, 0.00, 0.00, 0.02, 0.03, 1.04
234, 0.00, 22098.16, 0.00, 0.00, 0.00, 0.00, 0.00, 0.00, 0.03, 0.03, 1.04
235, 0.00, 22089.24, 0.00, 0.00, 0.00, 0.00, 0.00, 0.00, 0.03, 0.03, 1.04
236, 0.00, 22081.53, 0.00, 0.00, 0.00, 0.00, 0.00, 0.00, 0.03, 0.03, 1.04
237, 0.00, 22100.98, 0.00, 0.00, 0.00, 0.00, 0.00, 0.00, 0.03, 0.03, 1.04
238, 0.00, 22104.44, 0.00, 0.00, 0.00, 0.00, 0.00, 0.00, 0.03, 0.03, 1.04
239, 0.00, 22076.46, 0.00, 0.00, 0.00, 0.00, 0.00, 0.00, 0.02, 0.03, 1.04
240, 0.00, 22071.86, 0.00, 0.00, 0.00, 0.00, 0.00, 0.00, 0.02, 0.03, 1.04
241, 0.00, 22073.82, 0.00, 0.00, 0.00, 0.00, 0.00, 0.00, 0.02, 0.03, 1.04
242, 0.00, 22115.33, 0.00, 0.00, 0.00, 0.00, 0.00, 0.00, 0.02, 0.03, 1.04
243, 0.00, 22122.71, 0.00, 0.00, 0.00, 0.00, 0.00, 0.00, 0.02, 0.03, 1.04
244, 0.00, 22103.39, 0.00, 0.00, 0.00, 0.00, 0.00, 0.00, 0.02, 0.03, 1.04
245, 0.00, 22119.53, 0.00, 0.00, 0.00, 0.00, 0.00, 0.00, 0.02, 0.03, 1.04
246, 0.00, 22125.03, 0.00, 0.00, 0.00, 0.00, 0.00, 0.00, 0.02, 0.03, 1.04
247, 0.00, 22101.81, 0.00, 0.00, 0.00, 0.00, 0.00, 0.00, 0.02, 0.03, 1.04
248, 0.00, 22097.09, 0.00, 0.00, 0.00, 0.00, 0.00, 0.00, 0.02, 0.03, 1.04
249, 0.00, 22124.40, 0.00, 0.00, 0.00, 0.00, 0.00, 0.00, 0.03, 0.03, 1.03
250, 0.00, 22137.90, 0.00, 0.00, 0.00, 0.00, 0.00, 0.00, 0.03, 0.03, 1.03
251, 0.00, 22138.35, 0.00, 0.00, 0.00, 0.00, 0.00, 0.00, 0.03, 0.03, 1.03
252, 0.00, 22130.53, 0.00, 0.00, 0.00, 0.00, 0.00, 0.00, 0.03, 0.03, 1.03
253, 0.00, 22130.33, 0.00, 0.00, 0.00, 0.00, 0.00, 0.00, 0.03, 0.03, 1.03
254, 0.00, 22129.48, 0.00, 0.00, 0.00, 0.00, 0.00, 0.00, 0.03, 0.03, 1.03
255, 0.00, 22148.03, 0.00, 0.00, 0.00, 0.00, 0.00, 0.00, 0.03, 0.02, 1.04
0, 0.00, 22146.09, 0.00, 0.00, 0.00, 0.00, 0.00, 0.00, 0.03, 0.02, 1.04
1, 0.00, 22116.92, 0.00, 0.00, 0.00, 0.00, 0.00, 0.00, 0.03, 0.02, 1.04
2, 0.00, 22146.24, 0.00, 0.00, 0.00, 0.00, 0.00, 0.00, 0.03, 0.02, 1.04
3, 0.00, 22148.01, 0.00, 0.00, 0.00, 0.00, 0.00, 0.00, 0.03, 0.02, 1.04
4, 0.00, 22162.76, 0.00, 0.00, 0.00, 0.00, 0.00, 0.00, 0.03, 0.03, 1.04
5, 0.00, 22164.06, 0.00, 0.00, 0.00, 0.00, 0.00, 0.00, 0.03, 0.03, 1.04
6, 0.00, 22156.66, 0.00, 0.00, 0.00, 0.00, 0.00, 0.00, 0.03, 0.03, 1.04
7, 0.00, 22154.02, 0.00, 0.00, 0.00, 0.00, 0.00, 0.00, 0.03, 0.03, 1.04
8, 0.00, 22167.36, 0.00, 0.00, 0.00, 0.00, 0.00, 0.00, 0.03, 0.03, 1.04
9, 0.00, 22187.62, 0.00, 0.00, 0.00, 0.00, 0.00, 0.00, 0.03, 0.03, 1.03
10, 0.00, 22147.14, 0.00, 0.00, 0.00, 0.00, 0.00, 0.00, 0.03, 0.03, 1.03
11, 0.00, 22145.46, 0.00, 0.00, 0.00, 0.00, 0.00, 0.00, 0.03, 0.03, 1.03
12, 0.00, 22143.16, 0.00, 0.00, 0.00, 0.00, 0.00, 0.00, 0.03, 0.03, 1.03
13, 0.00, 22152.68, 0.00, 0.00, 0.00, 0.00, 0.00, 0.00, 0.03, 0.03, 1.03
14, 0.00, 22171.16, 0.00, 0.00, 0.00, 0.00, 0.00, 0.00, 0.03, 0.03, 1.03
15, 0.00, 22192.13, 0.00, 0.00, 0.00, 0.00, 0.00, 0.00, 0.03, 0.03, 1.03
16, 0.00, 22179.70, 0.00, 0.00, 0.00, 0.00, 0.00, 0.00, 0.03, 0.03, 1.03
17, 0.00, 22171.66, 0.00, 0.00, 0.00, 0.00, 0.00, 0.00, 0.03, 0.03, 1.03
18, 0.00, 22160.26, 0.00, 0.00, 0.00, 0.00, 0.00, 0.00, 0.03, 0.03, 1.03
19, 0.00, 22158.42, 0.00, 0.00, 0.00, 0.00, 0.00, 0.00, 0.03, 0.03, 1.03
20, 0.00, 22167.63, 0.00, 0.00, 0.00, 0.00, 0.00, 0.00, 0.03, 0.03, 1.03
21, 0.00, 22183.86, 0.00, 0.00, 0.00, 0.00, 0.00, 0.00, 0.03, 0.03, 1.03
22, 0.00, 22201.47, 0.00, 0.00, 0.00, 0.00, 0.00, 0.00, 0.03, 0.03, 1.03
23, 0.00, 22198.77, 0.00, 0.00, 0.00, 0.00, 0.00, 0.00, 0.03, 0.03, 1.03
24, 0.00, 22191.88, 0.00, 0.00, 0.00, 0.00, 0.00, 0.00, 0.04, 0.03, 1.03
25, 0.00, 22182.21, 0.00, 0.00, 0.00, 0.00, 0.00, 0.00, 0.04, 0.03, 1.03
26, 0.00, 22165.46, 0.00, 0.00, 0.00, 0.00, 0.00, 0.00, 0.04, 0.03, 1.03
27, 0.00, 22174.34, 0.00, 0.00, 0.00, 0.00, 0.00, 0.00, 0.04, 0.03, 1.03
28, 0.00, 22190.65, 0.00, 0.00, 0.00, 0.00, 0.00, 0.00, 0.04, 0.03, 1.03
29, 0.00, 22183.68, 0.00, 0.00, 0.00, 0.00, 0.00, 0.00, 0.03, 0.03, 1.03
30, 0.00, 22202.68, 0.00, 0.00, 0.00, 0.00, 0.00, 0.00, 0.03, 0.03, 1.03
31, 0.00, 22213.45, 0.00, 0.00, 0.00, 0.00, 0.00, 0.00, 0.03, 0.03, 1.03
32, 0.00, 22221.84, 0.00, 0.00, 0.00, 0.00, 0.00, 0.00, 0.03, 0.03, 1.03
33, 0.00, 22226.75, 0.00, 0.00, 0.00, 0.00, 0.00, 0.00, 0.03, 0.03, 1.03
34, 0.00, 22200.18, 0.00, 0.00, 0.00, 0.00, 0.00, 0.00, 0.03, 0.03, 1.03
35, 0.00, 22182.81, 0.00, 0.00, 0.00, 0.00, 0.00, 0.00, 0.03, 0.03, 1.03
36, 0.00, 22219.35, 0.00, 0.00, 0.00, 0.00, 0.00, 0.00, 0.03, 0.03, 1.03
37, 0.00, 22215.13, 0.00, 0.00, 0.00, 0.00, 0.00, 0.00, 0.03, 0.03, 1.03
38, 0.00, 22213.07, 0.00, 0.00, 0.00, 0.00, 0.00, 0.00, 0.03, 0.03, 1.03
39, 0.00, 22218.10, 0.00, 0.00, 0.00, 0.00, 0.00, 0.00, 0.03, 0.03, 1.03
40, 0.00, 22211.55, 0.00, 0.00, 0.00, 0.00, 0.00, 0.00, 0.03, 0.03, 1.03
41, 0.00, 22206.26, 0.00, 0.00, 0.00, 0.00, 0.00, 0.00, 0.03, 0.03, 1.03
42, 0.00, 22231.92, 0.00, 0.00, 0.00, 0.00, 0.00, 0.00, 0.03, 0.03, 1.03
43, 0.00, 22239.56, 0.00, 0.00, 0.00, 0.00, 0.00, 0.00, 0.03, 0.03, 1.03
44, 0.00, 22228.21, 0.00, 0.00, 0.00, 0.00, 0.00, 0.00, 0.03, 0.03, 1.03
45, 0.00, 22226.02, 0.00, 0.00, 0.00, 0.00, 0.00, 0.00, 0.03, 0.03, 1.03
46, 0.00, 22223.96, 0.00, 0.00, 0.00, 0.00, 0.00, 0.00, 0.03, 0.03, 1.03
47, 0.00, 22229.55, 0.00, 0.00, 0.00, 0.00, 0.00, 0.00, 0.03, 0.03, 1.03
48, 0.00, 22250.07, 0.00, 0.00, 0.00, 0.00, 0.00, 0.00, 0.03, 0.03, 1.03
49, 0.00, 22247.45, 0.00, 0.00, 0.00, 0.00, 0.00, 0.00, 0.03, 0.03, 1.03
50, 0.00, 22244.81, 0.00, 0.00, 0.00, 0.00, 0.00, 0.00, 0.03, 0.03, 1.03
51, 0.00, 22250.80, 0.00, 0.00, 0.00, 0.00, 0.00, 0.00, 0.03, 0.03, 1.03
52, 0.00, 22262.52, 0.00, 0.00, 0.00, 0.00, 0.00, 0.00, 0.03, 0.03, 1.03
53, 0.00, 22251.36, 0.00, 0.00, 0.00, 0.00, 0.00, 0.00, 0.03, 0.03, 1.03
54, 0.00, 22260.84, 0.00, 0.00, 0.00, 0.00, 0.00, 0.00, 0.03, 0.03, 1.03
55, 0.00, 22254.40, 0.00, 0.00, 0.00, 0.00, 0.00, 0.00, 0.03, 0.03, 1.03
56, 0.00, 22246.47, 0.00, 0.00, 0.00, 0.00, 0.00, 0.00, 0.03, 0.03, 1.03
57, 0.00, 22259.74, 0.00, 0.00, 0.00, 0.00, 0.00, 0.00, 0.03, 0.03, 1.03
58, 0.00, 22258.96, 0.00, 0.00, 0.00, 0.00, 0.00, 0.00, 0.03, 0.03, 1.03
59, 0.00, 22258.38, 0.00, 0.00, 0.00, 0.00, 0.00, 0.00, 0.03, 0.03, 1.02
60, 0.00, 22267.46, 0.00, 0.00, 0.00, 0.00, 0.00, 0.00, 0.03, 0.03, 1.02
61, 0.00, 22295.48, 0.00, 0.00, 0.00, 0.00, 0.00, 0.00, 0.03, 0.03, 1.02
62, 0.00, 22285.40, 0.00, 0.00, 0.00, 0.00, 0.00, 0.00, 0.03, 0.03, 1.02
63, 0.00, 22267.90, 0.00, 0.00, 0.00, 0.00, 0.00, 0.00, 0.03, 0.03, 1.02
64, 0.00, 22263.97, 0.00, 0.00, 0.00, 0.00, 0.00, 0.00, 0.03, 0.03, 1.02
65, 0.00, 22269.65, 0.00, 0.00, 0.00, 0.00, 0.00, 0.00, 0.03, 0.03, 1.02
66, 0.00, 22263.34, 0.00, 0.00, 0.00, 0.00, 0.00, 0.00, 0.03, 0.03, 1.02
67, 0.00, 22276.20, 0.00, 0.00, 0.00, 0.00, 0.00, 0.00, 0.03, 0.03, 1.02
68, 0.00, 22290.25, 0.00, 0.00, 0.00, 0.00, 0.00, 0.00, 0.03, 0.03, 1.02
69, 0.00, 22268.91, 0.00, 0.00, 0.00, 0.00, 0.00, 0.00, 0.03, 0.03, 1.02
70, 0.00, 22262.54, 0.00, 0.00, 0.00, 0.00, 0.00, 0.00, 0.03, 0.03, 1.02
71, 0.00, 22282.36, 0.00, 0.00, 0.00, 0.00, 0.00, 0.00, 0.03, 0.03, 1.02
72, 0.00, 22276.31, 0.00, 0.00, 0.00, 0.00, 0.00, 0.00, 0.03, 0.03, 1.02
73, 0.00, 22295.53, 0.00, 0.00, 0.00, 0.00, 0.00, 0.00, 0.03, 0.03, 1.02
74, 0.00, 22310.64, 0.00, 0.00, 0.00, 0.00, 0.00, 0.00, 0.03, 0.03, 1.04
75, 0.00, 22329.24, 0.00, 0.00, 0.00, 0.00, 0.00, 0.00, 0.03, 0.03, 1.04
76, 0.00, 22331.13, 0.00, 0.00, 0.00, 0.00, 0.00, 0.00, 0.03, 0.03, 1.04
77, 0.00, 22307.85, 0.00, 0.00, 0.00, 0.00, 0.00, 0.00, 0.03, 0.03, 1.04
78, 0.00, 22299.20, 0.00, 0.00, 0.00, 0.00, 0.00, 0.00, 0.03, 0.03, 1.04
79, 0.00, 22310.91, 0.00, 0.00, 0.00, 0.00, 0.00, 0.00, 0.03, 0.03, 1.03
80, 0.00, 22314.04, 0.00, 0.00, 0.00, 0.00, 0.00, 0.00, 0.03, 0.03, 1.03
81, 0.00, 22331.31, 0.00, 0.00, 0.00, 0.00, 0.00, 0.00, 0.03, 0.03, 1.03
82, 0.00, 22339.74, 0.00, 0.00, 0.00, 0.00, 0.00, 0.00, 0.03, 0.03, 1.03
83, 0.00, 22334.89, 0.00, 0.00, 0.00, 0.00, 0.00, 0.00, 0.03, 0.03, 1.03
84, 0.00, 22330.78, 0.00, 0.00, 0.00, 0.00, 0.00, 0.00, 0.03, 0.03, 1.03
85, 0.00, 22349.20, 0.00, 0.00, 0.00, 0.00, 0.00, 0.00, 0.03, 0.03, 1.03
86, 0.00, 22349.35, 0.00, 0.00, 0.00, 0.00, 0.00, 0.00, 0.03, 0.03, 1.03
87, 0.00, 22318.69, 0.00, 0.00, 0.00, 0.00, 0.00, 0.00, 0.03, 0.03, 1.03
88, 0.00, 22311.42, 0.00, 0.00, 0.00, 0.00, 0.00, 0.00, 0.03, 0.03, 1.03
89, 0.00, 22341.37, 0.00, 0.00, 0.00, 0.00, 0.00, 0.00, 0.03, 0.03, 1.04
90, 0.00, 22354.29, 0.00, 0.00, 0.00, 0.00, 0.00, 0.00, 0.03, 0.03, 1.04
91, 0.00, 22336.68, 0.00, 0.00, 0.00, 0.00, 0.00, 0.00, 0.03, 0.03, 1.04
92, 0.00, 22339.16, 0.00, 0.00, 0.00, 0.00, 0.00, 0.00, 0.03, 0.03, 1.04
93, 0.00, 22344.68, 0.00, 0.00, 0.00, 0.00, 0.00, 0.00, 0.03, 0.03, 1.04
94, 0.00, 22350.94, 0.00, 0.00, 0.00, 0.00, 0.00, 0.00, 0.03, 0.04, 1.03
95, 0.00, 22350.87, 0.00, 0.00, 0.00, 0.00, 0.00, 0.00, 0.03, 0.04, 1.03
96, 0.00, 22348.26, 0.00, 0.00, 0.00, 0.00, 0.00, 0.00, 0.03, 0.04, 1.03
97, 0.00, 22342.67, 0.00, 0.00, 0.00, 0.00, 0.00, 0.00, 0.03, 0.04, 1.03
98, 0.00, 22369.49, 0.00, 0.00, 0.00, 0.00, 0.00, 0.00, 0.03, 0.04, 1.03
99, 0.00, 22363.10, 0.00, 0.00, 0.00, 0.00, 0.00, 0.00, 0.03, 0.03, 1.03
100, 0.00, 22365.85, 0.00, 0.00, 0.00, 0.00, 0.00, 0.00, 0.03, 0.03, 1.03
101, 0.00, 22378.63, 0.00, 0.00, 0.00, 0.00, 0.00, 0.00, 0.03, 0.03, 1.03
102, 0.00, 22384.40, 0.00, 0.00, 0.00, 0.00, 0.00, 0.00, 0.03, 0.03, 1.03
103, 0.00, 22373.34, 0.00, 0.00, 0.00, 0.00, 0.00, 0.00, 0.03, 0.03, 1.03
104, 0.00, 22369.20, 0.00, 0.00, 0.00, 0.00, 0.00, 0.00, 0.03, 0.04, 1.03
105, 0.00, 22377.18, 0.00, 0.00, 0.00, 0.00, 0.00, 0.00, 0.03, 0.04, 1.03
106, 0.00, 22397.65, 0.00, 0.00, 0.00, 0.00, 0.00, 0.00, 0.03, 0.04, 1.03
107, 0.00, 22417.39, 0.00, 0.00, 0.00, 0.00, 0.00, 0.00, 0.03, 0.04, 1.03
108, 0.00, 22423.67, 0.00, 0.00, 0.00, 0.00, 0.00, 0.00, 0.03, 0.04, 1.03
109, 0.00, 22425.41, 0.00, 0.00, 0.00, 0.00, 0.00, 0.00, 0.03, 0.03, 1.03
110, 0.00, 22413.39, 0.00, 0.00, 0.00, 0.00, 0.00, 0.00, 0.03, 0.03, 1.03
111, 0.00, 22406.84, 0.00, 0.00, 0.00, 0.00, 0.00, 0.00, 0.03, 0.03, 1.03
112, 0.00, 22421.01, 0.00, 0.00, 0.00, 0.00, 0.00, 0.00, 0.03, 0.03, 1.03
113, 0.00, 22438.16, 0.00, 0.00, 0.00, 0.00, 0.00, 0.00, 0.03, 0.03, 1.03
114, 0.00, 22438.00, 0.00, 0.00, 0.00, 0.00, 0.00, 0.00, 0.03, 0.03, 1.03
115, 0.00, 22441.35, 0.00, 0.00, 0.00, 0.00, 0.00, 0.00, 0.03, 0.03, 1.03
116, 0.00, 22437.89, 0.00, 0.00, 0.00, 0.00, 0.00, 0.00, 0.03, 0.03, 1.03
117, 0.00, 22440.88, 0.00, 0.00, 0.00, 0.00, 0.00, 0.00, 0.03, 0.03, 1.03
118, 0.00, 22445.71, 0.00, 0.00, 0.00, 0.00, 0.00, 0.00, 0.03, 0.03, 1.03
119, 0.00, 22447.77, 0.00, 0.00, 0.00, 0.00, 0.00, 0.00, 0.03, 0.04, 1.03
120, 0.00, 22460.37, 0.00, 0.00, 0.00, 0.00, 0.00, 0.00, 0.03, 0.04, 1.03
121, 0.00, 22467.59, 0.00, 0.00, 0.00, 0.00, 0.00, 0.00, 0.03, 0.04, 1.03
122, 0.00, 22469.07, 0.00, 0.00, 0.00, 0.00, 0.00, 0.00, 0.03, 0.04, 1.03
123, 0.00, 22476.73, 0.00, 0.00, 0.00, 0.00, 0.00, 0.00, 0.03, 0.04, 1.03
124, 0.00, 22474.03, 0.00, 0.00, 0.00, 0.00, 0.00, 0.00, 0.02, 0.03, 1.03
125, 0.00, 22477.49, 0.00, 0.00, 0.00, 0.00, 0.00, 0.00, 0.02, 0.03, 1.03
126, 0.00, 22475.66, 0.00, 0.00, 0.00, 0.00, 0.00, 0.00, 0.02, 0.03, 1.03
127, 0.00, 22469.04, 0.00, 0.00, 0.00, 0.00, 0.00, 0.00, 0.02, 0.03, 1.03
128, 0.00, 22488.38, 0.00, 0.00, 0.00, 0.00, 0.00, 0.00, 0.02, 0.03, 1.03
129, 0.00, 22495.51, 0.00, 0.00, 0.00, 0.00, 0.00, 0.00, 0.03, 0.03, 1.03
130, 0.00, 22517.68, 0.00, 0.00, 0.00, 0.00, 0.00, 0.00, 0.03, 0.03, 1.03
131, 0.00, 22501.95, 0.00, 0.00, 0.00, 0.00, 0.00, 0.00, 0.03, 0.03, 1.03
132, 0.00, 22491.69, 0.00, 0.00, 0.00, 0.00, 0.00, 0.00, 0.03, 0.03, 1.03
133, 0.00, 22485.47, 0.00, 0.00, 0.00, 0.00, 0.00, 0.00, 0.03, 0.03, 1.03
134, 0.00, 22482.26, 0.00, 0.00, 0.00, 0.00, 0.00, 0.00, 0.03, 0.03, 1.03
135, 0.00, 22515.60, 0.00, 0.00, 0.00, 0.00, 0.00, 0.00, 0.03, 0.03, 1.03
136, 0.00, 22536.57, 0.00, 0.00, 0.00, 0.00, 0.00, 0.00, 0.03, 0.03, 1.03
137, 0.00, 22511.11, 0.00, 0.00, 0.00, 0.00, 0.00, 0.00, 0.03, 0.03, 1.03
138, 0.00, 22500.74, 0.00, 0.00, 0.00, 0.00, 0.00, 0.00, 0.03, 0.03, 1.03
139, 0.00, 22520.16, 0.00, 0.00, 0.00, 0.00, 0.00, 0.00, 0.03, 0.03, 1.03
140, 0.00, 22519.90, 0.00, 0.00, 0.00, 0.00, 0.00, 0.00, 0.03, 0.03, 1.03
141, 0.00, 22523.49, 0.00, 0.00, 0.00, 0.00, 0.00, 0.00, 0.03, 0.03, 1.03
142, 0.00, 22519.96, 0.00, 0.00, 0.00, 0.00, 0.00, 0.00, 0.03, 0.03, 1.03
143, 0.00, 22533.20, 0.00, 0.00, 0.00, 0.00, 0.00, 0.00, 0.03, 0.03, 1.03
144, 0.00, 22542.11, 0.00, 0.00, 0.00, 0.00, 0.00, 0.00, 0.02, 0.03, 1.04
145, 0.00, 22530.47, 0.00, 0.00, 0.00, 0.00, 0.00, 0.00, 0.02, 0.03, 1.04
146, 0.00, 22535.43, 0.00, 0.00, 0.00, 0.00, 0.00, 0.00, 0.02, 0.03, 1.04
147, 0.00, 22532.44, 0.00, 0.00, 0.00, 0.00, 0.00, 0.00, 0.02, 0.03, 1.04
148, 0.00, 22535.97, 0.00, 0.00, 0.00, 0.00, 0.00, 0.00, 0.02, 0.03, 1.04
149, 0.00, 22558.07, 0.00, 0.00, 0.00, 0.00, 0.00, 0.00, 0.02, 0.03, 1.03
150, 0.00, 22555.12, 0.00, 0.00, 0.00, 0.00, 0.00, 0.00, 0.02, 0.03, 1.03
151, 0.00, 22554.81, 0.00, 0.00, 0.00, 0.00, 0.00, 0.00, 0.02, 0.03, 1.03
152, 0.00, 22560.67, 0.00, 0.00, 0.00, 0.00, 0.00, 0.00, 0.02, 0.03, 1.03
153, 0.00, 22552.26, 0.00, 0.00, 0.00, 0.00, 0.00, 0.00, 0.02, 0.03, 1.03
154, 0.00, 22553.00, 0.00, 0.00, 0.00, 0.00, 0.00, 0.00, 0.03, 0.03, 1.03
155, 0.00, 22570.12, 0.00, 0.00, 0.00, 0.00, 0.00, 0.00, 0.03, 0.03, 1.03
156, 0.00, 22562.72, 0.00, 0.00, 0.00, 0.00, 0.00, 0.00, 0.03, 0.03, 1.03
157, 0.00, 22572.29, 0.00, 0.00, 0.00, 0.00, 0.00, 0.00, 0.03, 0.03, 1.03
158, 0.00, 22567.95, 0.00, 0.00, 0.00, 0.00, 0.00, 0.00, 0.03, 0.03, 1.03
159, 0.00, 22571.95, 0.00, 0.00, 0.00, 0.00, 0.00, 0.00, 0.02, 0.03, 1.03
160, 0.00, 22565.96, 0.00, 0.00, 0.00, 0.00, 0.00, 0.00, 0.02, 0.03, 1.03
161, 0.00, 22578.30, 0.00, 0.00, 0.00, 0.00, 0.00, 0.00, 0.02, 0.03, 1.03
162, 0.00, 22589.16, 0.00, 0.00, 0.00, 0.00, 0.00, 0.00, 0.02, 0.03, 1.03
163, 0.00, 22589.59, 0.00, 0.00, 0.00, 0.00, 0.00, 0.00, 0.02, 0.03, 1.03
164, 0.00, 22578.19, 0.00, 0.00, 0.00, 0.00, 0.00, 0.00, 0.02, 0.03, 1.04
165, 0.00, 22580.74, 0.00, 0.00, 0.00, 0.00, 0.00, 0.00, 0.02, 0.03, 1.04
166, 0.00, 22589.54, 0.00, 0.00, 0.00, 0.00, 0.00, 0.00, 0.02, 0.03, 1.04
167, 0.00, 22571.44, 0.00, 0.00, 0.00, 0.00, 0.00, 0.00, 0.02, 0.03, 1.04
168, 0.00, 22603.45, 0.00, 0.00, 0.00, 0.00, 0.00, 0.00, 0.02, 0.03, 1.04
169, 0.00, 22617.82, 0.00, 0.00, 0.00, 0.00, 0.00, 0.00, 0.02, 0.03, 1.03
170, 0.00, 22616.41, 0.00, 0.00, 0.00, 0.00, 0.00, 0.00, 0.02, 0.03, 1.03
171, 0.00, 22616.97, 0.00, 0.00, 0.00, 0.00, 0.00, 0.00, 0.02, 0.03, 1.03
172, 0.00, 22619.65, 0.00, 0.00, 0.00, 0.00, 0.00, 0.00, 0.02, 0.03, 1.03
173, 0.00, 22630.54, 0.00, 0.00, 0.00, 0.00, 0.00, 0.00, 0.02, 0.03, 1.03
174, 0.00, 22621.11, 0.00, 0.00, 0.00, 0.00, 0.00, 0.00, 0.02, 0.03, 1.03
175, 0.00, 22624.30, 0.00, 0.00, 0.00, 0.00, 0.00, 0.00, 0.02, 0.03, 1.04
176, 0.00, 22612.86, 0.00, 0.00, 0.00, 0.00, 0.00, 0.00, 0.02, 0.03, 1.04
177, 0.00, 22621.33, 0.00, 0.00, 0.00, 0.00, 0.00, 0.00, 0.02, 0.03, 1.04
178, 0.00, 22627.03, 0.00, 0.00, 0.00, 0.00, 0.00, 0.00, 0.02, 0.03, 1.04
179, 0.00, 22625.31, 0.00, 0.00, 0.00, 0.00, 0.00, 0.00, 0.02, 0.03, 1.04
180, 0.00, 22630.27, 0.00, 0.00, 0.00, 0.00, 0.00, 0.00, 0.02, 0.03, 1.04
181, 0.00, 22646.23, 0.00, 0.00, 0.00, 0.00, 0.00, 0.00, 0.02, 0.03, 1.04
182, 0.00, 22653.96, 0.00, 0.00, 0.00, 0.00, 0.00, 0.00, 0.02, 0.03, 1.04
183, 0.00, 22646.43, 0.00, 0.00, 0.00, 0.00, 0.00, 0.00, 0.02, 0.03, 1.04
184, 0.00, 22632.95, 0.00, 0.00, 0.00, 0.00, 0.00, 0.00, 0.02, 0.03, 1.04
185, 0.00, 22637.71, 0.00, 0.00, 0.00, 0.00, 0.00, 0.00, 0.02, 0.03, 1.03
186, 0.00, 22647.97, 0.00, 0.00, 0.00, 0.00, 0.00, 0.00, 0.02, 0.03, 1.03
187, 0.00, 22653.45, 0.00, 0.00, 0.00, 0.00, 0.00, 0.00, 0.02, 0.03, 1.03
188, 0.00, 22655.35, 0.00, 0.00, 0.00, 0.00, 0.00, 0.00, 0.02, 0.03, 1.03
189, 0.00, 22657.45, 0.00, 0.00, 0.00, 0.00, 0.00, 0.00, 0.02, 0.03, 1.03
190, 0.00, 22663.57, 0.00, 0.00, 0.00, 0.00, 0.00, 0.00, 0.03, 0.02, 1.04
191, 0.00, 22653.92, 0.00, 0.00, 0.00, 0.00, 0.00, 0.00, 0.03, 0.02, 1.04
192, 0.00, 22656.26, 0.00, 0.00, 0.00, 0.00, 0.00, 0.00, 0.03, 0.02, 1.04
193, 0.00, 22669.88, 0.00, 0.00, 0.00, 0.00, 0.00, 0.00, 0.03, 0.02, 1.04
194, 0.00, 22662.28, 0.00, 0.00, 0.00, 0.00, 0.00, 0.00, 0.03, 0.02, 1.04
195, 0.00, 22686.19, 0.00, 0.00, 0.00, 0.00, 0.00, 0.00, 0.02, 0.03, 1.04
196, 0.00, 22678.77, 0.00, 0.00, 0.00, 0.00, 0.00, 0.00, 0.02, 0.03, 1.04
197, 0.00, 22675.31, 0.00, 0.00, 0.00, 0.00, 0.00, 0.00, 0.02, 0.03, 1.04
198, 0.00, 22682.10, 0.00, 0.00, 0.00, 0.00, 0.00, 0.00, 0.02, 0.03, 1.04
199, 0.00, 22691.74, 0.00, 0.00, 0.00, 0.00, 0.00, 0.00, 0.02, 0.03, 1.04
200, 0.00, 22690.28, 0.00, 0.00, 0.00, 0.00, 0.00, 0.00, 0.02, 0.03, 1.04
201, 0.00, 22688.38, 0.00, 0.00, 0.00, 0.00, 0.00, 0.00, 0.02, 0.03, 1.04
202, 0.00, 22695.20, 0.00, 0.00, 0.00, 0.00, 0.00, 0.00, 0.02, 0.03, 1.04
203, 0.00, 22706.00, 0.00, 0.00, 0.00, 0.00, 0.00, 0.00, 0.02, 0.03, 1.04
204, 0.00, 22695.07, 0.00, 0.00, 0.00, 0.00, 0.00, 0.00, 0.02, 0.03, 1.04
205, 0.00, 22689.50, 0.00, 0.00, 0.00, 0.00, 0.00, 0.00, 0.02, 0.03, 1.04
206, 0.00, 22703.69, 0.00, 0.00, 0.00, 0.00, 0.00, 0.00, 0.02, 0.03, 1.04
207, 0.00, 22720.50, 0.00, 0.00, 0.00, 0.00, 0.00, 0.00, 0.02, 0.03, 1.04
208, 0.00, 22711.67, 0.00, 0.00, 0.00, 0.00, 0.00, 0.00, 0.02, 0.03, 1.04
209, 0.00, 22694.35, 0.00, 0.00, 0.00, 0.00, 0.00, 0.00, 0.02, 0.03, 1.04
210, 0.00, 22695.63, 0.00, 0.00, 0.00, 0.00, 0.00, 0.00, 0.03, 0.03, 1.03
211, 0.00, 22683.04, 0.00, 0.00, 0.00, 0.00, 0.00, 0.00, 0.03, 0.03, 1.03
212, 0.00, 22705.84, 0.00, 0.00, 0.00, 0.00, 0.00, 0.00, 0.03, 0.03, 1.03
213, 0.00, 22722.83, 0.00, 0.00, 0.00, 0.00, 0.00, 0.00, 0.03, 0.03, 1.03
214, 0.00, 22734.05, 0.00, 0.00, 0.00, 0.00, 0.00, 0.00, 0.03, 0.03, 1.03
215, 0.00, 22722.07, 0.00, 0.00, 0.00, 0.00, 0.00, 0.00, 0.03, 0.03, 1.03
216, 0.00, 22707.70, 0.00, 0.00, 0.00, 0.00, 0.00, 0.00, 0.03, 0.03, 1.03
217, 0.00, 22703.96, 0.00, 0.00, 0.00, 0.00, 0.00, 0.00, 0.03, 0.03, 1.03
218, 0.00, 22704.37, 0.00, 0.00, 0.00, 0.00, 0.00, 0.00, 0.03, 0.03, 1.03
219, 0.00, 22733.49, 0.00, 0.00, 0.00, 0.00, 0.00, 0.00, 0.03, 0.03, 1.03
220, 0.00, 22748.46, 0.00, 0.00, 0.00, 0.00, 0.00, 0.00, 0.03, 0.03, 1.03
221, 0.00, 22744.02, 0.00, 0.00, 0.00, 0.00, 0.00, 0.00, 0.03, 0.03, 1.03
222, 0.00, 22730.79, 0.00, 0.00, 0.00, 0.00, 0.00, 0.00, 0.03, 0.03, 1.03
223, 0.00, 22737.00, 0.00, 0.00, 0.00, 0.00, 0.00, 0.00, 0.03, 0.03, 1.03
224, 0.00, 22736.04, 0.00, 0.00, 0.00, 0.00, 0.00, 0.00, 0.03, 0.03, 1.03
225, 0.00, 22733.09, 0.00, 0.00, 0.00, 0.00, 0.00, 0.00, 0.02, 0.03, 1.03
226, 0.00, 22724.64, 0.00, 0.00, 0.00, 0.00, 0.00, 0.00, 0.02, 0.03, 1.03
227, 0.00, 22727.88, 0.00, 0.00, 0.00, 0.00, 0.00, 0.00, 0.02, 0.03, 1.03
228, 0.00, 22731.57, 0.00, 0.00, 0.00, 0.00, 0.00, 0.00, 0.02, 0.03, 1.03
229, 0.00, 22744.20, 0.00, 0.00, 0.00, 0.00, 0.00, 0.00, 0.02, 0.03, 1.03
230, 0.00, 22761.14, 0.00, 0.00, 0.00, 0.00, 0.00, 0.00, 0.02, 0.02, 1.03
231, 0.00, 22761.29, 0.00, 0.00, 0.00, 0.00, 0.00, 0.00, 0.02, 0.02, 1.03
232, 0.00, 22786.13, 0.00, 0.00, 0.00, 0.00, 0.00, 0.00, 0.02, 0.02, 1.03
233, 0.00, 22757.85, 0.00, 0.00, 0.00, 0.00, 0.00, 0.00, 0.02, 0.02, 1.03
234, 0.00, 22762.35, 0.00, 0.00, 0.00, 0.00, 0.00, 0.00, 0.02, 0.02, 1.03
235, 0.00, 22759.19, 0.00, 0.00, 0.00, 0.00, 0.00, 0.00, 0.02, 0.03, 1.03
236, 0.00, 22783.96, 0.00, 0.00, 0.00, 0.00, 0.00, 0.00, 0.02, 0.03, 1.03
237, 0.00, 22794.29, 0.00, 0.00, 0.00, 0.00, 0.00, 0.00, 0.02, 0.03, 1.03
238, 0.00, 22778.46, 0.00, 0.00, 0.00, 0.00, 0.00, 0.00, 0.02, 0.03, 1.03
239, 0.00, 22775.64, 0.00, 0.00, 0.00, 0.00, 0.00, 0.00, 0.02, 0.03, 1.03
240, 0.00, 22783.67, 0.00, 0.00, 0.00, 0.00, 0.00, 0.00, 0.02, 0.03, 1.03
241, 0.00, 22768.11, 0.00, 0.00, 0.00, 0.00, 0.00, 0.00, 0.02, 0.03, 1.03
242, 0.00, 22767.44, 0.00, 0.00, 0.00, 0.00, 0.00, 0.00, 0.02, 0.03, 1.03
243, 0.00, 22777.99, 0.00, 0.00, 0.00, 0.00, 0.00, 0.00, 0.02, 0.03, 1.03
244, 0.00, 22789.75, 0.00, 0.00, 0.00, 0.00, 0.00, 0.00, 0.02, 0.03, 1.03
245, 0.00, 22792.72, 0.00, 0.00, 0.00, 0.00, 0.00, 0.00, 0.03, 0.03, 1.02
246, 0.00, 22783.33, 0.00, 0.00, 0.00, 0.00, 0.00, 0.00, 0.03, 0.03, 1.02
247, 0.00, 22775.26, 0.00, 0.00, 0.00, 0.00, 0.00, 0.00, 0.03, 0.03, 1.02
248, 0.00, 22794.93, 0.00, 0.00, 0.00, 0.00, 0.00, 0.00, 0.03, 0.03, 1.02
249, 0.00, 22807.94, 0.00, 0.00, 0.00, 0.00, 0.00, 0.00, 0.03, 0.03, 1.02
250, 0.00, 22806.29, 0.00, 0.00, 0.00, 0.00, 0.00, 0.00, 0.03, 0.03, 1.02
251, 0.00, 22802.15, 0.00, 0.00, 0.00, 0.00, 0.00, 0.00, 0.03, 0.03, 1.02
252, 0.00, 22799.09, 0.00, 0.00, 0.00, 0.00, 0.00, 0.00, 0.03, 0.03, 1.02
253, 0.00, 22804.25, 0.00, 0.00, 0.00, 0.00, 0.00, 0.00, 0.03, 0.03, 1.02
254, 0.00, 22820.13, 0.00, 0.00, 0.00, 0.00, 0.00, 0.00, 0.03, 0.03, 1.02
255, 0.00, 22812.64, 0.00, 0.00, 0.00, 0.00, 0.00, 0.00, 0.03, 0.02, 1.03
0, 0.00, 22804.30, 0.00, 0.00, 0.00, 0.00, 0.00, 0.00, 0.03, 0.02, 1.03
1, 0.00, 22814.16, 0.00, 0.00, 0.00, 0.00, 0.00, 0.00, 0.03, 0.02, 1.03
2, 0.00, 22828.82, 0.00, 0.00, 0.00, 0.00, 0.00, 0.00, 0.03, 0.02, 1.03
3, 0.00, 22818.31, 0.00, 0.00, 0.00, 0.00, 0.00, 0.00, 0.03, 0.02, 1.03
4, 0.00, 22825.06, 0.00, 0.00, 0.00, 0.00, 0.00, 0.00, 0.03, 0.02, 1.04
5, 0.00, 22840.11, 0.00, 0.00, 0.00, 0.00, 0.00, 0.00, 0.03, 0.02, 1.04
6, 0.00, 22844.85, 0.00, 0.00, 0.00, 0.00, 0.00, 0.00, 0.03, 0.02, 1.04
7, 0.00, 22846.46, 0.00, 0.00, 0.00, 0.00, 0.00, 0.00, 0.03, 0.02, 1.04
8, 0.00, 22844.71, 0.00, 0.00, 0.00, 0.00, 0.00, 0.00, 0.03, 0.02, 1.04
9, 0.00, 22842.34, 0.00, 0.00, 0.00, 0.00, 0.00, 0.00, 0.03, 0.03, 1.04
10, 0.00, 22840.13, 0.00, 0.00, 0.00, 0.00, 0.00, 0.00, 0.03, 0.03, 1.04
11, 0.00, 22849.88, 0.00, 0.00, 0.00, 0.00, 0.00, 0.00, 0.03, 0.03, 1.04
12, 0.00, 22853.23, 0.00, 0.00, 0.00, 0.00, 0.00, 0.00, 0.03, 0.03, 1.04
13, 0.00, 22871.91, 0.00, 0.00, 0.00, 0.00, 0.00, 0.00, 0.03, 0.03, 1.04
14, 0.00, 22886.22, 0.00, 0.00, 0.00, 0.00, 0.00, 0.00, 0.03, 0.03, 1.03
15, 0.00, 22887.36, 0.00, 0.00, 0.00, 0.00, 0.00, 0.00, 0.03, 0.03, 1.03
16, 0.00, 22876.38, 0.00, 0.00, 0.00, 0.00, 0.00, 0.00, 0.03, 0.03, 1.03
17, 0.00, 22872.40, 0.00, 0.00, 0.00, 0.00, 0.00, 0.00, 0.03, 0.03, 1.03
18, 0.00, 22882.24, 0.00, 0.00, 0.00, 0.00, 0.00, 0.00, 0.03, 0.03, 1.03
19, 0.00, 22874.42, 0.00, 0.00, 0.00, 0.00, 0.00, 0.00, 0.02, 0.03, 1.04
20, 0.00, 22866.39, 0.00, 0.00, 0.00, 0.00, 0.00, 0.00, 0.02, 0.03, 1.04
21, 0.00, 22867.06, 0.00, 0.00, 0.00, 0.00, 0.00, 0.00, 0.02, 0.03, 1.04
22, 0.00, 22852.65, 0.00, 0.00, 0.00, 0.00, 0.00, 0.00, 0.02, 0.03, 1.04
23, 0.00, 22849.58, 0.00, 0.00, 0.00, 0.00, 0.00, 0.00, 0.02, 0.03, 1.04
24, 0.00, 22875.74, 0.00, 0.00, 0.00, 0.00, 0.00, 0.00, 0.02, 0.04, 1.04
25, 0.00, 22878.66, 0.00, 0.00, 0.00, 0.00, 0.00, 0.00, 0.02, 0.04, 1.04
26, 0.00, 22878.55, 0.00, 0.00, 0.00, 0.00, 0.00, 0.00, 0.02, 0.04, 1.04
27, 0.00, 22871.51, 0.00, 0.00, 0.00, 0.00, 0.00, 0.00, 0.02, 0.04, 1.04
28, 0.00, 22852.11, 0.00, 0.00, 0.00, 0.00, 0.00, 0.00, 0.02, 0.04, 1.04
29, 0.00, 22863.08, 0.00, 0.00, 0.00, 0.00, 0.00, 0.00, 0.02, 0.04, 1.04
30, 0.00, 22903.43, 0.00, 0.00, 0.00, 0.00, 0.00, 0.00, 0.02, 0.04, 1.04
31, 0.00, 22917.38, 0.00, 0.00, 0.00, 0.00, 0.00, 0.00, 0.02, 0.04, 1.04
32, 0.00, 22889.24, 0.00, 0.00, 0.00, 0.00, 0.00, 0.00, 0.02, 0.04, 1.04
33, 0.00, 22878.33, 0.00, 0.00, 0.00, 0.00, 0.00, 0.00, 0.02, 0.04, 1.04
34, 0.00, 22899.32, 0.00, 0.00, 0.00, 0.00, 0.00, 0.00, 0.02, 0.03, 1.03
35, 0.00, 22907.36, 0.00, 0.00, 0.00, 0.00, 0.00, 0.00, 0.02, 0.03, 1.03
36, 0.00, 22863.78, 0.00, 0.00, 0.00, 0.00, 0.00, 0.00, 0.02, 0.03, 1.03
37, 0.00, 22879.36, 0.00, 0.00, 0.00, 0.00, 0.00, 0.00, 0.02, 0.03, 1.03
38, 0.00, 22894.00, 0.00, 0.00, 0.00, 0.00, 0.00, 0.00, 0.02, 0.03, 1.03
39, 0.00, 22904.46, 0.00, 0.00, 0.00, 0.00, 0.00, 0.00, 0.02, 0.03, 1.04
40, 0.00, 22905.17, 0.00, 0.00, 0.00, 0.00, 0.00, 0.00, 0.02, 0.03, 1.04
41, 0.00, 22901.15, 0.00, 0.00, 0.00, 0.00, 0.00, 0.00, 0.02, 0.03, 1.04
42, 0.00, 22910.34, 0.00, 0.00, 0.00, 0.00, 0.00, 0.00, 0.02, 0.03, 1.04
43, 0.00, 22920.53, 0.00, 0.00, 0.00, 0.00, 0.00, 0.00, 0.02, 0.03, 1.04
44, 0.00, 22930.97, 0.00, 0.00, 0.00, 0.00, 0.00, 0.00, 0.03, 0.03, 1.03
45, 0.00, 22913.98, 0.00, 0.00, 0.00, 0.00, 0.00, 0.00, 0.03, 0.03, 1.03
46, 0.00, 22907.25, 0.00, 0.00, 0.00, 0.00, 0.00, 0.00, 0.03, 0.03, 1.03
47, 0.00, 22924.75, 0.00, 0.00, 0.00, 0.00, 0.00, 0.00, 0.03, 0.03, 1.03
48, 0.00, 22934.14, 0.00, 0.00, 0.00, 0.00, 0.00, 0.00, 0.03, 0.03, 1.03
49, 0.00, 22938.50, 0.00, 0.00, 0.00, 0.00, 0.00, 0.00, 0.03, 0.03, 1.03
50, 0.00, 22941.18, 0.00, 0.00, 0.00, 0.00, 0.00, 0.00, 0.03, 0.03, 1.03
51, 0.00, 22936.24, 0.00, 0.00, 0.00, 0.00, 0.00, 0.00, 0.03, 0.03, 1.03
52, 0.00, 22932.49, 0.00, 0.00, 0.00, 0.00, 0.00, 0.00, 0.03, 0.03, 1.03
53, 0.00, 22937.78, 0.00, 0.00, 0.00, 0.00, 0.00, 0.00, 0.03, 0.03, 1.03
54, 0.00, 22955.33, 0.00, 0.00, 0.00, 0.00, 0.00, 0.00, 0.03, 0.03, 1.02
55, 0.00, 22962.82, 0.00, 0.00, 0.00, 0.00, 0.00, 0.00, 0.03, 0.03, 1.02
56, 0.00, 22949.25, 0.00, 0.00, 0.00, 0.00, 0.00, 0.00, 0.03, 0.03, 1.02
57, 0.00, 22936.71, 0.00, 0.00, 0.00, 0.00, 0.00, 0.00, 0.03, 0.03, 1.02
58, 0.00, 22956.09, 0.00, 0.00, 0.00, 0.00, 0.00, 0.00, 0.03, 0.03, 1.02
59, 0.00, 22976.45, 0.00, 0.00, 0.00, 0.00, 0.00, 0.00, 0.03, 0.02, 1.03
60, 0.00, 22980.14, 0.00, 0.00, 0.00, 0.00, 0.00, 0.00, 0.03, 0.02, 1.03
61, 0.00, 22963.27, 0.00, 0.00, 0.00, 0.00, 0.00, 0.00, 0.03, 0.02, 1.03
62, 0.00, 22985.84, 0.00, 0.00, 0.00, 0.00, 0.00, 0.00, 0.03, 0.02, 1.03
63, 0.00, 22999.45, 0.00, 0.00, 0.00, 0.00, 0.00, 0.00, 0.03, 0.02, 1.03
64, 0.00, 22992.12, 0.00, 0.00, 0.00, 0.00, 0.00, 0.00, 0.02, 0.02, 1.03
65, 0.00, 22979.58, 0.00, 0.00, 0.00, 0.00, 0.00, 0.00, 0.02, 0.02, 1.03
66, 0.00, 22980.25, 0.00, 0.00, 0.00, 0.00, 0.00, 0.00, 0.02, 0.02, 1.03
67, 0.00, 22993.60, 0.00, 0.00, 0.00, 0.00, 0.00, 0.00, 0.02, 0.02, 1.03
68, 0.00, 23000.84, 0.00, 0.00, 0.00, 0.00, 0.00, 0.00, 0.02, 0.02, 1.03
69, 0.00, 22998.74, 0.00, 0.00, 0.00, 0.00, 0.00, 0.00, 0.02, 0.02, 1.03
70, 0.00, 22972.03, 0.00, 0.00, 0.00, 0.00, 0.00, 0.00, 0.02, 0.02, 1.03
71, 0.00, 22991.25, 0.00, 0.00, 0.00, 0.00, 0.00, 0.00, 0.02, 0.02, 1.03
72, 0.00, 23005.89, 0.00, 0.00, 0.00, 0.00, 0.00, 0.00, 0.02, 0.02, 1.03
73, 0.00, 23012.77, 0.00, 0.00, 0.00, 0.00, 0.00, 0.00, 0.02, 0.02, 1.03
74, 0.00, 23007.34, 0.00, 0.00, 0.00, 0.00, 0.00, 0.00, 0.03, 0.03, 1.03
75, 0.00, 22993.11, 0.00, 0.00, 0.00, 0.00, 0.00, 0.00, 0.03, 0.03, 1.03
76, 0.00, 23003.70, 0.00, 0.00, 0.00, 0.00, 0.00, 0.00, 0.03, 0.03, 1.03
77, 0.00, 23016.35, 0.00, 0.00, 0.00, 0.00, 0.00, 0.00, 0.03, 0.03, 1.03
78, 0.00, 23024.93, 0.00, 0.00, 0.00, 0.00, 0.00, 0.00, 0.03, 0.03, 1.03
79, 0.00, 23015.84, 0.00, 0.00, 0.00, 0.00, 0.00, 0.00, 0.03, 0.03, 1.02
80, 0.00, 23019.75, 0.00, 0.00, 0.00, 0.00, 0.00, 0.00, 0.03, 0.03, 1.02
81, 0.00, 23040.20, 0.00, 0.00, 0.00, 0.00, 0.00, 0.00, 0.03, 0.03, 1.02
82, 0.00, 23036.24, 0.00, 0.00, 0.00, 0.00, 0.00, 0.00, 0.03, 0.03, 1.02
83, 0.00, 23030.79, 0.00, 0.00, 0.00, 0.00, 0.00, 0.00, 0.03, 0.03, 1.02
84, 0.00, 23042.37, 0.00, 0.00, 0.00, 0.00, 0.00, 0.00, 0.03, 0.03, 1.02
85, 0.00, 23042.81, 0.00, 0.00, 0.00, 0.00, 0.00, 0.00, 0.03, 0.03, 1.02
86, 0.00, 23028.91, 0.00, 0.00, 0.00, 0.00, 0.00, 0.00, 0.03, 0.03, 1.02
87, 0.00, 23031.42, 0.00, 0.00, 0.00, 0.00, 0.00, 0.00, 0.03, 0.03, 1.02
88, 0.00, 23051.64, 0.00, 0.00, 0.00, 0.00, 0.00, 0.00, 0.03, 0.03, 1.02
89, 0.00, 23049.32, 0.00, 0.00, 0.00, 0.00, 0.00, 0.00, 0.03, 0.03, 1.03
90, 0.00, 23054.95, 0.00, 0.00, 0.00, 0.00, 0.00, 0.00, 0.03, 0.03, 1.03
91, 0.00, 23063.13, 0.00, 0.00, 0.00, 0.00, 0.00, 0.00, 0.03, 0.03, 1.03
92, 0.00, 23065.35, 0.00, 0.00, 0.00, 0.00, 0.00, 0.00, 0.03, 0.03, 1.03
93, 0.00, 23057.86, 0.00, 0.00, 0.00, 0.00, 0.00, 0.00, 0.03, 0.03, 1.03
94, 0.00, 23046.14, 0.00, 0.00, 0.00, 0.00, 0.00, 0.00, 0.03, 0.03, 1.03
95, 0.00, 23048.54, 0.00, 0.00, 0.00, 0.00, 0.00, 0.00, 0.03, 0.02, 1.03
96, 0.00, 23068.36, 0.00, 0.00, 0.00, 0.00, 0.00, 0.00, 0.03, 0.02, 1.03
97, 0.00, 23090.31, 0.00, 0.00, 0.00, 0.00, 0.00, 0.00, 0.03, 0.02, 1.03
98, 0.00, 23068.07, 0.00, 0.00, 0.00, 0.00, 0.00, 0.00, 0.03, 0.02, 1.03
99, 0.00, 23064.29, 0.00, 0.00, 0.00, 0.00, 0.00, 0.00, 0.03, 0.02, 1.03
100, 0.00, 23078.98, 0.00, 0.00, 0.00, 0.00, 0.00, 0.00, 0.03, 0.03, 1.03
101, 0.00, 23089.02, 0.00, 0.00, 0.00, 0.00, 0.00, 0.00, 0.03, 0.03, 1.03
102, 0.00, 23084.01, 0.00, 0.00, 0.00, 0.00, 0.00, 0.00, 0.03, 0.03, 1.03
103, 0.00, 23082.33, 0.00, 0.00, 0.00, 0.00, 0.00, 0.00, 0.03, 0.03, 1.03
104, 0.00, 23077.97, 0.00, 0.00, 0.00, 0.00, 0.00, 0.00, 0.03, 0.03, 1.03
105, 0.00, 23082.56, 0.00, 0.00, 0.00, 0.00, 0.00, 0.00, 0.02, 0.03, 1.03
106, 0.00, 23115.73, 0.00, 0.00, 0.00, 0.00, 0.00, 0.00, 0.02, 0.03, 1.03
107, 0.00, 23109.38, 0.00, 0.00, 0.00, 0.00, 0.00, 0.00, 0.02, 0.03, 1.03
108, 0.00, 23105.31, 0.00, 0.00, 0.00, 0.00, 0.00, 0.00, 0.02, 0.03, 1.03
109, 0.00, 23104.24, 0.00, 0.00, 0.00, 0.00, 0.00, 0.00, 0.02, 0.03, 1.03
110, 0.00, 23088.01, 0.00, 0.00, 0.00, 0.00, 0.00, 0.00, 0.03, 0.03, 1.03
111, 0.00, 23088.70, 0.00, 0.00, 0.00, 0.00, 0.00, 0.00, 0.03, 0.03, 1.03
112, 0.00, 23103.32, 0.00, 0.00, 0.00, 0.00, 0.00, 0.00, 0.03, 0.03, 1.03
113, 0.00, 23102.29, 0.00, 0.00, 0.00, 0.00, 0.00, 0.00, 0.03, 0.03, 1.03
114, 0.00, 23096.84, 0.00, 0.00, 0.00, 0.00, 0.00, 0.00, 0.03, 0.03, 1.03
115, 0.00, 23114.25, 0.00, 0.00, 0.00, 0.00, 0.00, 0.00, 0.03, 0.03, 1.03
116, 0.00, 23124.40, 0.00, 0.00, 0.00, 0.00, 0.00, 0.00, 0.03, 0.03, 1.03
117, 0.00, 23114.03, 0.00, 0.00, 0.00, 0.00, 0.00, 0.00, 0.03, 0.03, 1.03
118, 0.00, 23128.42, 0.00, 0.00, 0.00, 0.00, 0.00, 0.00, 0.03, 0.03, 1.03
119, 0.00, 23118.99, 0.00, 0.00, 0.00, 0.00, 0.00, 0.00, 0.03, 0.03, 1.03
120, 0.00, 23119.26, 0.00, 0.00, 0.00, 0.00, 0.00, 0.00, 0.03, 0.03, 1.02
121, 0.00, 23125.58, 0.00, 0.00, 0.00, 0.00, 0.00, 0.00, 0.03, 0.03, 1.02
122, 0.00, 23156.63, 0.00, 0.00, 0.00, 0.00, 0.00, 0.00, 0.03, 0.03, 1.02
123, 0.00, 23136.27, 0.00, 0.00, 0.00, 0.00, 0.00, 0.00, 0.03, 0.03, 1.02
124, 0.00, 23118.07, 0.00, 0.00, 0.00, 0.00, 0.00, 0.00, 0.03, 0.03, 1.02
125, 0.00, 23125.31, 0.00, 0.00, 0.00, 0.00, 0.00, 0.00, 0.03, 0.02, 1.03
126, 0.00, 23133.27, 0.00, 0.00, 0.00, 0.00, 0.00, 0.00, 0.03, 0.02, 1.03
127, 0.00, 23120.17, 0.00, 0.00, 0.00, 0.00, 0.00, 0.00, 0.03, 0.02, 1.03
128, 0.00, 23130.34, 0.00, 0.00, 0.00, 0.00, 0.00, 0.00, 0.03, 0.02, 1.03
129, 0.00, 23150.44, 0.00, 0.00, 0.00, 0.00, 0.00, 0.00, 0.03, 0.02, 1.03
130, 0.00, 23156.54, 0.00, 0.00, 0.00, 0.00, 0.00, 0.00, 0.03, 0.03, 1.03
131, 0.00, 23152.34, 0.00, 0.00, 0.00, 0.00, 0.00, 0.00, 0.03, 0.03, 1.03
132, 0.00, 23145.28, 0.00, 0.00, 0.00, 0.00, 0.00, 0.00, 0.03, 0.03, 1.03
133, 0.00, 23152.83, 0.00, 0.00, 0.00, 0.00, 0.00, 0.00, 0.03, 0.03, 1.03
134, 0.00, 23146.93, 0.00, 0.00, 0.00, 0.00, 0.00, 0.00, 0.03, 0.03, 1.03
135, 0.00, 23156.23, 0.00, 0.00, 0.00, 0.00, 0.00, 0.00, 0.03, 0.02, 1.03
136, 0.00, 23147.09, 0.00, 0.00, 0.00, 0.00, 0.00, 0.00, 0.03, 0.02, 1.03
137, 0.00, 23160.45, 0.00, 0.00, 0.00, 0.00, 0.00, 0.00, 0.03, 0.02, 1.03
138, 0.00, 23166.33, 0.00, 0.00, 0.00, 0.00, 0.00, 0.00, 0.03, 0.02, 1.03
139, 0.00, 23171.87, 0.00, 0.00, 0.00, 0.00, 0.00, 0.00, 0.03, 0.02, 1.03
140, 0.00, 23149.50, 0.00, 0.00, 0.00, 0.00, 0.00, 0.00, 0.03, 0.02, 1.04
141, 0.00, 23168.03, 0.00, 0.00, 0.00, 0.00, 0.00, 0.00, 0.03, 0.02, 1.04
142, 0.00, 23186.69, 0.00, 0.00, 0.00, 0.00, 0.00, 0.00, 0.03, 0.02, 1.04
143, 0.00, 23165.88, 0.00, 0.00, 0.00, 0.00, 0.00, 0.00, 0.03, 0.02, 1.04
144, 0.00, 23178.13, 0.00, 0.00, 0.00, 0.00, 0.00, 0.00, 0.03, 0.02, 1.04
145, 0.00, 23173.26, 0.00, 0.00, 0.00, 0.00, 0.00, 0.00, 0.03, 0.02, 1.04
146, 0.00, 23193.96, 0.00, 0.00, 0.00, 0.00, 0.00, 0.00, 0.03, 0.02, 1.04
147, 0.00, 23191.16, 0.00, 0.00, 0.00, 0.00, 0.00, 0.00, 0.03, 0.02, 1.04
148, 0.00, 23187.83, 0.00, 0.00, 0.00, 0.00, 0.00, 0.00, 0.03, 0.02, 1.04
149, 0.00, 23188.68, 0.00, 0.00, 0.00, 0.00, 0.00, 0.00, 0.03, 0.02, 1.04
150, 0.00, 23225.21, 0.00, 0.00, 0.00, 0.00, 0.00, 0.00, 0.03, 0.03, 1.03
151, 0.00, 23222.19, 0.00, 0.00, 0.00, 0.00, 0.00, 0.00, 0.03, 0.03, 1.03
152, 0.00, 23202.25, 0.00, 0.00, 0.00, 0.00, 0.00, 0.00, 0.03, 0.03, 1.03
153, 0.00, 23192.50, 0.00, 0.00, 0.00, 0.00, 0.00, 0.00, 0.03, 0.03, 1.03
154, 0.00, 23190.76, 0.00, 0.00, 0.00, 0.00, 0.00, 0.00, 0.03, 0.03, 1.03
155, 0.00, 23196.82, 0.00, 0.00, 0.00, 0.00, 0.00, 0.00, 0.03, 0.03, 1.04
156, 0.00, 23216.15, 0.00, 0.00, 0.00, 0.00, 0.00, 0.00, 0.03, 0.03, 1.04
157, 0.00, 23224.33, 0.00, 0.00, 0.00, 0.00, 0.00, 0.00, 0.03, 0.03, 1.04
158, 0.00, 23235.51, 0.00, 0.00, 0.00, 0.00, 0.00, 0.00, 0.03, 0.03, 1.04
159, 0.00, 23233.10, 0.00, 0.00, 0.00, 0.00, 0.00, 0.00, 0.03, 0.03, 1.04
160, 0.00, 23198.90, 0.00, 0.00, 0.00, 0.00, 0.00, 0.00, 0.03, 0.03, 1.03
161, 0.00, 23192.53, 0.00, 0.00, 0.00, 0.00, 0.00, 0.00, 0.03, 0.03, 1.03
162, 0.00, 23215.97, 0.00, 0.00, 0.00, 0.00, 0.00, 0.00, 0.03, 0.03, 1.03
163, 0.00, 23237.74, 0.00, 0.00, 0.00, 0.00, 0.00, 0.00, 0.03, 0.03, 1.03
164, 0.00, 23238.24, 0.00, 0.00, 0.00, 0.00, 0.00, 0.00, 0.03, 0.03, 1.03
165, 0.00, 23249.35, 0.00, 0.00, 0.00, 0.00, 0.00, 0.00, 0.03, 0.03, 1.03
166, 0.00, 23255.89, 0.00, 0.00, 0.00, 0.00, 0.00, 0.00, 0.03, 0.03, 1.03
167, 0.00, 23241.61, 0.00, 0.00, 0.00, 0.00, 0.00, 0.00, 0.03, 0.03, 1.03
168, 0.00, 23224.18, 0.00, 0.00, 0.00, 0.00, 0.00, 0.00, 0.03, 0.03, 1.03
169, 0.00, 23219.66, 0.00, 0.00, 0.00, 0.00, 0.00, 0.00, 0.03, 0.03, 1.03
170, 0.00, 23205.74, 0.00, 0.00, 0.00, 0.00, 0.00, 0.00, 0.03, 0.03, 1.04
171, 0.00, 23196.10, 0.00, 0.00, 0.00, 0.00, 0.00, 0.00, 0.03, 0.03, 1.04
172, 0.00, 23160.23, 0.00, 0.00, 0.00, 0.00, 0.00, 0.00, 0.03, 0.03, 1.04
173, 0.00, 23118.03, 0.00, 0.00, 0.00, 0.00, 0.00, 0.00, 0.03, 0.03, 1.04
174, 0.00, 23069.30, 0.00, 0.00, 0.00, 0.00, 0.00, 0.00, 0.03, 0.03, 1.04
175, 0.00, 23001.26, 0.00, 0.00, 0.00, 0.00, 0.00, 0.00, 0.03, 0.02, 1.03
176, 0.00, 22949.72, 0.00, 0.00, 0.00, 0.00, 0.00, 0.00, 0.03, 0.02, 1.03
177, 0.00, 22878.82, 0.00, 0.00, 0.00, 0.00, 0.00, 0.00, 0.03, 0.02, 1.03
178, 0.00, 22812.30, 0.00, 0.00, 0.00, 0.00, 0.00, 0.00, 0.03, 0.02, 1.03
179, 0.00, 22765.45, 0.00, 0.00, 0.00, 0.00, 0.00, 0.00, 0.03, 0.02, 1.03
180, 0.00, 22745.83, 0.00, 0.00, 0.00, 0.00, 0.00, 0.00, 0.03, 0.03, 1.03
181, 0.00, 22697.75, 0.00, 0.00, 0.00, 0.00, 0.00, 0.00, 0.03, 0.03, 1.03
182, 0.00, 22664.87, 0.00, 0.00, 0.00, 0.00, 0.00, 0.00, 0.03, 0.03, 1.03
183, 0.00, 22654.16, 0.00, 0.00, 0.00, 0.00, 0.00, 0.00, 0.03, 0.03, 1.03
184, 0.00, 22652.20, 0.00, 0.00, 0.00, 0.00, 0.00, 0.00, 0.03, 0.03, 1.03
185, 0.00, 22646.76, 0.00, 0.00, 0.00, 0.00, 0.00, 0.00, 0.02, 0.03, 1.03
186, 0.00, 22636.68, 0.00, 0.00, 0.00, 0.00, 0.00, 0.00, 0.02, 0.03, 1.03
187, 0.00, 22637.55, 0.00, 0.00, 0.00, 0.00, 0.00, 0.00, 0.02, 0.03, 1.03
188, 0.00, 22665.74, 0.00, 0.00, 0.00, 0.00, 0.00, 0.00, 0.02, 0.03, 1.03
189, 0.00, 22690.46, 0.00, 0.00, 0.00, 0.00, 0.00, 0.00, 0.02, 0.03, 1.03
190, 0.00, 22679.62, 0.00, 0.00, 0.00, 0.00, 0.00, 0.00, 0.02, 0.03, 1.03
191, 0.00, 22690.02, 0.00, 0.00, 0.00, 0.00, 0.00, 0.00, 0.02, 0.03, 1.03
192, 0.00, 22714.87, 0.00, 0.00, 0.00, 0.00, 0.00, 0.00, 0.02, 0.03, 1.03
193, 0.00, 22750.41, 0.00, 0.00, 0.00, 0.00, 0.00, 0.00, 0.02, 0.03, 1.03
194, 0.00, 22789.08, 0.00, 0.00, 0.00, 0.00, 0.00, 0.00, 0.02, 0.03, 1.03
195, 0.00, 22815.83, 0.00, 0.00, 0.00, 0.00, 0.00, 0.00, 0.03, 0.04, 1.03
196, 0.00, 22831.99, 0.00, 0.00, 0.00, 0.00, 0.00, 0.00, 0.03, 0.04, 1.03
197, 0.00, 22857.34, 0.00, 0.00, 0.00, 0.00, 0.00, 0.00, 0.03, 0.04, 1.03
198, 0.00, 22889.68, 0.00, 0.00, 0.00, 0.00, 0.00, 0.00, 0.03, 0.04, 1.03
199, 0.00, 22922.45, 0.00, 0.00, 0.00, 0.00, 0.00, 0.00, 0.03, 0.04, 1.03
200, 0.00, 22956.58, 0.00, 0.00, 0.00, 0.00, 0.00, 0.00, 0.03, 0.03, 1.04
201, 0.00, 22986.64, 0.00, 0.00, 0.00, 0.00, 0.00, 0.00, 0.03, 0.03, 1.04
202, 0.00, 23005.11, 0.00, 0.00, 0.00, 0.00, 0.00, 0.00, 0.03, 0.03, 1.04
203, 0.00, 23028.17, 0.00, 0.00, 0.00, 0.00, 0.00, 0.00, 0.03, 0.03, 1.04
204, 0.00, 23057.84, 0.00, 0.00, 0.00, 0.00, 0.00, 0.00, 0.03, 0.03, 1.04
205, 0.00, 23076.39, 0.00, 0.00, 0.00, 0.00, 0.00, 0.00, 0.03, 0.03, 1.04
206, 0.00, 23086.78, 0.00, 0.00, 0.00, 0.00, 0.00, 0.00, 0.03, 0.03, 1.04
207, 0.00, 23109.15, 0.00, 0.00, 0.00, 0.00, 0.00, 0.00, 0.03, 0.03, 1.04
208, 0.00, 23146.30, 0.00, 0.00, 0.00, 0.00, 0.00, 0.00, 0.03, 0.03, 1.04
209, 0.00, 23177.73, 0.00, 0.00, 0.00, 0.00, 0.00, 0.00, 0.03, 0.03, 1.04
210, 0.00, 23185.35, 0.00, 0.00, 0.00, 0.00, 0.00, 0.00, 0.03, 0.03, 1.03
211, 0.00, 23189.84, 0.00, 0.00, 0.00, 0.00, 0.00, 0.00, 0.03, 0.03, 1.03
212, 0.00, 23197.11, 0.00, 0.00, 0.00, 0.00, 0.00, 0.00, 0.03, 0.03, 1.03
213, 0.00, 23209.76, 0.00, 0.00, 0.00, 0.00, 0.00, 0.00, 0.03, 0.03, 1.03
214, 0.00, 23224.22, 0.00, 0.00, 0.00, 0.00, 0.00, 0.00, 0.03, 0.03, 1.03
215, 0.00, 23238.79, 0.00, 0.00, 0.00, 0.00, 0.00, 0.00, 0.03, 0.03, 1.03
216, 0.00, 23273.66, 0.00, 0.00, 0.00, 0.00, 0.00, 0.00, 0.03, 0.03, 1.03
217, 0.00, 23266.96, 0.00, 0.00, 0.00, 0.00, 0.00, 0.00, 0.03, 0.03, 1.03
218, 0.00, 23276.21, 0.00, 0.00, 0.00, 0.00, 0.00, 0.00, 0.03, 0.03, 1.03
219, 0.00, 23279.68, 0.00, 0.00, 0.00, 0.00, 0.00, 0.00, 0.03, 0.03, 1.03
220, 0.00, 23290.74, 0.00, 0.00, 0.00, 0.00, 0.00, 0.00, 0.03, 0.04, 1.03
221, 0.00, 23297.42, 0.00, 0.00, 0.00, 0.00, 0.00, 0.00, 0.03, 0.04, 1.03
222, 0.00, 23312.44, 0.00, 0.00, 0.00, 0.00, 0.00, 0.00, 0.03, 0.04, 1.03
223, 0.00, 23308.85, 0.00, 0.00, 0.00, 0.00, 0.00, 0.00, 0.03, 0.04, 1.03
224, 0.00, 23314.79, 0.00, 0.00, 0.00, 0.00, 0.00, 0.00, 0.03, 0.04, 1.03
225, 0.00, 23316.09, 0.00, 0.00, 0.00, 0.00, 0.00, 0.00, 0.03, 0.03, 1.03
226, 0.00, 23337.19, 0.00, 0.00, 0.00, 0.00, 0.00, 0.00, 0.03, 0.03, 1.03
227, 0.00, 23327.29, 0.00, 0.00, 0.00, 0.00, 0.00, 0.00, 0.03, 0.03, 1.03
228, 0.00, 23347.47, 0.00, 0.00, 0.00, 0.00, 0.00, 0.00, 0.03, 0.03, 1.03
229, 0.00, 23368.26, 0.00, 0.00, 0.00, 0.00, 0.00, 0.00, 0.03, 0.03, 1.03
230, 0.00, 23365.51, 0.00, 0.00, 0.00, 0.00, 0.00, 0.00, 0.03, 0.03, 1.04
231, 0.00, 23375.32, 0.00, 0.00, 0.00, 0.00, 0.00, 0.00, 0.03, 0.03, 1.04
232, 0.00, 23365.82, 0.00, 0.00, 0.00, 0.00, 0.00, 0.00, 0.03, 0.03, 1.04
233, 0.00, 23356.14, 0.00, 0.00, 0.00, 0.00, 0.00, 0.00, 0.03, 0.03, 1.04
234, 0.00, 23393.02, 0.00, 0.00, 0.00, 0.00, 0.00, 0.00, 0.03, 0.03, 1.04
235, 0.00, 23390.94, 0.00, 0.00, 0.00, 0.00, 0.00, 0.00, 0.03, 0.03, 1.03
236, 0.00, 23378.34, 0.00, 0.00, 0.00, 0.00, 0.00, 0.00, 0.03, 0.03, 1.03
237, 0.00, 23372.46, 0.00, 0.00, 0.00, 0.00, 0.00, 0.00, 0.03, 0.03, 1.03
238, 0.00, 23408.29, 0.00, 0.00, 0.00, 0.00, 0.00, 0.00, 0.03, 0.03, 1.03
239, 0.00, 23434.98, 0.00, 0.00, 0.00, 0.00, 0.00, 0.00, 0.03, 0.03, 1.03
240, 0.00, 23411.60, 0.00, 0.00, 0.00, 0.00, 0.00, 0.00, 0.02, 0.04, 1.03
241, 0.00, 23399.17, 0.00, 0.00, 0.00, 0.00, 0.00, 0.00, 0.02, 0.04, 1.03
242, 0.00, 23411.13, 0.00, 0.00, 0.00, 0.00, 0.00, 0.00, 0.02, 0.04, 1.03
243, 0.00, 23426.91, 0.00, 0.00, 0.00, 0.00, 0.00, 0.00, 0.02, 0.04, 1.03
244, 0.00, 23399.12, 0.00, 0.00, 0.00, 0.00, 0.00, 0.00, 0.02, 0.04, 1.03
245, 0.00, 23399.10, 0.00, 0.00, 0.00, 0.00, 0.00, 0.00, 0.03, 0.04, 1.03
246, 0.00, 23413.94, 0.00, 0.00, 0.00, 0.00, 0.00, 0.00, 0.03, 0.04, 1.03
247, 0.00, 23433.08, 0.00, 0.00, 0.00, 0.00, 0.00, 0.00, 0.03, 0.04, 1.03
248, 0.00, 23440.70, 0.00, 0.00, 0.00, 0.00, 0.00, 0.00, 0.03, 0.04, 1.03
249, 0.00, 23437.70, 0.00, 0.00, 0.00, 0.00, 0.00, 0.00, 0.03, 0.04, 1.03
250, 0.00, 23443.58, 0.00, 0.00, 0.00, 0.00, 0.00, 0.00, 0.03, 0.03, 1.03
251, 0.00, 23429.48, 0.00, 0.00, 0.00, 0.00, 0.00, 0.00, 0.03, 0.03, 1.03
252, 0.00, 23440.16, 0.00, 0.00, 0.00, 0.00, 0.00, 0.00, 0.03, 0.03, 1.03
253, 0.00, 23429.81, 0.00, 0.00, 0.00, 0.00, 0.00, 0.00, 0.03, 0.03, 1.03
254, 0.00, 23460.48, 0.00, 0.00, 0.00, 0.00, 0.00, 0.00, 0.03, 0.03, 1.03
255, 0.00, 23453.93, 0.00, 0.00, 0.00, 0.00, 0.00, 0.00, 0.03, 0.02, 1.03
0, 0.00, 23446.85, 0.00, 0.00, 0.00, 0.00, 0.00, 0.00, 0.03, 0.02, 1.03
1, 0.00, 23453.17, 0.00, 0.00, 0.00, 0.00, 0.00, 0.00, 0.03, 0.02, 1.03
2, 0.00, 23453.10, 0.00, 0.00, 0.00, 0.00, 0.00, 0.00, 0.03, 0.02, 1.03
3, 0.00, 23464.99, 0.00, 0.00, 0.00, 0.00, 0.00, 0.00, 0.03, 0.02, 1.03
4, 0.00, 23468.21, 0.00, 0.00, 0.00, 0.00, 0.00, 0.00, 0.03, 0.03, 1.03
5, 0.00, 23467.90, 0.00, 0.00, 0.00, 0.00, 0.00, 0.00, 0.03, 0.03, 1.03
6, 0.00, 23458.60, 0.00, 0.00, 0.00, 0.00, 0.00, 0.00, 0.03, 0.03, 1.03
7, 0.00, 23451.88, 0.00, 0.00, 0.00, 0.00, 0.00, 0.00, 0.03, 0.03, 1.03
8, 0.00, 23459.23, 0.00, 0.00, 0.00, 0.00, 0.00, 0.00, 0.03, 0.03, 1.03
9, 0.00, 23462.47, 0.00, 0.00, 0.00, 0.00, 0.00, 0.00, 0.03, 0.03, 1.03
10, 0.00, 23478.49, 0.00, 0.00, 0.00, 0.00, 0.00, 0.00, 0.03, 0.03, 1.04
11, 0.00, 23475.14, 0.00, 0.00, 0.00, 0.00, 0.00, 0.00, 0.03, 0.03, 1.04
12, 0.00, 23494.19, 0.00, 0.00, 0.00, 0.00, 0.00, 0.00, 0.03, 0.03, 1.04
13, 0.00, 23483.79, 0.00, 0.00, 0.00, 0.00, 0.00, 0.00, 0.03, 0.03, 1.04
14, 0.00, 23463.50, 0.00, 0.00, 0.00, 0.00, 0.00, 0.00, 0.03, 0.03, 1.04
15, 0.00, 23467.68, 0.00, 0.00, 0.00, 0.00, 0.00, 0.00, 0.03, 0.03, 1.04
16, 0.00, 23492.29, 0.00, 0.00, 0.00, 0.00, 0.00, 0.00, 0.03, 0.03, 1.04
17, 0.00, 23479.08, 0.00, 0.00, 0.00, 0.00, 0.00, 0.00, 0.03, 0.03, 1.04
18, 0.00, 23473.69, 0.00, 0.00, 0.00, 0.00, 0.00, 0.00, 0.03, 0.03, 1.04
19, 0.00, 23479.03, 0.00, 0.00, 0.00, 0.00, 0.00, 0.00, 0.03, 0.03, 1.04
20, 0.00, 23486.38, 0.00, 0.00, 0.00, 0.00, 0.00, 0.00, 0.02, 0.03, 1.04
21, 0.00, 23472.37, 0.00, 0.00, 0.00, 0.00, 0.00, 0.00, 0.02, 0.03, 1.04
22, 0.00, 23461.51, 0.00, 0.00, 0.00, 0.00, 0.00, 0.00, 0.02, 0.03, 1.04
23, 0.00, 23480.37, 0.00, 0.00, 0.00, 0.00, 0.00, 0.00, 0.02, 0.03, 1.04
24, 0.00, 23478.23, 0.00, 0.00, 0.00, 0.00, 0.00, 0.00, 0.02, 0.03, 1.04
25, 0.00, 23487.21, 0.00, 0.00, 0.00, 0.00, 0.00, 0.00, 0.02, 0.03, 1.03
26, 0.00, 23472.97, 0.00, 0.00, 0.00, 0.00, 0.00, 0.00, 0.02, 0.03, 1.03
27, 0.00, 23473.11, 0.00, 0.00, 0.00, 0.00, 0.00, 0.00, 0.02, 0.03, 1.03
28, 0.00, 23489.29, 0.00, 0.00, 0.00, 0.00, 0.00, 0.00, 0.02, 0.03, 1.03
29, 0.00, 23511.02, 0.00, 0.00, 0.00, 0.00, 0.00, 0.00, 0.02, 0.03, 1.03
30, 0.00, 23499.48, 0.00, 0.00, 0.00, 0.00, 0.00, 0.00, 0.03, 0.03, 1.03
31, 0.00, 23492.53, 0.00, 0.00, 0.00, 0.00, 0.00, 0.00, 0.03, 0.03, 1.03
32, 0.00, 23492.73, 0.00, 0.00, 0.00, 0.00, 0.00, 0.00, 0.03, 0.03, 1.03
33, 0.00, 23493.89, 0.00, 0.00, 0.00, 0.00, 0.00, 0.00, 0.03, 0.03, 1.03
34, 0.00, 23493.31, 0.00, 0.00, 0.00, 0.00, 0.00, 0.00, 0.03, 0.03, 1.03
35, 0.00, 23482.56, 0.00, 0.00, 0.00, 0.00, 0.00, 0.00, 0.03, 0.04, 1.03
36, 0.00, 23493.52, 0.00, 0.00, 0.00, 0.00, 0.00, 0.00, 0.03, 0.04, 1.03
37, 0.00, 23506.41, 0.00, 0.00, 0.00, 0.00, 0.00, 0.00, 0.03, 0.04, 1.03
38, 0.00, 23509.97, 0.00, 0.00, 0.00, 0.00, 0.00, 0.00, 0.03, 0.04, 1.03
39, 0.00, 23494.32, 0.00, 0.00, 0.00, 0.00, 0.00, 0.00, 0.03, 0.04, 1.03
40, 0.00, 23505.16, 0.00, 0.00, 0.00, 0.00, 0.00, 0.00, 0.03, 0.03, 1.02
41, 0.00, 23519.85, 0.00, 0.00, 0.00, 0.00, 0.00, 0.00, 0.03, 0.03, 1.02
42, 0.00, 23500.42, 0.00, 0.00, 0.00, 0.00, 0.00, 0.00, 0.03, 0.03, 1.02
43, 0.00, 23494.12, 0.00, 0.00, 0.00, 0.00, 0.00, 0.00, 0.03, 0.03, 1.02
44, 0.00, 23491.30, 0.00, 0.00, 0.00, 0.00, 0.00, 0.00, 0.03, 0.03, 1.02
45, 0.00, 23523.18, 0.00, 0.00, 0.00, 0.00, 0.00, 0.00, 0.03, 0.03, 1.02
46, 0.00, 23530.60, 0.00, 0.00, 0.00, 0.00, 0.00, 0.00, 0.03, 0.03, 1.02
47, 0.00, 23524.83, 0.00, 0.00, 0.00, 0.00, 0.00, 0.00, 0.03, 0.03, 1.02
48, 0.00, 23523.69, 0.00, 0.00, 0.00, 0.00, 0.00, 0.00, 0.03, 0.03, 1.02
49, 0.00, 23533.23, 0.00, 0.00, 0.00, 0.00, 0.00, 0.00, 0.03, 0.03, 1.02
50, 0.00, 23538.35, 0.00, 0.00, 0.00, 0.00, 0.00, 0.00, 0.03, 0.03, 1.03
51, 0.00, 23526.73, 0.00, 0.00, 0.00, 0.00, 0.00, 0.00, 0.03, 0.03, 1.03
52, 0.00, 23519.02, 0.00, 0.00, 0.00, 0.00, 0.00, 0.00, 0.03, 0.03, 1.03
53, 0.00, 23501.36, 0.00, 0.00, 0.00, 0.00, 0.00, 0.00, 0.03, 0.03, 1.03
54, 0.00, 23532.83, 0.00, 0.00, 0.00, 0.00, 0.00, 0.00, 0.03, 0.03, 1.03
55, 0.00, 23542.18, 0.00, 0.00, 0.00, 0.00, 0.00, 0.00, 0.02, 0.03, 1.03
56, 0.00, 23551.83, 0.00, 0.00, 0.00, 0.00, 0.00, 0.00, 0.02, 0.03, 1.03
57, 0.00, 23545.08, 0.00, 0.00, 0.00, 0.00, 0.00, 0.00, 0.02, 0.03, 1.03
58, 0.00, 23547.43, 0.00, 0.00, 0.00, 0.00, 0.00, 0.00, 0.02, 0.03, 1.03
59, 0.00, 23532.32, 0.00, 0.00, 0.00, 0.00, 0.00, 0.00, 0.02, 0.03, 1.03
60, 0.00, 23526.60, 0.00, 0.00, 0.00, 0.00, 0.00, 0.00, 0.03, 0.03, 1.03
61, 0.00, 23548.99, 0.00, 0.00, 0.00, 0.00, 0.00, 0.00, 0.03, 0.03, 1.03
62, 0.00, 23563.97, 0.00, 0.00, 0.00, 0.00, 0.00, 0.00, 0.03, 0.03, 1.03
63, 0.00, 23564.62, 0.00, 0.00, 0.00, 0.00, 0.00, 0.00, 0.03, 0.03, 1.03
64, 0.00, 23551.43, 0.00, 0.00, 0.00, 0.00, 0.00, 0.00, 0.03, 0.03, 1.03
65, 0.00, 23555.85, 0.00, 0.00, 0.00, 0.00, 0.00, 0.00, 0.02, 0.03, 1.03
66, 0.00, 23553.13, 0.00, 0.00, 0.00, 0.00, 0.00, 0.00, 0.02, 0.03, 1.03
67, 0.00, 23553.73, 0.00, 0.00, 0.00, 0.00, 0.00, 0.00, 0.02, 0.03, 1.03
68, 0.00, 23561.51, 0.00, 0.00, 0.00, 0.00, 0.00, 0.00, 0.02, 0.03, 1.03
69, 0.00, 23565.76, 0.00, 0.00, 0.00, 0.00, 0.00, 0.00, 0.02, 0.03, 1.03
70, 0.00, 23578.29, 0.00, 0.00, 0.00, 0.00, 0.00, 0.00, 0.02, 0.04, 1.03
71, 0.00, 23596.18, 0.00, 0.00, 0.00, 0.00, 0.00, 0.00, 0.02, 0.04, 1.03
72, 0.00, 23579.70, 0.00, 0.00, 0.00, 0.00, 0.00, 0.00, 0.02, 0.04, 1.03
73, 0.00, 23581.96, 0.00, 0.00, 0.00, 0.00, 0.00, 0.00, 0.02, 0.04, 1.03
74, 0.00, 23579.03, 0.00, 0.00, 0.00, 0.00, 0.00, 0.00, 0.02, 0.04, 1.03
75, 0.00, 23576.57, 0.00, 0.00, 0.00, 0.00, 0.00, 0.00, 0.02, 0.03, 1.03
76, 0.00, 23585.89, 0.00, 0.00, 0.00, 0.00, 0.00, 0.00, 0.02, 0.03, 1.03
77, 0.00, 23597.50, 0.00, 0.00, 0.00, 0.00, 0.00, 0.00, 0.02, 0.03, 1.03
78, 0.00, 23616.79, 0.00, 0.00, 0.00, 0.00, 0.00, 0.00, 0.02, 0.03, 1.03
79, 0.00, 23607.40, 0.00, 0.00, 0.00, 0.00, 0.00, 0.00, 0.02, 0.03, 1.03
80, 0.00, 23600.51, 0.00, 0.00, 0.00, 0.00, 0.00, 0.00, 0.03, 0.03, 1.03
81, 0.00, 23602.79, 0.00, 0.00, 0.00, 0.00, 0.00, 0.00, 0.03, 0.03, 1.03
82, 0.00, 23616.36, 0.00, 0.00, 0.00, 0.00, 0.00, 0.00, 0.03, 0.03, 1.03
83, 0.00, 23615.94, 0.00, 0.00, 0.00, 0.00, 0.00, 0.00, 0.03, 0.03, 1.03
84, 0.00, 23608.87, 0.00, 0.00, 0.00, 0.00, 0.00, 0.00, 0.03, 0.03, 1.03
85, 0.00, 23643.63, 0.00, 0.00, 0.00, 0.00, 0.00, 0.00, 0.03, 0.02, 1.03
86, 0.00, 23642.96, 0.00, 0.00, 0.00, 0.00, 0.00, 0.00, 0.03, 0.02, 1.03
87, 0.00, 23655.10, 0.00, 0.00, 0.00, 0.00, 0.00, 0.00, 0.03, 0.02, 1.03
88, 0.00, 23658.92, 0.00, 0.00, 0.00, 0.00, 0.00, 0.00, 0.03, 0.02, 1.03
89, 0.00, 23659.32, 0.00, 0.00, 0.00, 0.00, 0.00, 0.00, 0.03, 0.02, 1.03
90, 0.00, 23649.66, 0.00, 0.00, 0.00, 0.00, 0.00, 0.00, 0.02, 0.03, 1.02
91, 0.00, 23657.02, 0.00, 0.00, 0.00, 0.00, 0.00, 0.00, 0.02, 0.03, 1.02
92, 0.00, 23664.08, 0.00, 0.00, 0.00, 0.00, 0.00, 0.00, 0.02, 0.03, 1.02
