%OpenBCI Raw EEG Data
%
%Sample Rate = 250.0 Hz
%First Column = SampleIndex
%Other Columns = EEG data in microvolts followed by Accel Data (in G) interleaved with Aux Data
0, 0.00, 22621.42, 0.00, 0.00, 0.00, 0.00, 0.00, 0.00, 0.49, 0.01, 0.02
1, 0.00, 38013.97, 0.00, 0.00, 0.00, 0.00, 0.00, 0.00, 0.49, 0.01, 0.02
2, 0.00, 10833.20, 0.00, 0.00, 0.00, 0.00, 0.00, 0.00, 1.00, 0.03, 0.04
3, 0.00, -7033.07, 0.00, 0.00, 0.00, 0.00, 0.00, 0.00, 1.00, 0.03, 0.04
4, 0.00, 17171.15, 0.00, 0.00, 0.00, 0.00, 0.00, 0.00, 1.00, 0.03, 0.04
5, 0.00, 39199.37, 0.00, 0.00, 0.00, 0.00, 0.00, 0.00, 1.00, 0.03, 0.04
6, 0.00, 17310.17, 0.00, 0.00, 0.00, 0.00, 0.00, 0.00, 1.00, 0.03, 0.04
7, 0.00, -7009.26, 0.00, 0.00, 0.00, 0.00, 0.00, 0.00, 1.00, 0.03, 0.04
8, 0.00, 11049.16, 0.00, 0.00, 0.00, 0.00, 0.00, 0.00, 1.00, 0.03, 0.04
9, 0.00, 38133.71, 0.00, 0.00, 0.00, 0.00, 0.00, 0.00, 1.00, 0.03, 0.04
10, 0.00, 23239.67, 0.00, 0.00, 0.00, 0.00, 0.00, 0.00, 1.00, 0.03, 0.04
11, 0.00, -5726.61, 0.00, 0.00, 0.00, 0.00, 0.00, 0.00, 1.00, 0.03, 0.04
12, 0.00, 5156.28, 0.00, 0.00, 0.00, 0.00, 0.00, 0.00, 0.99, 0.03, 0.03
13, 0.00, 35481.34, 0.00, 0.00, 0.00, 0.00, 0.00, 0.00, 0.99, 0.03, 0.03
14, 0.00, 28785.04, 0.00, 0.00, 0.00, 0.00, 0.00, 0.00, 0.99, 0.03, 0.03
15, 0.00, -2669.71, 0.00, 0.00, 0.00, 0.00, 0.00, 0.00, 0.99, 0.03, 0.03
16, 0.00, 329.87, 0.00, 0.00, 0.00, 0.00, 0.00, 0.00, 0.99, 0.03, 0.03
17, 0.00, 31821.60, 0.00, 0.00, 0.00, 0.00, 0.00, 0.00, 0.99, 0.03, 0.03
18, 0.00, 33756.74, 0.00, 0.00, 0.00, 0.00, 0.00, 0.00, 0.99, 0.03, 0.03
19, 0.00, 2068.61, 0.00, 0.00, 0.00, 0.00, 0.00, 0.00, 0.99, 0.03, 0.03
20, 0.00, -3101.95, 0.00, 0.00, 0.00, 0.00, 0.00, 0.00, 0.99, 0.03, 0.03
21, 0.00, 27359.34, 0.00, 0.00, 0.00, 0.00, 0.00, 0.00, 0.99, 0.03, 0.03
22, 0.00, 37770.22, 0.00, 0.00, 0.00, 0.00, 0.00, 0.00, 0.99, 0.03, 0.04
23, 0.00, 8138.63, 0.00, 0.00, 0.00, 0.00, 0.00, 0.00, 0.99, 0.03, 0.04
24, 0.00, -5004.98, 0.00, 0.00, 0.00, 0.00, 0.00, 0.00, 0.99, 0.03, 0.04
25, 0.00, 22275.70, 0.00, 0.00, 0.00, 0.00, 0.00, 0.00, 0.99, 0.03, 0.04
26, 0.00, 40255.80, 0.00, 0.00, 0.00, 0.00, 0.00, 0.00, 0.99, 0.03, 0.04
27, 0.00, 14797.55, 0.00, 0.00, 0.00, 0.00, 0.00, 0.00, 0.99, 0.03, 0.03
28, 0.00, -5548.17, 0.00, 0.00, 0.00, 0.00, 0.00, 0.00, 0.99, 0.03, 0.03
29, 0.00, 16666.89, 0.00, 0.00, 0.00, 0.00, 0.00, 0.00, 0.99, 0.03, 0.03
30, 0.00, 40842.45, 0.00, 0.00, 0.00, 0.00, 0.00, 0.00, 0.99, 0.03, 0.03
31, 0.00, 21415.03, 0.00, 0.00, 0.00, 0.00, 0.00, 0.00, 0.99, 0.03, 0.03
32, 0.00, -4697.11, 0.00, 0.00, 0.00, 0.00, 0.00, 0.00, 0.99, 0.03, 0.03
33, 0.00, 10994.69, 0.00, 0.00, 0.00, 0.00, 0.00, 0.00, 0.99, 0.03, 0.03
34, 0.00, 39570.21, 0.00, 0.00, 0.00, 0.00, 0.00, 0.00, 0.99, 0.03, 0.03
35, 0.00, 27588.38, 0.00, 0.00, 0.00, 0.00, 0.00, 0.00, 0.99, 0.03, 0.03
36, 0.00, -2549.69, 0.00, 0.00, 0.00, 0.00, 0.00, 0.00, 0.99, 0.03, 0.03
37, 0.00, 5517.17, 0.00, 0.00, 0.00, 0.00, 0.00, 0.00, 0.99, 0.03, 0.04
38, 0.00, 36433.75, 0.00, 0.00, 0.00, 0.00, 0.00, 0.00, 0.99, 0.03, 0.04
39, 0.00, 32742.91, 0.00, 0.00, 0.00, 0.00, 0.00, 0.00, 0.99, 0.03, 0.04
40, 0.00, 854.71, 0.00, 0.00, 0.00, 0.00, 0.00, 0.00, 0.99, 0.03, 0.04
41, 0.00, 760.65, 0.00, 0.00, 0.00, 0.00, 0.00, 0.00, 0.99, 0.03, 0.04
42, 0.00, 31965.65, 0.00, 0.00, 0.00, 0.00, 0.00, 0.00, 0.99, 0.03, 0.03
43, 0.00, 36891.87, 0.00, 0.00, 0.00, 0.00, 0.00, 0.00, 0.99, 0.03, 0.03
44, 0.00, 5545.56, 0.00, 0.00, 0.00, 0.00, 0.00, 0.00, 0.99, 0.03, 0.03
45, 0.00, -2748.93, 0.00, 0.00, 0.00, 0.00, 0.00, 0.00, 0.99, 0.03, 0.03
46, 0.00, 26631.50, 0.00, 0.00, 0.00, 0.00, 0.00, 0.00, 0.99, 0.03, 0.03
47, 0.00, 39744.48, 0.00, 0.00, 0.00, 0.00, 0.00, 0.00, 0.99, 0.03, 0.04
48, 0.00, 11261.14, 0.00, 0.00, 0.00, 0.00, 0.00, 0.00, 0.99, 0.03, 0.04
49, 0.00, -4724.42, 0.00, 0.00, 0.00, 0.00, 0.00, 0.00, 0.99, 0.03, 0.04
50, 0.00, 20865.44, 0.00, 0.00, 0.00, 0.00, 0.00, 0.00, 0.99, 0.03, 0.04
51, 0.00, 41184.03, 0.00, 0.00, 0.00, 0.00, 0.00, 0.00, 0.99, 0.03, 0.04
52, 0.00, 17648.85, 0.00, 0.00, 0.00, 0.00, 0.00, 0.00, 0.98, 0.03, 0.04
53, 0.00, -4996.84, 0.00, 0.00, 0.00, 0.00, 0.00, 0.00, 0.98, 0.03, 0.04
54, 0.00, 15004.75, 0.00, 0.00, 0.00, 0.00, 0.00, 0.00, 0.98, 0.03, 0.04
55, 0.00, 40968.22, 0.00, 0.00, 0.00, 0.00, 0.00, 0.00, 0.98, 0.03, 0.04
56, 0.00, 24100.16, 0.00, 0.00, 0.00, 0.00, 0.00, 0.00, 0.98, 0.03, 0.04
57, 0.00, -3692.78, 0.00, 0.00, 0.00, 0.00, 0.00, 0.00, 0.98, 0.03, 0.03
58, 0.00, 9397.25, 0.00, 0.00, 0.00, 0.00, 0.00, 0.00, 0.98, 0.03, 0.03
59, 0.00, 39063.25, 0.00, 0.00, 0.00, 0.00, 0.00, 0.00, 0.98, 0.03, 0.03
60, 0.00, 29989.74, 0.00, 0.00, 0.00, 0.00, 0.00, 0.00, 0.98, 0.03, 0.03
61, 0.00, -1030.21, 0.00, 0.00, 0.00, 0.00, 0.00, 0.00, 0.98, 0.03, 0.03
62, 0.00, 4150.92, 0.00, 0.00, 0.00, 0.00, 0.00, 0.00, 0.99, 0.03, 0.04
63, 0.00, 35368.80, 0.00, 0.00, 0.00, 0.00, 0.00, 0.00, 0.99, 0.03, 0.04
64, 0.00, 34650.19, 0.00, 0.00, 0.00, 0.00, 0.00, 0.00, 0.99, 0.03, 0.04
65, 0.00, 2529.23, 0.00, 0.00, 0.00, 0.00, 0.00, 0.00, 0.99, 0.03, 0.04
66, 0.00, -632.33, 0.00, 0.00, 0.00, 0.00, 0.00, 0.00, 0.99, 0.03, 0.04
67, 0.00, 30009.81, 0.00, 0.00, 0.00, 0.00, 0.00, 0.00, 0.99, 0.04, 0.03
68, 0.00, 37727.02, 0.00, 0.00, 0.00, 0.00, 0.00, 0.00, 0.99, 0.04, 0.03
69, 0.00, 6926.56, 0.00, 0.00, 0.00, 0.00, 0.00, 0.00, 0.99, 0.04, 0.03
70, 0.00, -4332.39, 0.00, 0.00, 0.00, 0.00, 0.00, 0.00, 0.99, 0.04, 0.03
71, 0.00, 23749.02, 0.00, 0.00, 0.00, 0.00, 0.00, 0.00, 0.99, 0.04, 0.03
72, 0.00, 39342.40, 0.00, 0.00, 0.00, 0.00, 0.00, 0.00, 0.99, 0.04, 0.04
73, 0.00, 12172.49, 0.00, 0.00, 0.00, 0.00, 0.00, 0.00, 0.99, 0.04, 0.04
74, 0.00, -6486.34, 0.00, 0.00, 0.00, 0.00, 0.00, 0.00, 0.99, 0.04, 0.04
75, 0.00, 17102.04, 0.00, 0.00, 0.00, 0.00, 0.00, 0.00, 0.99, 0.04, 0.04
76, 0.00, 39365.49, 0.00, 0.00, 0.00, 0.00, 0.00, 0.00, 0.99, 0.04, 0.04
77, 0.00, 17795.43, 0.00, 0.00, 0.00, 0.00, 0.00, 0.00, 0.98, 0.03, 0.04
78, 0.00, -7002.49, 0.00, 0.00, 0.00, 0.00, 0.00, 0.00, 0.98, 0.03, 0.04
79, 0.00, 10586.37, 0.00, 0.00, 0.00, 0.00, 0.00, 0.00, 0.98, 0.03, 0.04
80, 0.00, 37979.03, 0.00, 0.00, 0.00, 0.00, 0.00, 0.00, 0.98, 0.03, 0.04
81, 0.00, 23646.45, 0.00, 0.00, 0.00, 0.00, 0.00, 0.00, 0.98, 0.03, 0.04
82, 0.00, -5540.06, 0.00, 0.00, 0.00, 0.00, 0.00, 0.00, 0.99, 0.03, 0.05
83, 0.00, 4895.30, 0.00, 0.00, 0.00, 0.00, 0.00, 0.00, 0.99, 0.03, 0.05
84, 0.00, 35418.04, 0.00, 0.00, 0.00, 0.00, 0.00, 0.00, 0.99, 0.03, 0.05
85, 0.00, 29320.17, 0.00, 0.00, 0.00, 0.00, 0.00, 0.00, 0.99, 0.03, 0.05
86, 0.00, -2174.42, 0.00, 0.00, 0.00, 0.00, 0.00, 0.00, 0.99, 0.03, 0.05
87, 0.00, 312.03, 0.00, 0.00, 0.00, 0.00, 0.00, 0.00, 0.99, 0.03, 0.04
88, 0.00, 31805.95, 0.00, 0.00, 0.00, 0.00, 0.00, 0.00, 0.99, 0.03, 0.04
89, 0.00, 34296.70, 0.00, 0.00, 0.00, 0.00, 0.00, 0.00, 0.99, 0.03, 0.04
90, 0.00, 2652.37, 0.00, 0.00, 0.00, 0.00, 0.00, 0.00, 0.99, 0.03, 0.04
91, 0.00, -3106.38, 0.00, 0.00, 0.00, 0.00, 0.00, 0.00, 0.99, 0.03, 0.04
92, 0.00, 27133.86, 0.00, 0.00, 0.00, 0.00, 0.00, 0.00, 0.99, 0.03, 0.04
93, 0.00, 37933.32, 0.00, 0.00, 0.00, 0.00, 0.00, 0.00, 0.99, 0.03, 0.04
94, 0.00, 8397.66, 0.00, 0.00, 0.00, 0.00, 0.00, 0.00, 0.99, 0.03, 0.04
95, 0.00, -5325.66, 0.00, 0.00, 0.00, 0.00, 0.00, 0.00, 0.99, 0.03, 0.04
96, 0.00, 21634.48, 0.00, 0.00, 0.00, 0.00, 0.00, 0.00, 0.99, 0.03, 0.04
97, 0.00, 39963.00, 0.00, 0.00, 0.00, 0.00, 0.00, 0.00, 0.98, 0.03, 0.04
98, 0.00, 14786.82, 0.00, 0.00, 0.00, 0.00, 0.00, 0.00, 0.98, 0.03, 0.04
99, 0.00, -5973.75, 0.00, 0.00, 0.00, 0.00, 0.00, 0.00, 0.98, 0.03, 0.04
100, 0.00, 15894.26, 0.00, 0.00, 0.00, 0.00, 0.00, 0.00, 0.98, 0.03, 0.04
101, 0.00, 40404.44, 0.00, 0.00, 0.00, 0.00, 0.00, 0.00, 0.98, 0.03, 0.04
102, 0.00, 21444.29, 0.00, 0.00, 0.00, 0.00, 0.00, 0.00, 0.99, 0.03, 0.04
103, 0.00, -4899.52, 0.00, 0.00, 0.00, 0.00, 0.00, 0.00, 0.99, 0.03, 0.04
104, 0.00, 10483.84, 0.00, 0.00, 0.00, 0.00, 0.00, 0.00, 0.99, 0.03, 0.04
105, 0.00, 39395.44, 0.00, 0.00, 0.00, 0.00, 0.00, 0.00, 0.99, 0.03, 0.04
106, 0.00, 28046.95, 0.00, 0.00, 0.00, 0.00, 0.00, 0.00, 0.99, 0.03, 0.04
107, 0.00, -2050.68, 0.00, 0.00, 0.00, 0.00, 0.00, 0.00, 0.99, 0.03, 0.04
108, 0.00, 5751.39, 0.00, 0.00, 0.00, 0.00, 0.00, 0.00, 0.99, 0.03, 0.04
109, 0.00, 36978.46, 0.00, 0.00, 0.00, 0.00, 0.00, 0.00, 0.99, 0.03, 0.04
110, 0.00, 33987.23, 0.00, 0.00, 0.00, 0.00, 0.00, 0.00, 0.99, 0.03, 0.04
111, 0.00, 2182.38, 0.00, 0.00, 0.00, 0.00, 0.00, 0.00, 0.99, 0.03, 0.04
112, 0.00, 1651.70, 0.00, 0.00, 0.00, 0.00, 0.00, 0.00, 0.99, 0.03, 0.04
113, 0.00, 32828.74, 0.00, 0.00, 0.00, 0.00, 0.00, 0.00, 0.99, 0.03, 0.04
114, 0.00, 38222.51, 0.00, 0.00, 0.00, 0.00, 0.00, 0.00, 0.99, 0.03, 0.04
115, 0.00, 6846.96, 0.00, 0.00, 0.00, 0.00, 0.00, 0.00, 0.99, 0.03, 0.04
116, 0.00, -2148.38, 0.00, 0.00, 0.00, 0.00, 0.00, 0.00, 0.99, 0.03, 0.04
117, 0.00, 26836.15, 0.00, 0.00, 0.00, 0.00, 0.00, 0.00, 0.99, 0.03, 0.04
118, 0.00, 40193.06, 0.00, 0.00, 0.00, 0.00, 0.00, 0.00, 0.99, 0.03, 0.04
119, 0.00, 11653.91, 0.00, 0.00, 0.00, 0.00, 0.00, 0.00, 0.99, 0.03, 0.04
120, 0.00, -5164.08, 0.00, 0.00, 0.00, 0.00, 0.00, 0.00, 0.99, 0.03, 0.04
121, 0.00, 19731.07, 0.00, 0.00, 0.00, 0.00, 0.00, 0.00, 0.99, 0.03, 0.04
122, 0.00, 40052.92, 0.00, 0.00, 0.00, 0.00, 0.00, 0.00, 0.99, 0.03, 0.04
123, 0.00, 16457.90, 0.00, 0.00, 0.00, 0.00, 0.00, 0.00, 0.99, 0.03, 0.04
124, 0.00, -7061.83, 0.00, 0.00, 0.00, 0.00, 0.00, 0.00, 0.99, 0.03, 0.04
125, 0.00, 12047.23, 0.00, 0.00, 0.00, 0.00, 0.00, 0.00, 0.99, 0.03, 0.04
126, 0.00, 37856.03, 0.00, 0.00, 0.00, 0.00, 0.00, 0.00, 0.99, 0.03, 0.04
127, 0.00, 20983.57, 0.00, 0.00, 0.00, 0.00, 0.00, 0.00, 0.99, 0.03, 0.04
128, 0.00, -7550.84, 0.00, 0.00, 0.00, 0.00, 0.00, 0.00, 0.99, 0.03, 0.04
129, 0.00, 4570.13, 0.00, 0.00, 0.00, 0.00, 0.00, 0.00, 0.99, 0.03, 0.04
130, 0.00, 33989.69, 0.00, 0.00, 0.00, 0.00, 0.00, 0.00, 0.99, 0.03, 0.04
131, 0.00, 25074.66, 0.00, 0.00, 0.00, 0.00, 0.00, 0.00, 0.99, 0.03, 0.04
132, 0.00, -6439.16, 0.00, 0.00, 0.00, 0.00, 0.00, 0.00, 0.99, 0.03, 0.04
133, 0.00, -2113.09, 0.00, 0.00, 0.00, 0.00, 0.00, 0.00, 0.99, 0.03, 0.04
134, 0.00, 28941.33, 0.00, 0.00, 0.00, 0.00, 0.00, 0.00, 0.99, 0.03, 0.04
135, 0.00, 28654.69, 0.00, 0.00, 0.00, 0.00, 0.00, 0.00, 0.99, 0.03, 0.04
136, 0.00, -3505.69, 0.00, 0.00, 0.00, 0.00, 0.00, 0.00, 0.99, 0.03, 0.04
137, 0.00, -7227.01, 0.00, 0.00, 0.00, 0.00, 0.00, 0.00, 0.99, 0.03, 0.04
138, 0.00, 23394.74, 0.00, 0.00, 0.00, 0.00, 0.00, 0.00, 0.99, 0.03, 0.04
139, 0.00, 31782.08, 0.00, 0.00, 0.00, 0.00, 0.00, 0.00, 0.99, 0.03, 0.04
140, 0.00, 1311.73, 0.00, 0.00, 0.00, 0.00, 0.00, 0.00, 0.99, 0.03, 0.04
141, 0.00, -10310.95, 0.00, 0.00, 0.00, 0.00, 0.00, 0.00, 0.99, 0.03, 0.04
142, 0.00, 17740.22, 0.00, 0.00, 0.00, 0.00, 0.00, 0.00, 0.99, 0.03, 0.04
143, 0.00, 34019.44, 0.00, 0.00, 0.00, 0.00, 0.00, 0.00, 0.99, 0.03, 0.04
144, 0.00, 7334.72, 0.00, 0.00, 0.00, 0.00, 0.00, 0.00, 0.99, 0.03, 0.04
145, 0.00, -11633.50, 0.00, 0.00, 0.00, 0.00, 0.00, 0.00, 0.99, 0.03, 0.04
146, 0.00, 11782.30, 0.00, 0.00, 0.00, 0.00, 0.00, 0.00, 0.99, 0.03, 0.04
147, 0.00, 34643.10, 0.00, 0.00, 0.00, 0.00, 0.00, 0.00, 0.99, 0.03, 0.04
148, 0.00, 13667.04, 0.00, 0.00, 0.00, 0.00, 0.00, 0.00, 0.99, 0.03, 0.04
149, 0.00, -11349.63, 0.00, 0.00, 0.00, 0.00, 0.00, 0.00, 0.99, 0.03, 0.04
150, 0.00, 5940.89, 0.00, 0.00, 0.00, 0.00, 0.00, 0.00, 0.99, 0.03, 0.04
151, 0.00, 33770.45, 0.00, 0.00, 0.00, 0.00, 0.00, 0.00, 0.99, 0.03, 0.04
152, 0.00, 20069.77, 0.00, 0.00, 0.00, 0.00, 0.00, 0.00, 0.99, 0.03, 0.04
153, 0.00, -9308.56, 0.00, 0.00, 0.00, 0.00, 0.00, 0.00, 1.00, 0.03, 0.04
154, 0.00, 607.45, 0.00, 0.00, 0.00, 0.00, 0.00, 0.00, 1.00, 0.03, 0.04
155, 0.00, 31281.78, 0.00, 0.00, 0.00, 0.00, 0.00, 0.00, 1.00, 0.03, 0.04
156, 0.00, 25711.05, 0.00, 0.00, 0.00, 0.00, 0.00, 0.00, 1.00, 0.03, 0.04
157, 0.00, -5999.34, 0.00, 0.00, 0.00, 0.00, 0.00, 0.00, 1.00, 0.03, 0.04
158, 0.00, -4222.56, 0.00, 0.00, 0.00, 0.00, 0.00, 0.00, 0.99, 0.04, 0.03
159, 0.00, 27121.43, 0.00, 0.00, 0.00, 0.00, 0.00, 0.00, 0.99, 0.04, 0.03
160, 0.00, 30023.62, 0.00, 0.00, 0.00, 0.00, 0.00, 0.00, 0.99, 0.04, 0.03
161, 0.00, -1776.58, 0.00, 0.00, 0.00, 0.00, 0.00, 0.00, 0.99, 0.04, 0.03
162, 0.00, -8307.45, 0.00, 0.00, 0.00, 0.00, 0.00, 0.00, 0.99, 0.04, 0.03
163, 0.00, 21658.13, 0.00, 0.00, 0.00, 0.00, 0.00, 0.00, 0.99, 0.03, 0.04
164, 0.00, 32910.57, 0.00, 0.00, 0.00, 0.00, 0.00, 0.00, 0.99, 0.03, 0.04
165, 0.00, 3502.52, 0.00, 0.00, 0.00, 0.00, 0.00, 0.00, 0.99, 0.03, 0.04
166, 0.00, -10780.96, 0.00, 0.00, 0.00, 0.00, 0.00, 0.00, 0.99, 0.03, 0.04
167, 0.00, 15892.00, 0.00, 0.00, 0.00, 0.00, 0.00, 0.00, 0.99, 0.03, 0.04
168, 0.00, 34705.42, 0.00, 0.00, 0.00, 0.00, 0.00, 0.00, 0.99, 0.03, 0.03
169, 0.00, 9858.10, 0.00, 0.00, 0.00, 0.00, 0.00, 0.00, 0.99, 0.03, 0.03
170, 0.00, -11361.64, 0.00, 0.00, 0.00, 0.00, 0.00, 0.00, 0.99, 0.03, 0.03
171, 0.00, 10070.44, 0.00, 0.00, 0.00, 0.00, 0.00, 0.00, 0.99, 0.03, 0.03
172, 0.00, 34846.39, 0.00, 0.00, 0.00, 0.00, 0.00, 0.00, 0.99, 0.03, 0.03
173, 0.00, 16117.22, 0.00, 0.00, 0.00, 0.00, 0.00, 0.00, 0.99, 0.04, 0.04
174, 0.00, -10869.29, 0.00, 0.00, 0.00, 0.00, 0.00, 0.00, 0.99, 0.04, 0.04
175, 0.00, 3675.90, 0.00, 0.00, 0.00, 0.00, 0.00, 0.00, 0.99, 0.04, 0.04
176, 0.00, 32385.62, 0.00, 0.00, 0.00, 0.00, 0.00, 0.00, 0.99, 0.04, 0.04
177, 0.00, 21011.44, 0.00, 0.00, 0.00, 0.00, 0.00, 0.00, 0.99, 0.04, 0.04
178, 0.00, -9888.41, 0.00, 0.00, 0.00, 0.00, 0.00, 0.00, 0.99, 0.03, 0.04
179, 0.00, -3224.53, 0.00, 0.00, 0.00, 0.00, 0.00, 0.00, 0.99, 0.03, 0.04
180, 0.00, 27478.14, 0.00, 0.00, 0.00, 0.00, 0.00, 0.00, 0.99, 0.03, 0.04
181, 0.00, 24410.29, 0.00, 0.00, 0.00, 0.00, 0.00, 0.00, 0.99, 0.03, 0.04
182, 0.00, -7991.73, 0.00, 0.00, 0.00, 0.00, 0.00, 0.00, 0.99, 0.03, 0.04
183, 0.00, -9521.22, 0.00, 0.00, 0.00, 0.00, 0.00, 0.00, 0.99, 0.03, 0.04
184, 0.00, 21242.52, 0.00, 0.00, 0.00, 0.00, 0.00, 0.00, 0.99, 0.03, 0.04
185, 0.00, 26834.16, 0.00, 0.00, 0.00, 0.00, 0.00, 0.00, 0.99, 0.03, 0.04
186, 0.00, -4655.44, 0.00, 0.00, 0.00, 0.00, 0.00, 0.00, 0.99, 0.03, 0.04
187, 0.00, -14207.57, 0.00, 0.00, 0.00, 0.00, 0.00, 0.00, 0.99, 0.03, 0.04
188, 0.00, 14602.37, 0.00, 0.00, 0.00, 0.00, 0.00, 0.00, 0.98, 0.03, 0.04
189, 0.00, 28438.55, 0.00, 0.00, 0.00, 0.00, 0.00, 0.00, 0.98, 0.03, 0.04
190, 0.00, 228.10, 0.00, 0.00, 0.00, 0.00, 0.00, 0.00, 0.98, 0.03, 0.04
191, 0.00, -16791.90, 0.00, 0.00, 0.00, 0.00, 0.00, 0.00, 0.98, 0.03, 0.04
192, 0.00, 8104.36, 0.00, 0.00, 0.00, 0.00, 0.00, 0.00, 0.98, 0.03, 0.04
193, 0.00, 29072.47, 0.00, 0.00, 0.00, 0.00, 0.00, 0.00, 0.99, 0.03, 0.04
194, 0.00, 6090.60, 0.00, 0.00, 0.00, 0.00, 0.00, 0.00, 0.99, 0.03, 0.04
195, 0.00, -17390.37, 0.00, 0.00, 0.00, 0.00, 0.00, 0.00, 0.99, 0.03, 0.04
196, 0.00, 1774.55, 0.00, 0.00, 0.00, 0.00, 0.00, 0.00, 0.99, 0.03, 0.04
197, 0.00, 28215.90, 0.00, 0.00, 0.00, 0.00, 0.00, 0.00, 0.99, 0.03, 0.04
198, 0.00, 12085.43, 0.00, 0.00, 0.00, 0.00, 0.00, 0.00, 0.99, 0.02, 0.04
199, 0.00, -16291.38, 0.00, 0.00, 0.00, 0.00, 0.00, 0.00, 0.99, 0.02, 0.04
200, 0.00, -4146.45, 0.00, 0.00, 0.00, 0.00, 0.00, 0.00, 0.99, 0.02, 0.04
201, 0.00, 25806.83, 0.00, 0.00, 0.00, 0.00, 0.00, 0.00, 0.99, 0.02, 0.04
202, 0.00, 17645.38, 0.00, 0.00, 0.00, 0.00, 0.00, 0.00, 0.99, 0.02, 0.04
203, 0.00, -13670.13, 0.00, 0.00, 0.00, 0.00, 0.00, 0.00, 0.99, 0.02, 0.04
204, 0.00, -9495.83, 0.00, 0.00, 0.00, 0.00, 0.00, 0.00, 0.99, 0.02, 0.04
205, 0.00, 21837.50, 0.00, 0.00, 0.00, 0.00, 0.00, 0.00, 0.99, 0.02, 0.04
206, 0.00, 22179.05, 0.00, 0.00, 0.00, 0.00, 0.00, 0.00, 0.99, 0.02, 0.04
207, 0.00, -9906.11, 0.00, 0.00, 0.00, 0.00, 0.00, 0.00, 0.99, 0.02, 0.04
208, 0.00, -14019.04, 0.00, 0.00, 0.00, 0.00, 0.00, 0.00, 0.99, 0.02, 0.04
209, 0.00, 16511.43, 0.00, 0.00, 0.00, 0.00, 0.00, 0.00, 0.99, 0.02, 0.04
210, 0.00, 25262.92, 0.00, 0.00, 0.00, 0.00, 0.00, 0.00, 0.99, 0.02, 0.04
211, 0.00, -5221.99, 0.00, 0.00, 0.00, 0.00, 0.00, 0.00, 0.99, 0.02, 0.04
212, 0.00, -17414.76, 0.00, 0.00, 0.00, 0.00, 0.00, 0.00, 0.99, 0.02, 0.04
213, 0.00, 10326.30, 0.00, 0.00, 0.00, 0.00, 0.00, 0.00, 0.99, 0.02, 0.04
214, 0.00, 26927.62, 0.00, 0.00, 0.00, 0.00, 0.00, 0.00, 0.99, 0.02, 0.04
215, 0.00, 440.73, 0.00, 0.00, 0.00, 0.00, 0.00, 0.00, 0.99, 0.02, 0.04
216, 0.00, -18908.05, 0.00, 0.00, 0.00, 0.00, 0.00, 0.00, 0.99, 0.02, 0.04
217, 0.00, 4229.42, 0.00, 0.00, 0.00, 0.00, 0.00, 0.00, 0.99, 0.02, 0.04
218, 0.00, 27460.75, 0.00, 0.00, 0.00, 0.00, 0.00, 0.00, 0.99, 0.02, 0.04
219, 0.00, 6862.19, 0.00, 0.00, 0.00, 0.00, 0.00, 0.00, 0.99, 0.02, 0.04
220, 0.00, -18483.15, 0.00, 0.00, 0.00, 0.00, 0.00, 0.00, 0.99, 0.02, 0.04
221, 0.00, -1630.25, 0.00, 0.00, 0.00, 0.00, 0.00, 0.00, 0.99, 0.02, 0.04
222, 0.00, 26357.42, 0.00, 0.00, 0.00, 0.00, 0.00, 0.00, 0.99, 0.02, 0.04
223, 0.00, 13015.40, 0.00, 0.00, 0.00, 0.00, 0.00, 0.00, 0.99, 0.02, 0.04
224, 0.00, -16645.63, 0.00, 0.00, 0.00, 0.00, 0.00, 0.00, 0.99, 0.02, 0.04
225, 0.00, -7270.49, 0.00, 0.00, 0.00, 0.00, 0.00, 0.00, 0.99, 0.02, 0.04
226, 0.00, 23452.48, 0.00, 0.00, 0.00, 0.00, 0.00, 0.00, 0.99, 0.02, 0.04
227, 0.00, 18309.86, 0.00, 0.00, 0.00, 0.00, 0.00, 0.00, 0.99, 0.02, 0.04
228, 0.00, -13530.65, 0.00, 0.00, 0.00, 0.00, 0.00, 0.00, 0.99, 0.02, 0.03
229, 0.00, -12240.91, 0.00, 0.00, 0.00, 0.00, 0.00, 0.00, 0.99, 0.02, 0.03
230, 0.00, 19112.04, 0.00, 0.00, 0.00, 0.00, 0.00, 0.00, 0.99, 0.02, 0.03
231, 0.00, 22577.99, 0.00, 0.00, 0.00, 0.00, 0.00, 0.00, 0.99, 0.02, 0.03
232, 0.00, -9098.12, 0.00, 0.00, 0.00, 0.00, 0.00, 0.00, 0.99, 0.02, 0.03
233, 0.00, -16002.80, 0.00, 0.00, 0.00, 0.00, 0.00, 0.00, 0.99, 0.02, 0.03
234, 0.00, 13928.40, 0.00, 0.00, 0.00, 0.00, 0.00, 0.00, 0.99, 0.02, 0.03
235, 0.00, 25791.48, 0.00, 0.00, 0.00, 0.00, 0.00, 0.00, 0.99, 0.02, 0.03
236, 0.00, -3300.37, 0.00, 0.00, 0.00, 0.00, 0.00, 0.00, 0.99, 0.02, 0.03
237, 0.00, -17945.70, 0.00, 0.00, 0.00, 0.00, 0.00, 0.00, 0.99, 0.02, 0.03
238, 0.00, 8579.47, 0.00, 0.00, 0.00, 0.00, 0.00, 0.00, 0.99, 0.03, 0.04
239, 0.00, 27962.57, 0.00, 0.00, 0.00, 0.00, 0.00, 0.00, 0.99, 0.03, 0.04
240, 0.00, 3626.59, 0.00, 0.00, 0.00, 0.00, 0.00, 0.00, 0.99, 0.03, 0.04
241, 0.00, -17813.87, 0.00, 0.00, 0.00, 0.00, 0.00, 0.00, 0.99, 0.03, 0.04
242, 0.00, 3468.68, 0.00, 0.00, 0.00, 0.00, 0.00, 0.00, 0.99, 0.03, 0.04
243, 0.00, 28887.97, 0.00, 0.00, 0.00, 0.00, 0.00, 0.00, 0.99, 0.03, 0.04
244, 0.00, 10967.13, 0.00, 0.00, 0.00, 0.00, 0.00, 0.00, 0.99, 0.03, 0.04
245, 0.00, -15938.96, 0.00, 0.00, 0.00, 0.00, 0.00, 0.00, 0.99, 0.03, 0.04
246, 0.00, -1412.21, 0.00, 0.00, 0.00, 0.00, 0.00, 0.00, 0.99, 0.03, 0.04
247, 0.00, 28009.93, 0.00, 0.00, 0.00, 0.00, 0.00, 0.00, 0.99, 0.03, 0.04
248, 0.00, 17699.88, 0.00, 0.00, 0.00, 0.00, 0.00, 0.00, 0.99, 0.03, 0.04
249, 0.00, -12866.07, 0.00, 0.00, 0.00, 0.00, 0.00, 0.00, 0.99, 0.03, 0.04
250, 0.00, -6176.26, 0.00, 0.00, 0.00, 0.00, 0.00, 0.00, 0.99, 0.03, 0.04
251, 0.00, 25168.24, 0.00, 0.00, 0.00, 0.00, 0.00, 0.00, 0.99, 0.03, 0.04
252, 0.00, 23212.73, 0.00, 0.00, 0.00, 0.00, 0.00, 0.00, 0.99, 0.03, 0.04
253, 0.00, -8726.70, 0.00, 0.00, 0.00, 0.00, 0.00, 0.00, 1.00, 0.03, 0.04
254, 0.00, -10272.71, 0.00, 0.00, 0.00, 0.00, 0.00, 0.00, 1.00, 0.03, 0.04
255, 0.00, 20945.04, 0.00, 0.00, 0.00, 0.00, 0.00, 0.00, 1.00, 0.03, 0.04
0, 0.00, 27588.94, 0.00, 0.00, 0.00, 0.00, 0.00, 0.00, 1.00, 0.03, 0.04
1, 0.00, -3381.62, 0.00, 0.00, 0.00, 0.00, 0.00, 0.00, 1.00, 0.03, 0.04
2, 0.00, -13133.46, 0.00, 0.00, 0.00, 0.00, 0.00, 0.00, 0.99, 0.03, 0.04
3, 0.00, 15729.01, 0.00, 0.00, 0.00, 0.00, 0.00, 0.00, 0.99, 0.03, 0.04
4, 0.00, 30177.13, 0.00, 0.00, 0.00, 0.00, 0.00, 0.00, 0.99, 0.03, 0.04
5, 0.00, 2181.46, 0.00, 0.00, 0.00, 0.00, 0.00, 0.00, 0.99, 0.03, 0.04
6, 0.00, -15487.17, 0.00, 0.00, 0.00, 0.00, 0.00, 0.00, 0.99, 0.03, 0.04
7, 0.00, 8843.98, 0.00, 0.00, 0.00, 0.00, 0.00, 0.00, 0.99, 0.02, 0.04
8, 0.00, 29968.05, 0.00, 0.00, 0.00, 0.00, 0.00, 0.00, 0.99, 0.02, 0.04
9, 0.00, 7068.78, 0.00, 0.00, 0.00, 0.00, 0.00, 0.00, 0.99, 0.02, 0.04
10, 0.00, -17140.03, 0.00, 0.00, 0.00, 0.00, 0.00, 0.00, 0.99, 0.02, 0.04
11, 0.00, 1323.54, 0.00, 0.00, 0.00, 0.00, 0.00, 0.00, 0.99, 0.02, 0.04
12, 0.00, 27898.66, 0.00, 0.00, 0.00, 0.00, 0.00, 0.00, 0.99, 0.03, 0.04
13, 0.00, 12168.85, 0.00, 0.00, 0.00, 0.00, 0.00, 0.00, 0.99, 0.03, 0.04
14, 0.00, -16566.35, 0.00, 0.00, 0.00, 0.00, 0.00, 0.00, 0.99, 0.03, 0.04
15, 0.00, -4919.10, 0.00, 0.00, 0.00, 0.00, 0.00, 0.00, 0.99, 0.03, 0.04
16, 0.00, 25307.90, 0.00, 0.00, 0.00, 0.00, 0.00, 0.00, 0.99, 0.03, 0.04
17, 0.00, 17835.48, 0.00, 0.00, 0.00, 0.00, 0.00, 0.00, 0.99, 0.03, 0.04
18, 0.00, -13468.11, 0.00, 0.00, 0.00, 0.00, 0.00, 0.00, 0.99, 0.03, 0.04
19, 0.00, -9671.24, 0.00, 0.00, 0.00, 0.00, 0.00, 0.00, 0.99, 0.03, 0.04
20, 0.00, 21868.30, 0.00, 0.00, 0.00, 0.00, 0.00, 0.00, 0.99, 0.03, 0.04
21, 0.00, 22978.98, 0.00, 0.00, 0.00, 0.00, 0.00, 0.00, 0.99, 0.03, 0.04
22, 0.00, -8900.51, 0.00, 0.00, 0.00, 0.00, 0.00, 0.00, 0.99, 0.03, 0.04
23, 0.00, -13422.42, 0.00, 0.00, 0.00, 0.00, 0.00, 0.00, 0.99, 0.03, 0.04
24, 0.00, 17172.82, 0.00, 0.00, 0.00, 0.00, 0.00, 0.00, 0.99, 0.03, 0.04
25, 0.00, 26646.03, 0.00, 0.00, 0.00, 0.00, 0.00, 0.00, 0.99, 0.03, 0.04
26, 0.00, -3542.21, 0.00, 0.00, 0.00, 0.00, 0.00, 0.00, 0.99, 0.03, 0.04
27, 0.00, -16164.36, 0.00, 0.00, 0.00, 0.00, 0.00, 0.00, 0.99, 0.03, 0.04
28, 0.00, 11431.96, 0.00, 0.00, 0.00, 0.00, 0.00, 0.00, 0.99, 0.03, 0.04
29, 0.00, 28585.22, 0.00, 0.00, 0.00, 0.00, 0.00, 0.00, 0.99, 0.03, 0.04
30, 0.00, 2414.52, 0.00, 0.00, 0.00, 0.00, 0.00, 0.00, 0.99, 0.03, 0.04
31, 0.00, -17439.34, 0.00, 0.00, 0.00, 0.00, 0.00, 0.00, 0.99, 0.03, 0.04
32, 0.00, 5280.38, 0.00, 0.00, 0.00, 0.00, 0.00, 0.00, 0.99, 0.03, 0.04
33, 0.00, 28792.33, 0.00, 0.00, 0.00, 0.00, 0.00, 0.00, 0.99, 0.03, 0.04
34, 0.00, 8479.92, 0.00, 0.00, 0.00, 0.00, 0.00, 0.00, 0.99, 0.03, 0.04
35, 0.00, -17361.87, 0.00, 0.00, 0.00, 0.00, 0.00, 0.00, 0.99, 0.03, 0.04
36, 0.00, -1063.09, 0.00, 0.00, 0.00, 0.00, 0.00, 0.00, 0.99, 0.03, 0.04
37, 0.00, 27046.15, 0.00, 0.00, 0.00, 0.00, 0.00, 0.00, 0.99, 0.03, 0.03
38, 0.00, 14070.09, 0.00, 0.00, 0.00, 0.00, 0.00, 0.00, 0.99, 0.03, 0.03
39, 0.00, -15916.70, 0.00, 0.00, 0.00, 0.00, 0.00, 0.00, 0.99, 0.03, 0.03
40, 0.00, -7075.80, 0.00, 0.00, 0.00, 0.00, 0.00, 0.00, 0.99, 0.03, 0.03
41, 0.00, 23731.96, 0.00, 0.00, 0.00, 0.00, 0.00, 0.00, 0.99, 0.03, 0.03
42, 0.00, 19080.61, 0.00, 0.00, 0.00, 0.00, 0.00, 0.00, 0.99, 0.03, 0.04
43, 0.00, -12893.02, 0.00, 0.00, 0.00, 0.00, 0.00, 0.00, 0.99, 0.03, 0.04
44, 0.00, -12190.33, 0.00, 0.00, 0.00, 0.00, 0.00, 0.00, 0.99, 0.03, 0.04
45, 0.00, 19121.47, 0.00, 0.00, 0.00, 0.00, 0.00, 0.00, 0.99, 0.03, 0.04
46, 0.00, 23079.03, 0.00, 0.00, 0.00, 0.00, 0.00, 0.00, 0.99, 0.03, 0.04
47, 0.00, -8662.24, 0.00, 0.00, 0.00, 0.00, 0.00, 0.00, 0.99, 0.03, 0.04
48, 0.00, -16270.46, 0.00, 0.00, 0.00, 0.00, 0.00, 0.00, 0.99, 0.03, 0.04
49, 0.00, 13308.67, 0.00, 0.00, 0.00, 0.00, 0.00, 0.00, 0.99, 0.03, 0.04
50, 0.00, 25415.52, 0.00, 0.00, 0.00, 0.00, 0.00, 0.00, 0.99, 0.03, 0.04
51, 0.00, -3796.09, 0.00, 0.00, 0.00, 0.00, 0.00, 0.00, 0.99, 0.03, 0.04
52, 0.00, -19276.01, 0.00, 0.00, 0.00, 0.00, 0.00, 0.00, 0.99, 0.03, 0.04
53, 0.00, 6636.59, 0.00, 0.00, 0.00, 0.00, 0.00, 0.00, 0.99, 0.03, 0.04
54, 0.00, 26121.72, 0.00, 0.00, 0.00, 0.00, 0.00, 0.00, 0.99, 0.03, 0.04
55, 0.00, 1776.87, 0.00, 0.00, 0.00, 0.00, 0.00, 0.00, 0.99, 0.03, 0.04
56, 0.00, -20359.11, 0.00, 0.00, 0.00, 0.00, 0.00, 0.00, 0.99, 0.03, 0.04
57, 0.00, 312.39, 0.00, 0.00, 0.00, 0.00, 0.00, 0.00, 0.99, 0.03, 0.03
58, 0.00, 25831.11, 0.00, 0.00, 0.00, 0.00, 0.00, 0.00, 0.99, 0.03, 0.03
59, 0.00, 8147.19, 0.00, 0.00, 0.00, 0.00, 0.00, 0.00, 0.99, 0.03, 0.03
60, 0.00, -19217.96, 0.00, 0.00, 0.00, 0.00, 0.00, 0.00, 0.99, 0.03, 0.03
61, 0.00, -5255.05, 0.00, 0.00, 0.00, 0.00, 0.00, 0.00, 0.99, 0.03, 0.03
62, 0.00, 24265.46, 0.00, 0.00, 0.00, 0.00, 0.00, 0.00, 0.99, 0.03, 0.03
63, 0.00, 14360.91, 0.00, 0.00, 0.00, 0.00, 0.00, 0.00, 0.99, 0.03, 0.03
64, 0.00, -16408.59, 0.00, 0.00, 0.00, 0.00, 0.00, 0.00, 0.99, 0.03, 0.03
65, 0.00, -10252.52, 0.00, 0.00, 0.00, 0.00, 0.00, 0.00, 0.99, 0.03, 0.03
66, 0.00, 21095.67, 0.00, 0.00, 0.00, 0.00, 0.00, 0.00, 0.99, 0.03, 0.03
67, 0.00, 19559.47, 0.00, 0.00, 0.00, 0.00, 0.00, 0.00, 0.99, 0.03, 0.03
68, 0.00, -12534.99, 0.00, 0.00, 0.00, 0.00, 0.00, 0.00, 0.99, 0.04, 0.05
69, 0.00, -14716.86, 0.00, 0.00, 0.00, 0.00, 0.00, 0.00, 0.99, 0.04, 0.05
70, 0.00, 16264.18, 0.00, 0.00, 0.00, 0.00, 0.00, 0.00, 0.99, 0.04, 0.05
71, 0.00, 23225.83, 0.00, 0.00, 0.00, 0.00, 0.00, 0.00, 0.99, 0.04, 0.05
72, 0.00, -7791.13, 0.00, 0.00, 0.00, 0.00, 0.00, 0.00, 0.99, 0.04, 0.05
73, 0.00, -18173.91, 0.00, 0.00, 0.00, 0.00, 0.00, 0.00, 0.99, 0.03, 0.05
74, 0.00, 10411.80, 0.00, 0.00, 0.00, 0.00, 0.00, 0.00, 0.99, 0.03, 0.05
75, 0.00, 25354.23, 0.00, 0.00, 0.00, 0.00, 0.00, 0.00, 0.99, 0.03, 0.05
76, 0.00, -2309.45, 0.00, 0.00, 0.00, 0.00, 0.00, 0.00, 0.99, 0.03, 0.05
77, 0.00, -20303.01, 0.00, 0.00, 0.00, 0.00, 0.00, 0.00, 0.99, 0.03, 0.05
78, 0.00, 3898.23, 0.00, 0.00, 0.00, 0.00, 0.00, 0.00, 0.99, 0.03, 0.05
79, 0.00, 25623.01, 0.00, 0.00, 0.00, 0.00, 0.00, 0.00, 0.99, 0.03, 0.05
80, 0.00, 3274.84, 0.00, 0.00, 0.00, 0.00, 0.00, 0.00, 0.99, 0.03, 0.05
81, 0.00, -21217.44, 0.00, 0.00, 0.00, 0.00, 0.00, 0.00, 0.99, 0.03, 0.05
82, 0.00, -3211.16, 0.00, 0.00, 0.00, 0.00, 0.00, 0.00, 0.99, 0.03, 0.05
83, 0.00, 23413.21, 0.00, 0.00, 0.00, 0.00, 0.00, 0.00, 0.99, 0.03, 0.04
84, 0.00, 7792.91, 0.00, 0.00, 0.00, 0.00, 0.00, 0.00, 0.99, 0.03, 0.04
85, 0.00, -21525.89, 0.00, 0.00, 0.00, 0.00, 0.00, 0.00, 0.99, 0.03, 0.04
86, 0.00, -10654.70, 0.00, 0.00, 0.00, 0.00, 0.00, 0.00, 0.99, 0.03, 0.04
87, 0.00, 19413.79, 0.00, 0.00, 0.00, 0.00, 0.00, 0.00, 0.99, 0.03, 0.04
88, 0.00, 12206.60, 0.00, 0.00, 0.00, 0.00, 0.00, 0.00, 1.00, 0.03, 0.04
89, 0.00, -19389.36, 0.00, 0.00, 0.00, 0.00, 0.00, 0.00, 1.00, 0.03, 0.04
90, 0.00, -16194.82, 0.00, 0.00, 0.00, 0.00, 0.00, 0.00, 1.00, 0.03, 0.04
91, 0.00, 15292.24, 0.00, 0.00, 0.00, 0.00, 0.00, 0.00, 1.00, 0.03, 0.04
92, 0.00, 16902.68, 0.00, 0.00, 0.00, 0.00, 0.00, 0.00, 1.00, 0.03, 0.04
93, 0.00, -14929.27, 0.00, 0.00, 0.00, 0.00, 0.00, 0.00, 1.00, 0.03, 0.04
94, 0.00, -19893.07, 0.00, 0.00, 0.00, 0.00, 0.00, 0.00, 1.00, 0.03, 0.04
95, 0.00, 10675.66, 0.00, 0.00, 0.00, 0.00, 0.00, 0.00, 1.00, 0.03, 0.04
96, 0.00, 20765.13, 0.00, 0.00, 0.00, 0.00, 0.00, 0.00, 1.00, 0.03, 0.04
97, 0.00, -9126.35, 0.00, 0.00, 0.00, 0.00, 0.00, 0.00, 1.00, 0.03, 0.04
98, 0.00, -22166.76, 0.00, 0.00, 0.00, 0.00, 0.00, 0.00, 0.99, 0.03, 0.03
99, 0.00, 5220.43, 0.00, 0.00, 0.00, 0.00, 0.00, 0.00, 0.99, 0.03, 0.03
100, 0.00, 22788.01, 0.00, 0.00, 0.00, 0.00, 0.00, 0.00, 0.99, 0.03, 0.03
101, 0.00, -3170.35, 0.00, 0.00, 0.00, 0.00, 0.00, 0.00, 0.99, 0.03, 0.03
102, 0.00, -23563.25, 0.00, 0.00, 0.00, 0.00, 0.00, 0.00, 0.99, 0.03, 0.03
103, 0.00, -1330.11, 0.00, 0.00, 0.00, 0.00, 0.00, 0.00, 0.99, 0.03, 0.04
104, 0.00, 22371.55, 0.00, 0.00, 0.00, 0.00, 0.00, 0.00, 0.99, 0.03, 0.04
105, 0.00, 2296.66, 0.00, 0.00, 0.00, 0.00, 0.00, 0.00, 0.99, 0.03, 0.04
106, 0.00, -24050.83, 0.00, 0.00, 0.00, 0.00, 0.00, 0.00, 0.99, 0.03, 0.04
107, 0.00, -8363.06, 0.00, 0.00, 0.00, 0.00, 0.00, 0.00, 0.99, 0.03, 0.04
108, 0.00, 19825.35, 0.00, 0.00, 0.00, 0.00, 0.00, 0.00, 0.99, 0.04, 0.04
109, 0.00, 7229.98, 0.00, 0.00, 0.00, 0.00, 0.00, 0.00, 0.99, 0.04, 0.04
110, 0.00, -23054.75, 0.00, 0.00, 0.00, 0.00, 0.00, 0.00, 0.99, 0.04, 0.04
111, 0.00, -14789.77, 0.00, 0.00, 0.00, 0.00, 0.00, 0.00, 0.99, 0.04, 0.04
112, 0.00, 16060.80, 0.00, 0.00, 0.00, 0.00, 0.00, 0.00, 0.99, 0.04, 0.04
113, 0.00, 11927.81, 0.00, 0.00, 0.00, 0.00, 0.00, 0.00, 0.99, 0.03, 0.04
114, 0.00, -20093.97, 0.00, 0.00, 0.00, 0.00, 0.00, 0.00, 0.99, 0.03, 0.04
115, 0.00, -19885.83, 0.00, 0.00, 0.00, 0.00, 0.00, 0.00, 0.99, 0.03, 0.04
116, 0.00, 11411.06, 0.00, 0.00, 0.00, 0.00, 0.00, 0.00, 0.99, 0.03, 0.04
117, 0.00, 15957.60, 0.00, 0.00, 0.00, 0.00, 0.00, 0.00, 0.99, 0.03, 0.04
118, 0.00, -15573.89, 0.00, 0.00, 0.00, 0.00, 0.00, 0.00, 0.99, 0.03, 0.04
119, 0.00, -23592.62, 0.00, 0.00, 0.00, 0.00, 0.00, 0.00, 0.99, 0.03, 0.04
120, 0.00, 5963.42, 0.00, 0.00, 0.00, 0.00, 0.00, 0.00, 0.99, 0.03, 0.04
121, 0.00, 18741.85, 0.00, 0.00, 0.00, 0.00, 0.00, 0.00, 0.99, 0.03, 0.04
122, 0.00, -10039.71, 0.00, 0.00, 0.00, 0.00, 0.00, 0.00, 0.99, 0.03, 0.04
123, 0.00, -25859.18, 0.00, 0.00, 0.00, 0.00, 0.00, 0.00, 0.99, 0.02, 0.04
124, 0.00, -161.20, 0.00, 0.00, 0.00, 0.00, 0.00, 0.00, 0.99, 0.02, 0.04
125, 0.00, 19769.92, 0.00, 0.00, 0.00, 0.00, 0.00, 0.00, 0.99, 0.02, 0.04
126, 0.00, -4235.57, 0.00, 0.00, 0.00, 0.00, 0.00, 0.00, 0.99, 0.02, 0.04
127, 0.00, -26891.58, 0.00, 0.00, 0.00, 0.00, 0.00, 0.00, 0.99, 0.02, 0.04
128, 0.00, -6824.37, 0.00, 0.00, 0.00, 0.00, 0.00, 0.00, 0.99, 0.03, 0.04
129, 0.00, 18738.25, 0.00, 0.00, 0.00, 0.00, 0.00, 0.00, 0.99, 0.03, 0.04
130, 0.00, 1269.87, 0.00, 0.00, 0.00, 0.00, 0.00, 0.00, 0.99, 0.03, 0.04
131, 0.00, -26652.22, 0.00, 0.00, 0.00, 0.00, 0.00, 0.00, 0.99, 0.03, 0.04
132, 0.00, -13475.58, 0.00, 0.00, 0.00, 0.00, 0.00, 0.00, 0.99, 0.03, 0.04
133, 0.00, 15954.07, 0.00, 0.00, 0.00, 0.00, 0.00, 0.00, 0.99, 0.03, 0.03
134, 0.00, 6365.13, 0.00, 0.00, 0.00, 0.00, 0.00, 0.00, 0.99, 0.03, 0.03
135, 0.00, -24747.31, 0.00, 0.00, 0.00, 0.00, 0.00, 0.00, 0.99, 0.03, 0.03
136, 0.00, -19295.32, 0.00, 0.00, 0.00, 0.00, 0.00, 0.00, 0.99, 0.03, 0.03
137, 0.00, 11991.22, 0.00, 0.00, 0.00, 0.00, 0.00, 0.00, 0.99, 0.03, 0.03
138, 0.00, 11006.67, 0.00, 0.00, 0.00, 0.00, 0.00, 0.00, 0.99, 0.03, 0.04
139, 0.00, -21090.21, 0.00, 0.00, 0.00, 0.00, 0.00, 0.00, 0.99, 0.03, 0.04
140, 0.00, -23872.04, 0.00, 0.00, 0.00, 0.00, 0.00, 0.00, 0.99, 0.03, 0.04
141, 0.00, 7046.90, 0.00, 0.00, 0.00, 0.00, 0.00, 0.00, 0.99, 0.03, 0.04
142, 0.00, 14670.88, 0.00, 0.00, 0.00, 0.00, 0.00, 0.00, 0.99, 0.03, 0.04
143, 0.00, -16094.93, 0.00, 0.00, 0.00, 0.00, 0.00, 0.00, 0.99, 0.03, 0.04
144, 0.00, -26970.71, 0.00, 0.00, 0.00, 0.00, 0.00, 0.00, 0.99, 0.03, 0.04
145, 0.00, 1437.44, 0.00, 0.00, 0.00, 0.00, 0.00, 0.00, 0.99, 0.03, 0.04
146, 0.00, 16989.87, 0.00, 0.00, 0.00, 0.00, 0.00, 0.00, 0.99, 0.03, 0.04
147, 0.00, -10238.46, 0.00, 0.00, 0.00, 0.00, 0.00, 0.00, 0.99, 0.03, 0.04
148, 0.00, -28623.62, 0.00, 0.00, 0.00, 0.00, 0.00, 0.00, 0.98, 0.03, 0.04
149, 0.00, -4715.15, 0.00, 0.00, 0.00, 0.00, 0.00, 0.00, 0.98, 0.03, 0.04
150, 0.00, 17561.43, 0.00, 0.00, 0.00, 0.00, 0.00, 0.00, 0.98, 0.03, 0.04
151, 0.00, -4142.56, 0.00, 0.00, 0.00, 0.00, 0.00, 0.00, 0.98, 0.03, 0.04
152, 0.00, -28777.33, 0.00, 0.00, 0.00, 0.00, 0.00, 0.00, 0.98, 0.03, 0.04
153, 0.00, -10914.74, 0.00, 0.00, 0.00, 0.00, 0.00, 0.00, 0.99, 0.03, 0.04
154, 0.00, 16471.87, 0.00, 0.00, 0.00, 0.00, 0.00, 0.00, 0.99, 0.03, 0.04
155, 0.00, 1922.76, 0.00, 0.00, 0.00, 0.00, 0.00, 0.00, 0.99, 0.03, 0.04
156, 0.00, -27233.79, 0.00, 0.00, 0.00, 0.00, 0.00, 0.00, 0.99, 0.03, 0.04
157, 0.00, -16620.09, 0.00, 0.00, 0.00, 0.00, 0.00, 0.00, 0.99, 0.03, 0.04
158, 0.00, 13883.99, 0.00, 0.00, 0.00, 0.00, 0.00, 0.00, 0.99, 0.03, 0.04
159, 0.00, 7518.32, 0.00, 0.00, 0.00, 0.00, 0.00, 0.00, 0.99, 0.03, 0.04
160, 0.00, -24065.21, 0.00, 0.00, 0.00, 0.00, 0.00, 0.00, 0.99, 0.03, 0.04
161, 0.00, -21481.21, 0.00, 0.00, 0.00, 0.00, 0.00, 0.00, 0.99, 0.03, 0.04
162, 0.00, 10005.53, 0.00, 0.00, 0.00, 0.00, 0.00, 0.00, 0.99, 0.03, 0.04
163, 0.00, 12334.12, 0.00, 0.00, 0.00, 0.00, 0.00, 0.00, 0.99, 0.03, 0.04
164, 0.00, -19407.21, 0.00, 0.00, 0.00, 0.00, 0.00, 0.00, 0.99, 0.03, 0.04
165, 0.00, -25069.98, 0.00, 0.00, 0.00, 0.00, 0.00, 0.00, 0.99, 0.03, 0.04
166, 0.00, 5259.37, 0.00, 0.00, 0.00, 0.00, 0.00, 0.00, 0.99, 0.03, 0.04
167, 0.00, 15958.05, 0.00, 0.00, 0.00, 0.00, 0.00, 0.00, 0.99, 0.03, 0.04
168, 0.00, -13669.34, 0.00, 0.00, 0.00, 0.00, 0.00, 0.00, 1.00, 0.03, 0.04
169, 0.00, -27296.49, 0.00, 0.00, 0.00, 0.00, 0.00, 0.00, 1.00, 0.03, 0.04
170, 0.00, -192.87, 0.00, 0.00, 0.00, 0.00, 0.00, 0.00, 1.00, 0.03, 0.04
171, 0.00, 18045.19, 0.00, 0.00, 0.00, 0.00, 0.00, 0.00, 1.00, 0.03, 0.04
172, 0.00, -7307.39, 0.00, 0.00, 0.00, 0.00, 0.00, 0.00, 1.00, 0.03, 0.04
173, 0.00, -28009.57, 0.00, 0.00, 0.00, 0.00, 0.00, 0.00, 0.99, 0.03, 0.04
174, 0.00, -6012.33, 0.00, 0.00, 0.00, 0.00, 0.00, 0.00, 0.99, 0.03, 0.04
175, 0.00, 18398.79, 0.00, 0.00, 0.00, 0.00, 0.00, 0.00, 0.99, 0.03, 0.04
176, 0.00, -800.46, 0.00, 0.00, 0.00, 0.00, 0.00, 0.00, 0.99, 0.03, 0.04
177, 0.00, -27205.65, 0.00, 0.00, 0.00, 0.00, 0.00, 0.00, 0.99, 0.03, 0.04
178, 0.00, -11767.05, 0.00, 0.00, 0.00, 0.00, 0.00, 0.00, 0.99, 0.02, 0.04
179, 0.00, 17006.64, 0.00, 0.00, 0.00, 0.00, 0.00, 0.00, 0.99, 0.02, 0.04
180, 0.00, 5348.17, 0.00, 0.00, 0.00, 0.00, 0.00, 0.00, 0.99, 0.02, 0.04
181, 0.00, -24885.83, 0.00, 0.00, 0.00, 0.00, 0.00, 0.00, 0.99, 0.02, 0.04
182, 0.00, -17046.02, 0.00, 0.00, 0.00, 0.00, 0.00, 0.00, 0.99, 0.02, 0.04
183, 0.00, 14080.17, 0.00, 0.00, 0.00, 0.00, 0.00, 0.00, 0.99, 0.03, 0.03
184, 0.00, 10796.58, 0.00, 0.00, 0.00, 0.00, 0.00, 0.00, 0.99, 0.03, 0.03
185, 0.00, -21194.91, 0.00, 0.00, 0.00, 0.00, 0.00, 0.00, 0.99, 0.03, 0.03
186, 0.00, -21626.61, 0.00, 0.00, 0.00, 0.00, 0.00, 0.00, 0.99, 0.03, 0.03
187, 0.00, 9578.95, 0.00, 0.00, 0.00, 0.00, 0.00, 0.00, 0.99, 0.03, 0.03
188, 0.00, 14743.63, 0.00, 0.00, 0.00, 0.00, 0.00, 0.00, 0.99, 0.03, 0.04
189, 0.00, -16760.81, 0.00, 0.00, 0.00, 0.00, 0.00, 0.00, 0.99, 0.03, 0.04
190, 0.00, -25522.58, 0.00, 0.00, 0.00, 0.00, 0.00, 0.00, 0.99, 0.03, 0.04
191, 0.00, 3683.79, 0.00, 0.00, 0.00, 0.00, 0.00, 0.00, 0.99, 0.03, 0.04
192, 0.00, 16965.53, 0.00, 0.00, 0.00, 0.00, 0.00, 0.00, 0.99, 0.03, 0.04
193, 0.00, -11599.28, 0.00, 0.00, 0.00, 0.00, 0.00, 0.00, 0.99, 0.04, 0.04
194, 0.00, -28061.27, 0.00, 0.00, 0.00, 0.00, 0.00, 0.00, 0.99, 0.04, 0.04
195, 0.00, -2791.11, 0.00, 0.00, 0.00, 0.00, 0.00, 0.00, 0.99, 0.04, 0.04
196, 0.00, 17626.72, 0.00, 0.00, 0.00, 0.00, 0.00, 0.00, 0.99, 0.04, 0.04
197, 0.00, -5906.07, 0.00, 0.00, 0.00, 0.00, 0.00, 0.00, 0.99, 0.04, 0.04
198, 0.00, -29008.81, 0.00, 0.00, 0.00, 0.00, 0.00, 0.00, 0.99, 0.03, 0.04
199, 0.00, -9410.00, 0.00, 0.00, 0.00, 0.00, 0.00, 0.00, 0.99, 0.03, 0.04
200, 0.00, 16598.54, 0.00, 0.00, 0.00, 0.00, 0.00, 0.00, 0.99, 0.03, 0.04
201, 0.00, -224.55, 0.00, 0.00, 0.00, 0.00, 0.00, 0.00, 0.99, 0.03, 0.04
202, 0.00, -28451.11, 0.00, 0.00, 0.00, 0.00, 0.00, 0.00, 0.99, 0.03, 0.04
203, 0.00, -15867.35, 0.00, 0.00, 0.00, 0.00, 0.00, 0.00, 0.98, 0.03, 0.03
204, 0.00, 13764.34, 0.00, 0.00, 0.00, 0.00, 0.00, 0.00, 0.98, 0.03, 0.03
205, 0.00, 4811.41, 0.00, 0.00, 0.00, 0.00, 0.00, 0.00, 0.98, 0.03, 0.03
206, 0.00, -26563.17, 0.00, 0.00, 0.00, 0.00, 0.00, 0.00, 0.98, 0.03, 0.03
207, 0.00, -21892.06, 0.00, 0.00, 0.00, 0.00, 0.00, 0.00, 0.98, 0.03, 0.03
208, 0.00, 9276.02, 0.00, 0.00, 0.00, 0.00, 0.00, 0.00, 0.99, 0.03, 0.03
209, 0.00, 8781.13, 0.00, 0.00, 0.00, 0.00, 0.00, 0.00, 0.99, 0.03, 0.03
210, 0.00, -23467.70, 0.00, 0.00, 0.00, 0.00, 0.00, 0.00, 0.99, 0.03, 0.03
211, 0.00, -27012.08, 0.00, 0.00, 0.00, 0.00, 0.00, 0.00, 0.99, 0.03, 0.03
212, 0.00, 3616.98, 0.00, 0.00, 0.00, 0.00, 0.00, 0.00, 0.99, 0.03, 0.03
213, 0.00, 11710.91, 0.00, 0.00, 0.00, 0.00, 0.00, 0.00, 0.99, 0.02, 0.04
214, 0.00, -18974.71, 0.00, 0.00, 0.00, 0.00, 0.00, 0.00, 0.99, 0.02, 0.04
215, 0.00, -30546.36, 0.00, 0.00, 0.00, 0.00, 0.00, 0.00, 0.99, 0.02, 0.04
216, 0.00, -2505.92, 0.00, 0.00, 0.00, 0.00, 0.00, 0.00, 0.99, 0.02, 0.04
217, 0.00, 13508.43, 0.00, 0.00, 0.00, 0.00, 0.00, 0.00, 0.99, 0.02, 0.04
218, 0.00, -13417.21, 0.00, 0.00, 0.00, 0.00, 0.00, 0.00, 0.98, 0.03, 0.04
219, 0.00, -32373.01, 0.00, 0.00, 0.00, 0.00, 0.00, 0.00, 0.98, 0.03, 0.04
220, 0.00, -8946.60, 0.00, 0.00, 0.00, 0.00, 0.00, 0.00, 0.98, 0.03, 0.04
221, 0.00, 13695.00, 0.00, 0.00, 0.00, 0.00, 0.00, 0.00, 0.98, 0.03, 0.04
222, 0.00, -7604.55, 0.00, 0.00, 0.00, 0.00, 0.00, 0.00, 0.98, 0.03, 0.04
223, 0.00, -32759.92, 0.00, 0.00, 0.00, 0.00, 0.00, 0.00, 0.98, 0.03, 0.03
224, 0.00, -15560.26, 0.00, 0.00, 0.00, 0.00, 0.00, 0.00, 0.98, 0.03, 0.03
225, 0.00, 11959.95, 0.00, 0.00, 0.00, 0.00, 0.00, 0.00, 0.98, 0.03, 0.03
226, 0.00, -2162.55, 0.00, 0.00, 0.00, 0.00, 0.00, 0.00, 0.98, 0.03, 0.03
227, 0.00, -31777.65, 0.00, 0.00, 0.00, 0.00, 0.00, 0.00, 0.98, 0.03, 0.03
228, 0.00, -21971.18, 0.00, 0.00, 0.00, 0.00, 0.00, 0.00, 0.99, 0.03, 0.04
229, 0.00, 8454.55, 0.00, 0.00, 0.00, 0.00, 0.00, 0.00, 0.99, 0.03, 0.04
230, 0.00, 2488.62, 0.00, 0.00, 0.00, 0.00, 0.00, 0.00, 0.99, 0.03, 0.04
231, 0.00, -29421.29, 0.00, 0.00, 0.00, 0.00, 0.00, 0.00, 0.99, 0.03, 0.04
232, 0.00, -27655.86, 0.00, 0.00, 0.00, 0.00, 0.00, 0.00, 0.99, 0.03, 0.04
233, 0.00, 3605.29, 0.00, 0.00, 0.00, 0.00, 0.00, 0.00, 0.99, 0.03, 0.04
234, 0.00, 6312.76, 0.00, 0.00, 0.00, 0.00, 0.00, 0.00, 0.99, 0.03, 0.04
235, 0.00, -25583.34, 0.00, 0.00, 0.00, 0.00, 0.00, 0.00, 0.99, 0.03, 0.04
236, 0.00, -32011.70, 0.00, 0.00, 0.00, 0.00, 0.00, 0.00, 0.99, 0.03, 0.04
237, 0.00, -1986.38, 0.00, 0.00, 0.00, 0.00, 0.00, 0.00, 0.99, 0.03, 0.04
238, 0.00, 9175.37, 0.00, 0.00, 0.00, 0.00, 0.00, 0.00, 0.99, 0.03, 0.04
239, 0.00, -20310.22, 0.00, 0.00, 0.00, 0.00, 0.00, 0.00, 0.99, 0.03, 0.04
240, 0.00, -34556.27, 0.00, 0.00, 0.00, 0.00, 0.00, 0.00, 0.99, 0.03, 0.04
241, 0.00, -7841.26, 0.00, 0.00, 0.00, 0.00, 0.00, 0.00, 0.99, 0.03, 0.04
242, 0.00, 10837.13, 0.00, 0.00, 0.00, 0.00, 0.00, 0.00, 0.99, 0.03, 0.04
243, 0.00, -14182.61, 0.00, 0.00, 0.00, 0.00, 0.00, 0.00, 0.98, 0.02, 0.04
244, 0.00, -35388.49, 0.00, 0.00, 0.00, 0.00, 0.00, 0.00, 0.98, 0.02, 0.04
245, 0.00, -13869.41, 0.00, 0.00, 0.00, 0.00, 0.00, 0.00, 0.98, 0.02, 0.04
246, 0.00, 10852.62, 0.00, 0.00, 0.00, 0.00, 0.00, 0.00, 0.98, 0.02, 0.04
247, 0.00, -7900.58, 0.00, 0.00, 0.00, 0.00, 0.00, 0.00, 0.98, 0.02, 0.04
248, 0.00, -34704.57, 0.00, 0.00, 0.00, 0.00, 0.00, 0.00, 0.98, 0.02, 0.03
249, 0.00, -19878.86, 0.00, 0.00, 0.00, 0.00, 0.00, 0.00, 0.98, 0.02, 0.03
250, 0.00, 9023.64, 0.00, 0.00, 0.00, 0.00, 0.00, 0.00, 0.98, 0.02, 0.03
251, 0.00, -2175.72, 0.00, 0.00, 0.00, 0.00, 0.00, 0.00, 0.98, 0.02, 0.03
252, 0.00, -32734.13, 0.00, 0.00, 0.00, 0.00, 0.00, 0.00, 0.98, 0.02, 0.03
253, 0.00, -25614.12, 0.00, 0.00, 0.00, 0.00, 0.00, 0.00, 0.98, 0.02, 0.03
254, 0.00, 5447.43, 0.00, 0.00, 0.00, 0.00, 0.00, 0.00, 0.99, 0.02, 0.04
255, 0.00, 2627.65, 0.00, 0.00, 0.00, 0.00, 0.00, 0.00, 0.99, 0.02, 0.04
0, 0.00, -29485.71, 0.00, 0.00, 0.00, 0.00, 0.00, 0.00, 0.99, 0.02, 0.04
1, 0.00, -30590.22, 0.00, 0.00, 0.00, 0.00, 0.00, 0.00, 0.99, 0.02, 0.04
2, 0.00, 494.82, 0.00, 0.00, 0.00, 0.00, 0.00, 0.00, 0.99, 0.02, 0.04
3, 0.00, 6239.74, 0.00, 0.00, 0.00, 0.00, 0.00, 0.00, 0.99, 0.03, 0.04
4, 0.00, -25114.13, 0.00, 0.00, 0.00, 0.00, 0.00, 0.00, 0.99, 0.03, 0.04
5, 0.00, -34439.77, 0.00, 0.00, 0.00, 0.00, 0.00, 0.00, 0.99, 0.03, 0.04
6, 0.00, -5460.46, 0.00, 0.00, 0.00, 0.00, 0.00, 0.00, 0.99, 0.03, 0.04
7, 0.00, 8365.23, 0.00, 0.00, 0.00, 0.00, 0.00, 0.00, 0.99, 0.03, 0.04
8, 0.00, -19894.57, 0.00, 0.00, 0.00, 0.00, 0.00, 0.00, 0.99, 0.02, 0.03
9, 0.00, -36867.93, 0.00, 0.00, 0.00, 0.00, 0.00, 0.00, 0.99, 0.02, 0.03
10, 0.00, -11962.68, 0.00, 0.00, 0.00, 0.00, 0.00, 0.00, 0.99, 0.02, 0.03
11, 0.00, 8888.24, 0.00, 0.00, 0.00, 0.00, 0.00, 0.00, 0.99, 0.02, 0.03
12, 0.00, -14213.65, 0.00, 0.00, 0.00, 0.00, 0.00, 0.00, 0.99, 0.02, 0.03
13, 0.00, -37698.34, 0.00, 0.00, 0.00, 0.00, 0.00, 0.00, 0.98, 0.03, 0.03
14, 0.00, -18497.70, 0.00, 0.00, 0.00, 0.00, 0.00, 0.00, 0.98, 0.03, 0.03
15, 0.00, 7872.04, 0.00, 0.00, 0.00, 0.00, 0.00, 0.00, 0.98, 0.03, 0.03
16, 0.00, -8360.78, 0.00, 0.00, 0.00, 0.00, 0.00, 0.00, 0.98, 0.03, 0.03
17, 0.00, -36728.81, 0.00, 0.00, 0.00, 0.00, 0.00, 0.00, 0.98, 0.03, 0.03
18, 0.00, -24499.72, 0.00, 0.00, 0.00, 0.00, 0.00, 0.00, 0.98, 0.03, 0.03
19, 0.00, 5434.40, 0.00, 0.00, 0.00, 0.00, 0.00, 0.00, 0.98, 0.03, 0.03
20, 0.00, -2848.37, 0.00, 0.00, 0.00, 0.00, 0.00, 0.00, 0.98, 0.03, 0.03
21, 0.00, -34172.29, 0.00, 0.00, 0.00, 0.00, 0.00, 0.00, 0.98, 0.03, 0.03
22, 0.00, -29857.17, 0.00, 0.00, 0.00, 0.00, 0.00, 0.00, 0.98, 0.03, 0.03
23, 0.00, 1507.69, 0.00, 0.00, 0.00, 0.00, 0.00, 0.00, 0.98, 0.03, 0.04
24, 0.00, 1762.90, 0.00, 0.00, 0.00, 0.00, 0.00, 0.00, 0.98, 0.03, 0.04
25, 0.00, -30313.95, 0.00, 0.00, 0.00, 0.00, 0.00, 0.00, 0.98, 0.03, 0.04
26, 0.00, -34265.20, 0.00, 0.00, 0.00, 0.00, 0.00, 0.00, 0.98, 0.03, 0.04
27, 0.00, -3646.42, 0.00, 0.00, 0.00, 0.00, 0.00, 0.00, 0.98, 0.03, 0.04
28, 0.00, 5049.37, 0.00, 0.00, 0.00, 0.00, 0.00, 0.00, 0.98, 0.04, 0.03
29, 0.00, -25435.59, 0.00, 0.00, 0.00, 0.00, 0.00, 0.00, 0.98, 0.04, 0.03
30, 0.00, -37513.60, 0.00, 0.00, 0.00, 0.00, 0.00, 0.00, 0.98, 0.04, 0.03
31, 0.00, -9725.65, 0.00, 0.00, 0.00, 0.00, 0.00, 0.00, 0.98, 0.04, 0.03
32, 0.00, 6790.62, 0.00, 0.00, 0.00, 0.00, 0.00, 0.00, 0.98, 0.04, 0.03
33, 0.00, -19786.03, 0.00, 0.00, 0.00, 0.00, 0.00, 0.00, 0.98, 0.04, 0.04
34, 0.00, -39141.55, 0.00, 0.00, 0.00, 0.00, 0.00, 0.00, 0.98, 0.04, 0.04
35, 0.00, -16006.17, 0.00, 0.00, 0.00, 0.00, 0.00, 0.00, 0.98, 0.04, 0.04
36, 0.00, 7120.13, 0.00, 0.00, 0.00, 0.00, 0.00, 0.00, 0.98, 0.04, 0.04
37, 0.00, -13624.53, 0.00, 0.00, 0.00, 0.00, 0.00, 0.00, 0.98, 0.04, 0.04
38, 0.00, -38974.58, 0.00, 0.00, 0.00, 0.00, 0.00, 0.00, 0.98, 0.03, 0.04
39, 0.00, -22047.69, 0.00, 0.00, 0.00, 0.00, 0.00, 0.00, 0.98, 0.03, 0.04
40, 0.00, 5904.55, 0.00, 0.00, 0.00, 0.00, 0.00, 0.00, 0.98, 0.03, 0.04
41, 0.00, -7531.11, 0.00, 0.00, 0.00, 0.00, 0.00, 0.00, 0.98, 0.03, 0.04
42, 0.00, -37126.74, 0.00, 0.00, 0.00, 0.00, 0.00, 0.00, 0.98, 0.03, 0.04
43, 0.00, -27544.72, 0.00, 0.00, 0.00, 0.00, 0.00, 0.00, 0.98, 0.04, 0.04
44, 0.00, 3261.61, 0.00, 0.00, 0.00, 0.00, 0.00, 0.00, 0.98, 0.04, 0.04
45, 0.00, -1871.00, 0.00, 0.00, 0.00, 0.00, 0.00, 0.00, 0.98, 0.04, 0.04
46, 0.00, -33543.33, 0.00, 0.00, 0.00, 0.00, 0.00, 0.00, 0.98, 0.04, 0.04
47, 0.00, -31964.16, 0.00, 0.00, 0.00, 0.00, 0.00, 0.00, 0.98, 0.04, 0.04
48, 0.00, -395.00, 0.00, 0.00, 0.00, 0.00, 0.00, 0.00, 0.99, 0.03, 0.04
49, 0.00, 3174.77, 0.00, 0.00, 0.00, 0.00, 0.00, 0.00, 0.99, 0.03, 0.04
50, 0.00, -28302.16, 0.00, 0.00, 0.00, 0.00, 0.00, 0.00, 0.99, 0.03, 0.04
51, 0.00, -34926.75, 0.00, 0.00, 0.00, 0.00, 0.00, 0.00, 0.99, 0.03, 0.04
52, 0.00, -4801.40, 0.00, 0.00, 0.00, 0.00, 0.00, 0.00, 0.99, 0.03, 0.04
53, 0.00, 7065.25, 0.00, 0.00, 0.00, 0.00, 0.00, 0.00, 0.99, 0.03, 0.04
54, 0.00, -22002.61, 0.00, 0.00, 0.00, 0.00, 0.00, 0.00, 0.99, 0.03, 0.04
55, 0.00, -36580.39, 0.00, 0.00, 0.00, 0.00, 0.00, 0.00, 0.99, 0.03, 0.04
56, 0.00, -10048.76, 0.00, 0.00, 0.00, 0.00, 0.00, 0.00, 0.99, 0.03, 0.04
57, 0.00, 9108.40, 0.00, 0.00, 0.00, 0.00, 0.00, 0.00, 0.99, 0.03, 0.04
58, 0.00, -15536.29, 0.00, 0.00, 0.00, 0.00, 0.00, 0.00, 0.99, 0.04, 0.04
59, 0.00, -37144.39, 0.00, 0.00, 0.00, 0.00, 0.00, 0.00, 0.99, 0.04, 0.04
60, 0.00, -16046.18, 0.00, 0.00, 0.00, 0.00, 0.00, 0.00, 0.99, 0.04, 0.04
61, 0.00, 8917.70, 0.00, 0.00, 0.00, 0.00, 0.00, 0.00, 0.99, 0.04, 0.04
62, 0.00, -9501.50, 0.00, 0.00, 0.00, 0.00, 0.00, 0.00, 0.99, 0.04, 0.04
63, 0.00, -36694.77, 0.00, 0.00, 0.00, 0.00, 0.00, 0.00, 0.99, 0.03, 0.04
64, 0.00, -22406.13, 0.00, 0.00, 0.00, 0.00, 0.00, 0.00, 0.99, 0.03, 0.04
65, 0.00, 6608.36, 0.00, 0.00, 0.00, 0.00, 0.00, 0.00, 0.99, 0.03, 0.04
66, 0.00, -4141.96, 0.00, 0.00, 0.00, 0.00, 0.00, 0.00, 0.99, 0.03, 0.04
67, 0.00, -34905.96, 0.00, 0.00, 0.00, 0.00, 0.00, 0.00, 0.99, 0.03, 0.04
68, 0.00, -28358.08, 0.00, 0.00, 0.00, 0.00, 0.00, 0.00, 0.99, 0.03, 0.04
69, 0.00, 2726.53, 0.00, 0.00, 0.00, 0.00, 0.00, 0.00, 0.99, 0.03, 0.04
70, 0.00, 441.45, 0.00, 0.00, 0.00, 0.00, 0.00, 0.00, 0.99, 0.03, 0.04
71, 0.00, -31723.40, 0.00, 0.00, 0.00, 0.00, 0.00, 0.00, 0.99, 0.03, 0.04
72, 0.00, -33398.22, 0.00, 0.00, 0.00, 0.00, 0.00, 0.00, 0.99, 0.03, 0.04
73, 0.00, -2425.86, 0.00, 0.00, 0.00, 0.00, 0.00, 0.00, 0.99, 0.03, 0.04
74, 0.00, 3841.68, 0.00, 0.00, 0.00, 0.00, 0.00, 0.00, 0.99, 0.03, 0.04
75, 0.00, -27371.16, 0.00, 0.00, 0.00, 0.00, 0.00, 0.00, 0.99, 0.03, 0.04
76, 0.00, -37215.72, 0.00, 0.00, 0.00, 0.00, 0.00, 0.00, 0.99, 0.03, 0.04
77, 0.00, -8389.08, 0.00, 0.00, 0.00, 0.00, 0.00, 0.00, 0.99, 0.03, 0.04
78, 0.00, 6002.81, 0.00, 0.00, 0.00, 0.00, 0.00, 0.00, 0.99, 0.03, 0.04
79, 0.00, -21854.75, 0.00, 0.00, 0.00, 0.00, 0.00, 0.00, 0.99, 0.03, 0.04
80, 0.00, -39081.75, 0.00, 0.00, 0.00, 0.00, 0.00, 0.00, 0.99, 0.03, 0.04
81, 0.00, -14293.81, 0.00, 0.00, 0.00, 0.00, 0.00, 0.00, 0.99, 0.03, 0.04
82, 0.00, 7162.57, 0.00, 0.00, 0.00, 0.00, 0.00, 0.00, 0.99, 0.03, 0.04
83, 0.00, -15347.94, 0.00, 0.00, 0.00, 0.00, 0.00, 0.00, 0.99, 0.03, 0.03
84, 0.00, -39044.52, 0.00, 0.00, 0.00, 0.00, 0.00, 0.00, 0.99, 0.03, 0.03
85, 0.00, -20146.99, 0.00, 0.00, 0.00, 0.00, 0.00, 0.00, 0.99, 0.03, 0.03
86, 0.00, 6609.46, 0.00, 0.00, 0.00, 0.00, 0.00, 0.00, 0.99, 0.03, 0.03
87, 0.00, -9050.60, 0.00, 0.00, 0.00, 0.00, 0.00, 0.00, 0.99, 0.03, 0.03
88, 0.00, -37679.32, 0.00, 0.00, 0.00, 0.00, 0.00, 0.00, 0.99, 0.03, 0.03
89, 0.00, -25990.96, 0.00, 0.00, 0.00, 0.00, 0.00, 0.00, 0.99, 0.03, 0.03
90, 0.00, 4146.05, 0.00, 0.00, 0.00, 0.00, 0.00, 0.00, 0.99, 0.03, 0.03
91, 0.00, -3494.11, 0.00, 0.00, 0.00, 0.00, 0.00, 0.00, 0.99, 0.03, 0.03
92, 0.00, -34901.84, 0.00, 0.00, 0.00, 0.00, 0.00, 0.00, 0.99, 0.03, 0.03
93, 0.00, -31117.03, 0.00, 0.00, 0.00, 0.00, 0.00, 0.00, 0.99, 0.03, 0.03
94, 0.00, 340.39, 0.00, 0.00, 0.00, 0.00, 0.00, 0.00, 0.99, 0.03, 0.03
95, 0.00, 1302.32, 0.00, 0.00, 0.00, 0.00, 0.00, 0.00, 0.99, 0.03, 0.03
96, 0.00, -30639.57, 0.00, 0.00, 0.00, 0.00, 0.00, 0.00, 0.99, 0.03, 0.03
97, 0.00, -35085.29, 0.00, 0.00, 0.00, 0.00, 0.00, 0.00, 0.99, 0.03, 0.03
98, 0.00, -4469.48, 0.00, 0.00, 0.00, 0.00, 0.00, 0.00, 0.98, 0.03, 0.04
99, 0.00, 5007.48, 0.00, 0.00, 0.00, 0.00, 0.00, 0.00, 0.98, 0.03, 0.04
100, 0.00, -25096.20, 0.00, 0.00, 0.00, 0.00, 0.00, 0.00, 0.98, 0.03, 0.04
101, 0.00, -37577.66, 0.00, 0.00, 0.00, 0.00, 0.00, 0.00, 0.98, 0.03, 0.04
102, 0.00, -9893.37, 0.00, 0.00, 0.00, 0.00, 0.00, 0.00, 0.98, 0.03, 0.04
103, 0.00, 7315.41, 0.00, 0.00, 0.00, 0.00, 0.00, 0.00, 0.99, 0.03, 0.04
104, 0.00, -18749.20, 0.00, 0.00, 0.00, 0.00, 0.00, 0.00, 0.99, 0.03, 0.04
105, 0.00, -38429.60, 0.00, 0.00, 0.00, 0.00, 0.00, 0.00, 0.99, 0.03, 0.04
106, 0.00, -15529.68, 0.00, 0.00, 0.00, 0.00, 0.00, 0.00, 0.99, 0.03, 0.04
107, 0.00, 8178.17, 0.00, 0.00, 0.00, 0.00, 0.00, 0.00, 0.99, 0.03, 0.04
108, 0.00, -11884.04, 0.00, 0.00, 0.00, 0.00, 0.00, 0.00, 0.99, 0.03, 0.04
109, 0.00, -37397.06, 0.00, 0.00, 0.00, 0.00, 0.00, 0.00, 0.99, 0.03, 0.04
110, 0.00, -20730.73, 0.00, 0.00, 0.00, 0.00, 0.00, 0.00, 0.99, 0.03, 0.04
111, 0.00, 7733.32, 0.00, 0.00, 0.00, 0.00, 0.00, 0.00, 0.99, 0.03, 0.04
112, 0.00, -4899.32, 0.00, 0.00, 0.00, 0.00, 0.00, 0.00, 0.99, 0.03, 0.04
113, 0.00, -34558.10, 0.00, 0.00, 0.00, 0.00, 0.00, 0.00, 0.99, 0.03, 0.03
114, 0.00, -25439.44, 0.00, 0.00, 0.00, 0.00, 0.00, 0.00, 0.99, 0.03, 0.03
115, 0.00, 5590.75, 0.00, 0.00, 0.00, 0.00, 0.00, 0.00, 0.99, 0.03, 0.03
116, 0.00, 1140.94, 0.00, 0.00, 0.00, 0.00, 0.00, 0.00, 0.99, 0.03, 0.03
117, 0.00, -30623.28, 0.00, 0.00, 0.00, 0.00, 0.00, 0.00, 0.99, 0.03, 0.03
118, 0.00, -29723.51, 0.00, 0.00, 0.00, 0.00, 0.00, 0.00, 0.99, 0.03, 0.04
119, 0.00, 1736.71, 0.00, 0.00, 0.00, 0.00, 0.00, 0.00, 0.99, 0.03, 0.04
120, 0.00, 5899.85, 0.00, 0.00, 0.00, 0.00, 0.00, 0.00, 0.99, 0.03, 0.04
121, 0.00, -25599.81, 0.00, 0.00, 0.00, 0.00, 0.00, 0.00, 0.99, 0.03, 0.04
122, 0.00, -32982.37, 0.00, 0.00, 0.00, 0.00, 0.00, 0.00, 0.99, 0.03, 0.04
123, 0.00, -3169.63, 0.00, 0.00, 0.00, 0.00, 0.00, 0.00, 0.99, 0.03, 0.03
124, 0.00, 9188.27, 0.00, 0.00, 0.00, 0.00, 0.00, 0.00, 0.99, 0.03, 0.03
125, 0.00, -19760.06, 0.00, 0.00, 0.00, 0.00, 0.00, 0.00, 0.99, 0.03, 0.03
126, 0.00, -35058.35, 0.00, 0.00, 0.00, 0.00, 0.00, 0.00, 0.99, 0.03, 0.03
127, 0.00, -9012.94, 0.00, 0.00, 0.00, 0.00, 0.00, 0.00, 0.99, 0.03, 0.03
128, 0.00, 10589.00, 0.00, 0.00, 0.00, 0.00, 0.00, 0.00, 0.99, 0.03, 0.04
129, 0.00, -13669.08, 0.00, 0.00, 0.00, 0.00, 0.00, 0.00, 0.99, 0.03, 0.04
130, 0.00, -35798.62, 0.00, 0.00, 0.00, 0.00, 0.00, 0.00, 0.99, 0.03, 0.04
131, 0.00, -15147.71, 0.00, 0.00, 0.00, 0.00, 0.00, 0.00, 0.99, 0.03, 0.04
132, 0.00, 10320.34, 0.00, 0.00, 0.00, 0.00, 0.00, 0.00, 0.99, 0.03, 0.04
133, 0.00, -7397.44, 0.00, 0.00, 0.00, 0.00, 0.00, 0.00, 0.99, 0.03, 0.04
134, 0.00, -34852.74, 0.00, 0.00, 0.00, 0.00, 0.00, 0.00, 0.99, 0.03, 0.04
135, 0.00, -21030.51, 0.00, 0.00, 0.00, 0.00, 0.00, 0.00, 0.99, 0.03, 0.04
136, 0.00, 8379.87, 0.00, 0.00, 0.00, 0.00, 0.00, 0.00, 0.99, 0.03, 0.04
137, 0.00, -1582.15, 0.00, 0.00, 0.00, 0.00, 0.00, 0.00, 0.99, 0.03, 0.04
138, 0.00, -32435.53, 0.00, 0.00, 0.00, 0.00, 0.00, 0.00, 0.99, 0.03, 0.03
139, 0.00, -26427.67, 0.00, 0.00, 0.00, 0.00, 0.00, 0.00, 0.99, 0.03, 0.03
140, 0.00, 4827.02, 0.00, 0.00, 0.00, 0.00, 0.00, 0.00, 0.99, 0.03, 0.03
141, 0.00, 3344.47, 0.00, 0.00, 0.00, 0.00, 0.00, 0.00, 0.99, 0.03, 0.03
142, 0.00, -28756.03, 0.00, 0.00, 0.00, 0.00, 0.00, 0.00, 0.99, 0.03, 0.03
143, 0.00, -31037.92, 0.00, 0.00, 0.00, 0.00, 0.00, 0.00, 0.99, 0.03, 0.03
144, 0.00, -97.50, 0.00, 0.00, 0.00, 0.00, 0.00, 0.00, 0.99, 0.03, 0.03
145, 0.00, 6884.20, 0.00, 0.00, 0.00, 0.00, 0.00, 0.00, 0.99, 0.03, 0.03
146, 0.00, -24165.56, 0.00, 0.00, 0.00, 0.00, 0.00, 0.00, 0.99, 0.03, 0.03
147, 0.00, -34691.47, 0.00, 0.00, 0.00, 0.00, 0.00, 0.00, 0.99, 0.03, 0.03
148, 0.00, -6205.20, 0.00, 0.00, 0.00, 0.00, 0.00, 0.00, 0.99, 0.03, 0.04
149, 0.00, 8703.68, 0.00, 0.00, 0.00, 0.00, 0.00, 0.00, 0.99, 0.03, 0.04
150, 0.00, -18950.54, 0.00, 0.00, 0.00, 0.00, 0.00, 0.00, 0.99, 0.03, 0.04
151, 0.00, -37004.65, 0.00, 0.00, 0.00, 0.00, 0.00, 0.00, 0.99, 0.03, 0.04
152, 0.00, -12873.17, 0.00, 0.00, 0.00, 0.00, 0.00, 0.00, 0.99, 0.03, 0.04
153, 0.00, 8870.36, 0.00, 0.00, 0.00, 0.00, 0.00, 0.00, 0.99, 0.03, 0.04
154, 0.00, -13356.80, 0.00, 0.00, 0.00, 0.00, 0.00, 0.00, 0.99, 0.03, 0.04
155, 0.00, -37758.11, 0.00, 0.00, 0.00, 0.00, 0.00, 0.00, 0.99, 0.03, 0.04
156, 0.00, -19627.22, 0.00, 0.00, 0.00, 0.00, 0.00, 0.00, 0.99, 0.03, 0.04
157, 0.00, 7282.80, 0.00, 0.00, 0.00, 0.00, 0.00, 0.00, 0.99, 0.03, 0.04
158, 0.00, -7950.25, 0.00, 0.00, 0.00, 0.00, 0.00, 0.00, 0.99, 0.04, 0.04
159, 0.00, -37081.57, 0.00, 0.00, 0.00, 0.00, 0.00, 0.00, 0.99, 0.04, 0.04
160, 0.00, -26196.15, 0.00, 0.00, 0.00, 0.00, 0.00, 0.00, 0.99, 0.04, 0.04
161, 0.00, 3946.76, 0.00, 0.00, 0.00, 0.00, 0.00, 0.00, 0.99, 0.04, 0.04
162, 0.00, -3149.05, 0.00, 0.00, 0.00, 0.00, 0.00, 0.00, 0.99, 0.04, 0.04
163, 0.00, -34838.25, 0.00, 0.00, 0.00, 0.00, 0.00, 0.00, 0.99, 0.03, 0.04
164, 0.00, -31857.72, 0.00, 0.00, 0.00, 0.00, 0.00, 0.00, 0.99, 0.03, 0.04
165, 0.00, -499.03, 0.00, 0.00, 0.00, 0.00, 0.00, 0.00, 0.99, 0.03, 0.04
166, 0.00, 1123.76, 0.00, 0.00, 0.00, 0.00, 0.00, 0.00, 0.99, 0.03, 0.04
167, 0.00, -30784.43, 0.00, 0.00, 0.00, 0.00, 0.00, 0.00, 0.99, 0.03, 0.04
168, 0.00, -35903.52, 0.00, 0.00, 0.00, 0.00, 0.00, 0.00, 0.99, 0.03, 0.04
169, 0.00, -5426.33, 0.00, 0.00, 0.00, 0.00, 0.00, 0.00, 0.99, 0.03, 0.04
170, 0.00, 4706.23, 0.00, 0.00, 0.00, 0.00, 0.00, 0.00, 0.99, 0.03, 0.04
171, 0.00, -25119.85, 0.00, 0.00, 0.00, 0.00, 0.00, 0.00, 0.99, 0.03, 0.04
172, 0.00, -38111.67, 0.00, 0.00, 0.00, 0.00, 0.00, 0.00, 0.99, 0.03, 0.04
173, 0.00, -10624.59, 0.00, 0.00, 0.00, 0.00, 0.00, 0.00, 0.99, 0.03, 0.04
174, 0.00, 7267.02, 0.00, 0.00, 0.00, 0.00, 0.00, 0.00, 0.99, 0.03, 0.04
175, 0.00, -18274.83, 0.00, 0.00, 0.00, 0.00, 0.00, 0.00, 0.99, 0.03, 0.04
176, 0.00, -38314.62, 0.00, 0.00, 0.00, 0.00, 0.00, 0.00, 0.99, 0.03, 0.04
177, 0.00, -15714.21, 0.00, 0.00, 0.00, 0.00, 0.00, 0.00, 0.99, 0.03, 0.04
178, 0.00, 8483.25, 0.00, 0.00, 0.00, 0.00, 0.00, 0.00, 0.99, 0.03, 0.04
179, 0.00, -11066.39, 0.00, 0.00, 0.00, 0.00, 0.00, 0.00, 0.99, 0.03, 0.04
180, 0.00, -36996.41, 0.00, 0.00, 0.00, 0.00, 0.00, 0.00, 0.99, 0.03, 0.04
181, 0.00, -20936.63, 0.00, 0.00, 0.00, 0.00, 0.00, 0.00, 0.99, 0.03, 0.04
182, 0.00, 7631.98, 0.00, 0.00, 0.00, 0.00, 0.00, 0.00, 0.99, 0.03, 0.04
183, 0.00, -4631.30, 0.00, 0.00, 0.00, 0.00, 0.00, 0.00, 0.99, 0.03, 0.04
184, 0.00, -34753.77, 0.00, 0.00, 0.00, 0.00, 0.00, 0.00, 1.00, 0.03, 0.04
185, 0.00, -26446.85, 0.00, 0.00, 0.00, 0.00, 0.00, 0.00, 1.00, 0.03, 0.04
186, 0.00, 4428.37, 0.00, 0.00, 0.00, 0.00, 0.00, 0.00, 1.00, 0.03, 0.04
187, 0.00, 345.74, 0.00, 0.00, 0.00, 0.00, 0.00, 0.00, 1.00, 0.03, 0.04
188, 0.00, -31680.02, 0.00, 0.00, 0.00, 0.00, 0.00, 0.00, 1.00, 0.03, 0.04
189, 0.00, -31547.85, 0.00, 0.00, 0.00, 0.00, 0.00, 0.00, 0.99, 0.03, 0.04
190, 0.00, -357.34, 0.00, 0.00, 0.00, 0.00, 0.00, 0.00, 0.99, 0.03, 0.04
191, 0.00, 4139.43, 0.00, 0.00, 0.00, 0.00, 0.00, 0.00, 0.99, 0.03, 0.04
192, 0.00, -27434.35, 0.00, 0.00, 0.00, 0.00, 0.00, 0.00, 0.99, 0.03, 0.04
193, 0.00, -35523.83, 0.00, 0.00, 0.00, 0.00, 0.00, 0.00, 0.99, 0.03, 0.04
194, 0.00, -6048.90, 0.00, 0.00, 0.00, 0.00, 0.00, 0.00, 0.99, 0.03, 0.04
195, 0.00, 6736.93, 0.00, 0.00, 0.00, 0.00, 0.00, 0.00, 0.99, 0.03, 0.04
196, 0.00, -21953.77, 0.00, 0.00, 0.00, 0.00, 0.00, 0.00, 0.99, 0.03, 0.04
197, 0.00, -37661.86, 0.00, 0.00, 0.00, 0.00, 0.00, 0.00, 0.99, 0.03, 0.04
198, 0.00, -11844.64, 0.00, 0.00, 0.00, 0.00, 0.00, 0.00, 0.99, 0.03, 0.04
199, 0.00, 8267.91, 0.00, 0.00, 0.00, 0.00, 0.00, 0.00, 0.99, 0.03, 0.03
200, 0.00, -15504.38, 0.00, 0.00, 0.00, 0.00, 0.00, 0.00, 0.99, 0.03, 0.03
201, 0.00, -37931.76, 0.00, 0.00, 0.00, 0.00, 0.00, 0.00, 0.99, 0.03, 0.03
202, 0.00, -17666.64, 0.00, 0.00, 0.00, 0.00, 0.00, 0.00, 0.99, 0.03, 0.03
203, 0.00, 8077.34, 0.00, 0.00, 0.00, 0.00, 0.00, 0.00, 0.99, 0.03, 0.03
204, 0.00, -9194.66, 0.00, 0.00, 0.00, 0.00, 0.00, 0.00, 0.99, 0.03, 0.04
205, 0.00, -36930.11, 0.00, 0.00, 0.00, 0.00, 0.00, 0.00, 0.99, 0.03, 0.04
206, 0.00, -23618.39, 0.00, 0.00, 0.00, 0.00, 0.00, 0.00, 0.99, 0.03, 0.04
207, 0.00, 5895.27, 0.00, 0.00, 0.00, 0.00, 0.00, 0.00, 0.99, 0.03, 0.04
208, 0.00, -3634.48, 0.00, 0.00, 0.00, 0.00, 0.00, 0.00, 0.99, 0.03, 0.04
209, 0.00, -34673.54, 0.00, 0.00, 0.00, 0.00, 0.00, 0.00, 0.99, 0.03, 0.04
210, 0.00, -29227.77, 0.00, 0.00, 0.00, 0.00, 0.00, 0.00, 0.99, 0.03, 0.04
211, 0.00, 1976.21, 0.00, 0.00, 0.00, 0.00, 0.00, 0.00, 0.99, 0.03, 0.04
212, 0.00, 892.53, 0.00, 0.00, 0.00, 0.00, 0.00, 0.00, 0.99, 0.03, 0.04
213, 0.00, -31252.74, 0.00, 0.00, 0.00, 0.00, 0.00, 0.00, 0.99, 0.03, 0.04
214, 0.00, -34075.99, 0.00, 0.00, 0.00, 0.00, 0.00, 0.00, 0.99, 0.03, 0.04
215, 0.00, -3284.95, 0.00, 0.00, 0.00, 0.00, 0.00, 0.00, 0.99, 0.03, 0.04
216, 0.00, 4171.01, 0.00, 0.00, 0.00, 0.00, 0.00, 0.00, 0.99, 0.03, 0.04
217, 0.00, -26687.47, 0.00, 0.00, 0.00, 0.00, 0.00, 0.00, 0.99, 0.03, 0.04
218, 0.00, -37594.29, 0.00, 0.00, 0.00, 0.00, 0.00, 0.00, 0.99, 0.03, 0.04
219, 0.00, -9241.84, 0.00, 0.00, 0.00, 0.00, 0.00, 0.00, 0.99, 0.03, 0.04
220, 0.00, 6169.62, 0.00, 0.00, 0.00, 0.00, 0.00, 0.00, 0.99, 0.03, 0.04
221, 0.00, -21098.64, 0.00, 0.00, 0.00, 0.00, 0.00, 0.00, 0.99, 0.03, 0.04
222, 0.00, -39367.16, 0.00, 0.00, 0.00, 0.00, 0.00, 0.00, 0.99, 0.03, 0.04
223, 0.00, -15372.23, 0.00, 0.00, 0.00, 0.00, 0.00, 0.00, 0.99, 0.03, 0.04
224, 0.00, 6846.74, 0.00, 0.00, 0.00, 0.00, 0.00, 0.00, 1.00, 0.03, 0.04
225, 0.00, -14845.96, 0.00, 0.00, 0.00, 0.00, 0.00, 0.00, 1.00, 0.03, 0.04
226, 0.00, -39338.55, 0.00, 0.00, 0.00, 0.00, 0.00, 0.00, 1.00, 0.03, 0.04
227, 0.00, -21389.48, 0.00, 0.00, 0.00, 0.00, 0.00, 0.00, 1.00, 0.03, 0.04
228, 0.00, 5887.25, 0.00, 0.00, 0.00, 0.00, 0.00, 0.00, 1.00, 0.03, 0.04
229, 0.00, -8780.75, 0.00, 0.00, 0.00, 0.00, 0.00, 0.00, 1.00, 0.04, 0.03
230, 0.00, -37897.18, 0.00, 0.00, 0.00, 0.00, 0.00, 0.00, 1.00, 0.04, 0.03
231, 0.00, -27210.05, 0.00, 0.00, 0.00, 0.00, 0.00, 0.00, 1.00, 0.04, 0.03
232, 0.00, 3233.38, 0.00, 0.00, 0.00, 0.00, 0.00, 0.00, 1.00, 0.04, 0.03
233, 0.00, -3230.50, 0.00, 0.00, 0.00, 0.00, 0.00, 0.00, 1.00, 0.04, 0.03
234, 0.00, -34743.53, 0.00, 0.00, 0.00, 0.00, 0.00, 0.00, 0.99, 0.04, 0.03
235, 0.00, -31975.98, 0.00, 0.00, 0.00, 0.00, 0.00, 0.00, 0.99, 0.04, 0.03
236, 0.00, -475.33, 0.00, 0.00, 0.00, 0.00, 0.00, 0.00, 0.99, 0.04, 0.03
237, 0.00, 1654.01, 0.00, 0.00, 0.00, 0.00, 0.00, 0.00, 0.99, 0.04, 0.03
238, 0.00, -30167.57, 0.00, 0.00, 0.00, 0.00, 0.00, 0.00, 0.99, 0.04, 0.03
239, 0.00, -35776.80, 0.00, 0.00, 0.00, 0.00, 0.00, 0.00, 0.99, 0.03, 0.02
240, 0.00, -5592.05, 0.00, 0.00, 0.00, 0.00, 0.00, 0.00, 0.99, 0.03, 0.02
241, 0.00, 4701.09, 0.00, 0.00, 0.00, 0.00, 0.00, 0.00, 0.99, 0.03, 0.02
242, 0.00, -25215.38, 0.00, 0.00, 0.00, 0.00, 0.00, 0.00, 0.99, 0.03, 0.02
243, 0.00, -38926.86, 0.00, 0.00, 0.00, 0.00, 0.00, 0.00, 0.99, 0.03, 0.02
244, 0.00, -12066.61, 0.00, 0.00, 0.00, 0.00, 0.00, 0.00, 0.99, 0.03, 0.03
245, 0.00, 5730.41, 0.00, 0.00, 0.00, 0.00, 0.00, 0.00, 0.99, 0.03, 0.03
246, 0.00, -19924.59, 0.00, 0.00, 0.00, 0.00, 0.00, 0.00, 0.99, 0.03, 0.03
247, 0.00, -40704.69, 0.00, 0.00, 0.00, 0.00, 0.00, 0.00, 0.99, 0.03, 0.03
248, 0.00, -18859.37, 0.00, 0.00, 0.00, 0.00, 0.00, 0.00, 0.99, 0.03, 0.03
249, 0.00, 5208.36, 0.00, 0.00, 0.00, 0.00, 0.00, 0.00, 0.99, 0.03, 0.03
250, 0.00, -14277.74, 0.00, 0.00, 0.00, 0.00, 0.00, 0.00, 0.99, 0.03, 0.03
251, 0.00, -40720.47, 0.00, 0.00, 0.00, 0.00, 0.00, 0.00, 0.99, 0.03, 0.03
252, 0.00, -25333.60, 0.00, 0.00, 0.00, 0.00, 0.00, 0.00, 0.99, 0.03, 0.03
253, 0.00, 3178.73, 0.00, 0.00, 0.00, 0.00, 0.00, 0.00, 0.99, 0.03, 0.03
254, 0.00, -8813.96, 0.00, 0.00, 0.00, 0.00, 0.00, 0.00, 0.99, 0.02, 0.04
255, 0.00, -39134.06, 0.00, 0.00, 0.00, 0.00, 0.00, 0.00, 0.99, 0.02, 0.04
0, 0.00, -31328.45, 0.00, 0.00, 0.00, 0.00, 0.00, 0.00, 0.99, 0.02, 0.04
1, 0.00, -433.58, 0.00, 0.00, 0.00, 0.00, 0.00, 0.00, 0.99, 0.02, 0.04
2, 0.00, -4061.83, 0.00, 0.00, 0.00, 0.00, 0.00, 0.00, 0.99, 0.02, 0.04
3, 0.00, -36094.11, 0.00, 0.00, 0.00, 0.00, 0.00, 0.00, 0.99, 0.03, 0.04
4, 0.00, -36416.04, 0.00, 0.00, 0.00, 0.00, 0.00, 0.00, 0.99, 0.03, 0.04
5, 0.00, -5243.96, 0.00, 0.00, 0.00, 0.00, 0.00, 0.00, 0.99, 0.03, 0.04
6, 0.00, -177.43, 0.00, 0.00, 0.00, 0.00, 0.00, 0.00, 0.99, 0.03, 0.04
7, 0.00, -31540.08, 0.00, 0.00, 0.00, 0.00, 0.00, 0.00, 0.99, 0.03, 0.04
8, 0.00, -40044.80, 0.00, 0.00, 0.00, 0.00, 0.00, 0.00, 0.99, 0.03, 0.03
9, 0.00, -10752.40, 0.00, 0.00, 0.00, 0.00, 0.00, 0.00, 0.99, 0.03, 0.03
10, 0.00, 2501.72, 0.00, 0.00, 0.00, 0.00, 0.00, 0.00, 0.99, 0.03, 0.03
11, 0.00, -25953.75, 0.00, 0.00, 0.00, 0.00, 0.00, 0.00, 0.99, 0.03, 0.03
12, 0.00, -42195.73, 0.00, 0.00, 0.00, 0.00, 0.00, 0.00, 0.99, 0.03, 0.03
13, 0.00, -16846.76, 0.00, 0.00, 0.00, 0.00, 0.00, 0.00, 0.99, 0.03, 0.04
14, 0.00, 3495.79, 0.00, 0.00, 0.00, 0.00, 0.00, 0.00, 0.99, 0.03, 0.04
15, 0.00, -20096.32, 0.00, 0.00, 0.00, 0.00, 0.00, 0.00, 0.99, 0.03, 0.04
16, 0.00, -43083.01, 0.00, 0.00, 0.00, 0.00, 0.00, 0.00, 0.99, 0.03, 0.04
17, 0.00, -23464.46, 0.00, 0.00, 0.00, 0.00, 0.00, 0.00, 0.99, 0.03, 0.04
18, 0.00, 2341.55, 0.00, 0.00, 0.00, 0.00, 0.00, 0.00, 1.00, 0.03, 0.04
19, 0.00, -14664.00, 0.00, 0.00, 0.00, 0.00, 0.00, 0.00, 1.00, 0.03, 0.04
20, 0.00, -42812.73, 0.00, 0.00, 0.00, 0.00, 0.00, 0.00, 1.00, 0.03, 0.04
21, 0.00, -30163.14, 0.00, 0.00, 0.00, 0.00, 0.00, 0.00, 1.00, 0.03, 0.04
22, 0.00, -683.99, 0.00, 0.00, 0.00, 0.00, 0.00, 0.00, 1.00, 0.03, 0.04
23, 0.00, -9845.59, 0.00, 0.00, 0.00, 0.00, 0.00, 0.00, 0.99, 0.03, 0.04
24, 0.00, -41114.18, 0.00, 0.00, 0.00, 0.00, 0.00, 0.00, 0.99, 0.03, 0.04
25, 0.00, -36293.55, 0.00, 0.00, 0.00, 0.00, 0.00, 0.00, 0.99, 0.03, 0.04
26, 0.00, -5168.53, 0.00, 0.00, 0.00, 0.00, 0.00, 0.00, 0.99, 0.03, 0.04
27, 0.00, -5722.05, 0.00, 0.00, 0.00, 0.00, 0.00, 0.00, 0.99, 0.03, 0.04
28, 0.00, -37790.32, 0.00, 0.00, 0.00, 0.00, 0.00, 0.00, 0.99, 0.03, 0.04
29, 0.00, -41080.88, 0.00, 0.00, 0.00, 0.00, 0.00, 0.00, 0.99, 0.03, 0.04
30, 0.00, -10361.17, 0.00, 0.00, 0.00, 0.00, 0.00, 0.00, 0.99, 0.03, 0.04
31, 0.00, -2289.20, 0.00, 0.00, 0.00, 0.00, 0.00, 0.00, 0.99, 0.03, 0.04
32, 0.00, -32817.39, 0.00, 0.00, 0.00, 0.00, 0.00, 0.00, 0.99, 0.03, 0.04
33, 0.00, -44134.99, 0.00, 0.00, 0.00, 0.00, 0.00, 0.00, 0.99, 0.03, 0.04
34, 0.00, -15967.48, 0.00, 0.00, 0.00, 0.00, 0.00, 0.00, 0.99, 0.03, 0.04
35, 0.00, 40.99, 0.00, 0.00, 0.00, 0.00, 0.00, 0.00, 0.99, 0.03, 0.04
36, 0.00, -26773.21, 0.00, 0.00, 0.00, 0.00, 0.00, 0.00, 0.99, 0.03, 0.04
37, 0.00, -45398.76, 0.00, 0.00, 0.00, 0.00, 0.00, 0.00, 0.99, 0.03, 0.04
38, 0.00, -21769.57, 0.00, 0.00, 0.00, 0.00, 0.00, 0.00, 0.99, 0.03, 0.04
39, 0.00, 847.33, 0.00, 0.00, 0.00, 0.00, 0.00, 0.00, 0.99, 0.03, 0.04
40, 0.00, -20367.96, 0.00, 0.00, 0.00, 0.00, 0.00, 0.00, 0.99, 0.03, 0.04
41, 0.00, -45386.87, 0.00, 0.00, 0.00, 0.00, 0.00, 0.00, 0.99, 0.03, 0.04
42, 0.00, -28151.82, 0.00, 0.00, 0.00, 0.00, 0.00, 0.00, 0.99, 0.03, 0.04
43, 0.00, -607.39, 0.00, 0.00, 0.00, 0.00, 0.00, 0.00, 0.99, 0.03, 0.04
44, 0.00, -14578.57, 0.00, 0.00, 0.00, 0.00, 0.00, 0.00, 0.99, 0.03, 0.04
45, 0.00, -43747.86, 0.00, 0.00, 0.00, 0.00, 0.00, 0.00, 0.99, 0.03, 0.04
46, 0.00, -33490.87, 0.00, 0.00, 0.00, 0.00, 0.00, 0.00, 0.99, 0.03, 0.04
47, 0.00, -2968.62, 0.00, 0.00, 0.00, 0.00, 0.00, 0.00, 0.99, 0.03, 0.04
48, 0.00, -8788.30, 0.00, 0.00, 0.00, 0.00, 0.00, 0.00, 0.99, 0.03, 0.03
49, 0.00, -40324.22, 0.00, 0.00, 0.00, 0.00, 0.00, 0.00, 0.99, 0.03, 0.03
50, 0.00, -38111.13, 0.00, 0.00, 0.00, 0.00, 0.00, 0.00, 0.99, 0.03, 0.03
51, 0.00, -6602.68, 0.00, 0.00, 0.00, 0.00, 0.00, 0.00, 0.99, 0.03, 0.03
52, 0.00, -3850.36, 0.00, 0.00, 0.00, 0.00, 0.00, 0.00, 0.99, 0.03, 0.03
53, 0.00, -35603.91, 0.00, 0.00, 0.00, 0.00, 0.00, 0.00, 0.99, 0.03, 0.03
54, 0.00, -41837.82, 0.00, 0.00, 0.00, 0.00, 0.00, 0.00, 0.99, 0.03, 0.03
55, 0.00, -11801.54, 0.00, 0.00, 0.00, 0.00, 0.00, 0.00, 0.99, 0.03, 0.03
56, 0.00, -821.43, 0.00, 0.00, 0.00, 0.00, 0.00, 0.00, 0.99, 0.03, 0.03
57, 0.00, -30421.10, 0.00, 0.00, 0.00, 0.00, 0.00, 0.00, 0.99, 0.03, 0.03
58, 0.00, -44593.05, 0.00, 0.00, 0.00, 0.00, 0.00, 0.00, 0.99, 0.03, 0.03
59, 0.00, -17897.87, 0.00, 0.00, 0.00, 0.00, 0.00, 0.00, 0.99, 0.03, 0.03
60, 0.00, 597.13, 0.00, 0.00, 0.00, 0.00, 0.00, 0.00, 0.99, 0.03, 0.03
61, 0.00, -24535.55, 0.00, 0.00, 0.00, 0.00, 0.00, 0.00, 0.99, 0.03, 0.03
62, 0.00, -45648.09, 0.00, 0.00, 0.00, 0.00, 0.00, 0.00, 0.99, 0.03, 0.03
63, 0.00, -24042.45, 0.00, 0.00, 0.00, 0.00, 0.00, 0.00, 0.98, 0.03, 0.04
64, 0.00, 649.59, 0.00, 0.00, 0.00, 0.00, 0.00, 0.00, 0.98, 0.03, 0.04
65, 0.00, -18113.90, 0.00, 0.00, 0.00, 0.00, 0.00, 0.00, 0.98, 0.03, 0.04
66, 0.00, -44703.29, 0.00, 0.00, 0.00, 0.00, 0.00, 0.00, 0.98, 0.03, 0.04
67, 0.00, -29593.78, 0.00, 0.00, 0.00, 0.00, 0.00, 0.00, 0.98, 0.03, 0.04
68, 0.00, -629.74, 0.00, 0.00, 0.00, 0.00, 0.00, 0.00, 0.99, 0.03, 0.04
69, 0.00, -11865.71, 0.00, 0.00, 0.00, 0.00, 0.00, 0.00, 0.99, 0.03, 0.04
70, 0.00, -42237.91, 0.00, 0.00, 0.00, 0.00, 0.00, 0.00, 0.99, 0.03, 0.04
71, 0.00, -34815.12, 0.00, 0.00, 0.00, 0.00, 0.00, 0.00, 0.99, 0.03, 0.04
72, 0.00, -3663.16, 0.00, 0.00, 0.00, 0.00, 0.00, 0.00, 0.99, 0.03, 0.04
73, 0.00, -6489.43, 0.00, 0.00, 0.00, 0.00, 0.00, 0.00, 0.99, 0.03, 0.04
74, 0.00, -38416.52, 0.00, 0.00, 0.00, 0.00, 0.00, 0.00, 0.99, 0.03, 0.04
75, 0.00, -39232.38, 0.00, 0.00, 0.00, 0.00, 0.00, 0.00, 0.99, 0.03, 0.04
76, 0.00, -8037.87, 0.00, 0.00, 0.00, 0.00, 0.00, 0.00, 0.99, 0.03, 0.04
77, 0.00, -2324.89, 0.00, 0.00, 0.00, 0.00, 0.00, 0.00, 0.99, 0.03, 0.04
78, 0.00, -33594.36, 0.00, 0.00, 0.00, 0.00, 0.00, 0.00, 0.99, 0.03, 0.04
79, 0.00, -42768.09, 0.00, 0.00, 0.00, 0.00, 0.00, 0.00, 0.99, 0.03, 0.04
80, 0.00, -13805.46, 0.00, 0.00, 0.00, 0.00, 0.00, 0.00, 0.99, 0.03, 0.04
81, 0.00, -158.92, 0.00, 0.00, 0.00, 0.00, 0.00, 0.00, 0.99, 0.03, 0.04
82, 0.00, -28532.31, 0.00, 0.00, 0.00, 0.00, 0.00, 0.00, 0.99, 0.03, 0.04
83, 0.00, -45475.32, 0.00, 0.00, 0.00, 0.00, 0.00, 0.00, 0.99, 0.03, 0.04
84, 0.00, -20618.97, 0.00, 0.00, 0.00, 0.00, 0.00, 0.00, 0.99, 0.03, 0.04
85, 0.00, 58.36, 0.00, 0.00, 0.00, 0.00, 0.00, 0.00, 0.99, 0.03, 0.04
86, 0.00, -23228.92, 0.00, 0.00, 0.00, 0.00, 0.00, 0.00, 0.99, 0.03, 0.04
87, 0.00, -46790.09, 0.00, 0.00, 0.00, 0.00, 0.00, 0.00, 0.99, 0.03, 0.04
88, 0.00, -27672.51, 0.00, 0.00, 0.00, 0.00, 0.00, 0.00, 0.99, 0.03, 0.04
89, 0.00, -1532.82, 0.00, 0.00, 0.00, 0.00, 0.00, 0.00, 0.99, 0.03, 0.04
90, 0.00, -18023.40, 0.00, 0.00, 0.00, 0.00, 0.00, 0.00, 0.99, 0.03, 0.04
91, 0.00, -46537.70, 0.00, 0.00, 0.00, 0.00, 0.00, 0.00, 0.99, 0.03, 0.04
92, 0.00, -34452.57, 0.00, 0.00, 0.00, 0.00, 0.00, 0.00, 0.99, 0.03, 0.04
93, 0.00, -4734.61, 0.00, 0.00, 0.00, 0.00, 0.00, 0.00, 0.99, 0.03, 0.03
94, 0.00, -13253.71, 0.00, 0.00, 0.00, 0.00, 0.00, 0.00, 0.99, 0.03, 0.03
95, 0.00, -44696.29, 0.00, 0.00, 0.00, 0.00, 0.00, 0.00, 0.99, 0.03, 0.03
96, 0.00, -40478.94, 0.00, 0.00, 0.00, 0.00, 0.00, 0.00, 0.99, 0.03, 0.03
97, 0.00, -9295.82, 0.00, 0.00, 0.00, 0.00, 0.00, 0.00, 0.99, 0.03, 0.03
98, 0.00, -9206.64, 0.00, 0.00, 0.00, 0.00, 0.00, 0.00, 0.99, 0.03, 0.03
99, 0.00, -41387.32, 0.00, 0.00, 0.00, 0.00, 0.00, 0.00, 0.99, 0.03, 0.03
100, 0.00, -45447.04, 0.00, 0.00, 0.00, 0.00, 0.00, 0.00, 0.99, 0.03, 0.03
101, 0.00, -14958.86, 0.00, 0.00, 0.00, 0.00, 0.00, 0.00, 0.99, 0.03, 0.03
102, 0.00, -6392.98, 0.00, 0.00, 0.00, 0.00, 0.00, 0.00, 0.99, 0.03, 0.03
103, 0.00, -36944.57, 0.00, 0.00, 0.00, 0.00, 0.00, 0.00, 0.99, 0.04, 0.04
104, 0.00, -49058.43, 0.00, 0.00, 0.00, 0.00, 0.00, 0.00, 0.99, 0.04, 0.04
105, 0.00, -21369.23, 0.00, 0.00, 0.00, 0.00, 0.00, 0.00, 0.99, 0.04, 0.04
106, 0.00, -5064.88, 0.00, 0.00, 0.00, 0.00, 0.00, 0.00, 0.99, 0.04, 0.04
107, 0.00, -31874.08, 0.00, 0.00, 0.00, 0.00, 0.00, 0.00, 0.99, 0.04, 0.04
108, 0.00, -51387.84, 0.00, 0.00, 0.00, 0.00, 0.00, 0.00, 0.99, 0.04, 0.04
109, 0.00, -28457.93, 0.00, 0.00, 0.00, 0.00, 0.00, 0.00, 0.99, 0.03, 0.04
110, 0.00, -5688.94, 0.00, 0.00, 0.00, 0.00, 0.00, 0.00, 0.99, 0.03, 0.04
111, 0.00, -26750.05, 0.00, 0.00, 0.00, 0.00, 0.00, 0.00, 0.99, 0.03, 0.04
112, 0.00, -52319.78, 0.00, 0.00, 0.00, 0.00, 0.00, 0.00, 0.99, 0.03, 0.04
113, 0.00, -35653.18, 0.00, 0.00, 0.00, 0.00, 0.00, 0.00, 0.99, 0.03, 0.04
114, 0.00, -8057.42, 0.00, 0.00, 0.00, 0.00, 0.00, 0.00, 0.99, 0.03, 0.04
115, 0.00, -21793.42, 0.00, 0.00, 0.00, 0.00, 0.00, 0.00, 0.99, 0.03, 0.04
116, 0.00, -51564.15, 0.00, 0.00, 0.00, 0.00, 0.00, 0.00, 0.99, 0.03, 0.04
117, 0.00, -42169.56, 0.00, 0.00, 0.00, 0.00, 0.00, 0.00, 0.99, 0.03, 0.04
118, 0.00, -11634.55, 0.00, 0.00, 0.00, 0.00, 0.00, 0.00, 0.99, 0.03, 0.04
119, 0.00, -17028.32, 0.00, 0.00, 0.00, 0.00, 0.00, 0.00, 0.99, 0.03, 0.04
120, 0.00, -48888.98, 0.00, 0.00, 0.00, 0.00, 0.00, 0.00, 0.99, 0.03, 0.04
121, 0.00, -47480.29, 0.00, 0.00, 0.00, 0.00, 0.00, 0.00, 0.99, 0.03, 0.04
122, 0.00, -16172.76, 0.00, 0.00, 0.00, 0.00, 0.00, 0.00, 0.99, 0.03, 0.04
123, 0.00, -12907.71, 0.00, 0.00, 0.00, 0.00, 0.00, 0.00, 0.99, 0.03, 0.04
124, 0.00, -44591.68, 0.00, 0.00, 0.00, 0.00, 0.00, 0.00, 0.99, 0.02, 0.04
125, 0.00, -51339.65, 0.00, 0.00, 0.00, 0.00, 0.00, 0.00, 0.99, 0.02, 0.04
126, 0.00, -21458.08, 0.00, 0.00, 0.00, 0.00, 0.00, 0.00, 0.99, 0.02, 0.04
127, 0.00, -9928.73, 0.00, 0.00, 0.00, 0.00, 0.00, 0.00, 0.99, 0.02, 0.04
128, 0.00, -39267.97, 0.00, 0.00, 0.00, 0.00, 0.00, 0.00, 0.99, 0.02, 0.04
129, 0.00, -54012.77, 0.00, 0.00, 0.00, 0.00, 0.00, 0.00, 0.99, 0.02, 0.04
130, 0.00, -27742.40, 0.00, 0.00, 0.00, 0.00, 0.00, 0.00, 0.99, 0.02, 0.04
131, 0.00, -8895.68, 0.00, 0.00, 0.00, 0.00, 0.00, 0.00, 0.99, 0.02, 0.04
132, 0.00, -33716.71, 0.00, 0.00, 0.00, 0.00, 0.00, 0.00, 0.99, 0.02, 0.04
133, 0.00, -55382.84, 0.00, 0.00, 0.00, 0.00, 0.00, 0.00, 0.99, 0.02, 0.04
134, 0.00, -34382.93, 0.00, 0.00, 0.00, 0.00, 0.00, 0.00, 0.99, 0.03, 0.04
135, 0.00, -9539.61, 0.00, 0.00, 0.00, 0.00, 0.00, 0.00, 0.99, 0.03, 0.04
136, 0.00, -27941.15, 0.00, 0.00, 0.00, 0.00, 0.00, 0.00, 0.99, 0.03, 0.04
137, 0.00, -55059.34, 0.00, 0.00, 0.00, 0.00, 0.00, 0.00, 0.99, 0.03, 0.04
138, 0.00, -40739.92, 0.00, 0.00, 0.00, 0.00, 0.00, 0.00, 0.99, 0.03, 0.04
139, 0.00, -11743.96, 0.00, 0.00, 0.00, 0.00, 0.00, 0.00, 0.99, 0.04, 0.04
140, 0.00, -22514.26, 0.00, 0.00, 0.00, 0.00, 0.00, 0.00, 0.99, 0.04, 0.04
141, 0.00, -53241.12, 0.00, 0.00, 0.00, 0.00, 0.00, 0.00, 0.99, 0.04, 0.04
142, 0.00, -46612.17, 0.00, 0.00, 0.00, 0.00, 0.00, 0.00, 0.99, 0.04, 0.04
143, 0.00, -15551.18, 0.00, 0.00, 0.00, 0.00, 0.00, 0.00, 0.99, 0.04, 0.04
144, 0.00, -17889.24, 0.00, 0.00, 0.00, 0.00, 0.00, 0.00, 0.99, 0.03, 0.04
145, 0.00, -49970.88, 0.00, 0.00, 0.00, 0.00, 0.00, 0.00, 0.99, 0.03, 0.04
146, 0.00, -51427.99, 0.00, 0.00, 0.00, 0.00, 0.00, 0.00, 0.99, 0.03, 0.04
147, 0.00, -20357.77, 0.00, 0.00, 0.00, 0.00, 0.00, 0.00, 0.99, 0.03, 0.04
148, 0.00, -14062.89, 0.00, 0.00, 0.00, 0.00, 0.00, 0.00, 0.99, 0.03, 0.04
149, 0.00, -45128.48, 0.00, 0.00, 0.00, 0.00, 0.00, 0.00, 1.00, 0.03, 0.03
150, 0.00, -54735.22, 0.00, 0.00, 0.00, 0.00, 0.00, 0.00, 1.00, 0.03, 0.03
151, 0.00, -25840.67, 0.00, 0.00, 0.00, 0.00, 0.00, 0.00, 1.00, 0.03, 0.03
152, 0.00, -11499.17, 0.00, 0.00, 0.00, 0.00, 0.00, 0.00, 1.00, 0.03, 0.03
153, 0.00, -39396.34, 0.00, 0.00, 0.00, 0.00, 0.00, 0.00, 1.00, 0.03, 0.03
154, 0.00, -56633.20, 0.00, 0.00, 0.00, 0.00, 0.00, 0.00, 0.99, 0.03, 0.03
155, 0.00, -31972.81, 0.00, 0.00, 0.00, 0.00, 0.00, 0.00, 0.99, 0.03, 0.03
156, 0.00, -10793.41, 0.00, 0.00, 0.00, 0.00, 0.00, 0.00, 0.99, 0.03, 0.03
157, 0.00, -33559.02, 0.00, 0.00, 0.00, 0.00, 0.00, 0.00, 0.99, 0.03, 0.03
158, 0.00, -57319.97, 0.00, 0.00, 0.00, 0.00, 0.00, 0.00, 0.99, 0.03, 0.03
159, 0.00, -38517.89, 0.00, 0.00, 0.00, 0.00, 0.00, 0.00, 0.99, 0.03, 0.04
160, 0.00, -12033.55, 0.00, 0.00, 0.00, 0.00, 0.00, 0.00, 0.99, 0.03, 0.04
161, 0.00, -27970.62, 0.00, 0.00, 0.00, 0.00, 0.00, 0.00, 0.99, 0.03, 0.04
162, 0.00, -56599.78, 0.00, 0.00, 0.00, 0.00, 0.00, 0.00, 0.99, 0.03, 0.04
163, 0.00, -44840.84, 0.00, 0.00, 0.00, 0.00, 0.00, 0.00, 0.99, 0.03, 0.04
164, 0.00, -14877.90, 0.00, 0.00, 0.00, 0.00, 0.00, 0.00, 0.99, 0.04, 0.03
165, 0.00, -22771.84, 0.00, 0.00, 0.00, 0.00, 0.00, 0.00, 0.99, 0.04, 0.03
166, 0.00, -54115.16, 0.00, 0.00, 0.00, 0.00, 0.00, 0.00, 0.99, 0.04, 0.03
167, 0.00, -50143.50, 0.00, 0.00, 0.00, 0.00, 0.00, 0.00, 0.99, 0.04, 0.03
168, 0.00, -18731.90, 0.00, 0.00, 0.00, 0.00, 0.00, 0.00, 0.99, 0.04, 0.03
169, 0.00, -17965.55, 0.00, 0.00, 0.00, 0.00, 0.00, 0.00, 0.98, 0.03, 0.04
170, 0.00, -49862.02, 0.00, 0.00, 0.00, 0.00, 0.00, 0.00, 0.98, 0.03, 0.04
171, 0.00, -54149.00, 0.00, 0.00, 0.00, 0.00, 0.00, 0.00, 0.98, 0.03, 0.04
172, 0.00, -23603.53, 0.00, 0.00, 0.00, 0.00, 0.00, 0.00, 0.98, 0.03, 0.04
173, 0.00, -14460.37, 0.00, 0.00, 0.00, 0.00, 0.00, 0.00, 0.98, 0.03, 0.04
174, 0.00, -44706.13, 0.00, 0.00, 0.00, 0.00, 0.00, 0.00, 0.98, 0.03, 0.04
175, 0.00, -57122.77, 0.00, 0.00, 0.00, 0.00, 0.00, 0.00, 0.98, 0.03, 0.04
176, 0.00, -29553.16, 0.00, 0.00, 0.00, 0.00, 0.00, 0.00, 0.98, 0.03, 0.04
177, 0.00, -12757.12, 0.00, 0.00, 0.00, 0.00, 0.00, 0.00, 0.98, 0.03, 0.04
178, 0.00, -39133.97, 0.00, 0.00, 0.00, 0.00, 0.00, 0.00, 0.98, 0.03, 0.04
179, 0.00, -58829.32, 0.00, 0.00, 0.00, 0.00, 0.00, 0.00, 0.98, 0.03, 0.04
180, 0.00, -36078.51, 0.00, 0.00, 0.00, 0.00, 0.00, 0.00, 0.98, 0.03, 0.04
181, 0.00, -12874.58, 0.00, 0.00, 0.00, 0.00, 0.00, 0.00, 0.98, 0.03, 0.04
182, 0.00, -33409.35, 0.00, 0.00, 0.00, 0.00, 0.00, 0.00, 0.98, 0.03, 0.04
183, 0.00, -59058.63, 0.00, 0.00, 0.00, 0.00, 0.00, 0.00, 0.98, 0.03, 0.04
184, 0.00, -42540.40, 0.00, 0.00, 0.00, 0.00, 0.00, 0.00, 0.98, 0.03, 0.04
185, 0.00, -14551.57, 0.00, 0.00, 0.00, 0.00, 0.00, 0.00, 0.98, 0.03, 0.04
186, 0.00, -27702.30, 0.00, 0.00, 0.00, 0.00, 0.00, 0.00, 0.98, 0.03, 0.04
187, 0.00, -57433.66, 0.00, 0.00, 0.00, 0.00, 0.00, 0.00, 0.98, 0.03, 0.04
188, 0.00, -48299.95, 0.00, 0.00, 0.00, 0.00, 0.00, 0.00, 0.98, 0.03, 0.04
189, 0.00, -17572.99, 0.00, 0.00, 0.00, 0.00, 0.00, 0.00, 0.98, 0.03, 0.05
190, 0.00, -22456.51, 0.00, 0.00, 0.00, 0.00, 0.00, 0.00, 0.98, 0.03, 0.05
191, 0.00, -54318.27, 0.00, 0.00, 0.00, 0.00, 0.00, 0.00, 0.98, 0.03, 0.05
192, 0.00, -53328.33, 0.00, 0.00, 0.00, 0.00, 0.00, 0.00, 0.98, 0.03, 0.05
193, 0.00, -22095.08, 0.00, 0.00, 0.00, 0.00, 0.00, 0.00, 0.98, 0.03, 0.05
194, 0.00, -18467.61, 0.00, 0.00, 0.00, 0.00, 0.00, 0.00, 0.99, 0.03, 0.04
195, 0.00, -50155.70, 0.00, 0.00, 0.00, 0.00, 0.00, 0.00, 0.99, 0.03, 0.04
196, 0.00, -57400.75, 0.00, 0.00, 0.00, 0.00, 0.00, 0.00, 0.99, 0.03, 0.04
197, 0.00, -27669.60, 0.00, 0.00, 0.00, 0.00, 0.00, 0.00, 0.99, 0.03, 0.04
198, 0.00, -15697.96, 0.00, 0.00, 0.00, 0.00, 0.00, 0.00, 0.99, 0.03, 0.04
199, 0.00, -44766.65, 0.00, 0.00, 0.00, 0.00, 0.00, 0.00, 0.99, 0.03, 0.05
200, 0.00, -59744.11, 0.00, 0.00, 0.00, 0.00, 0.00, 0.00, 0.99, 0.03, 0.05
201, 0.00, -33557.23, 0.00, 0.00, 0.00, 0.00, 0.00, 0.00, 0.99, 0.03, 0.05
202, 0.00, -14172.35, 0.00, 0.00, 0.00, 0.00, 0.00, 0.00, 0.99, 0.03, 0.05
203, 0.00, -38517.55, 0.00, 0.00, 0.00, 0.00, 0.00, 0.00, 0.99, 0.03, 0.05
204, 0.00, -60344.88, 0.00, 0.00, 0.00, 0.00, 0.00, 0.00, 0.98, 0.03, 0.05
205, 0.00, -39501.95, 0.00, 0.00, 0.00, 0.00, 0.00, 0.00, 0.98, 0.03, 0.05
206, 0.00, -14280.80, 0.00, 0.00, 0.00, 0.00, 0.00, 0.00, 0.98, 0.03, 0.05
207, 0.00, -32240.11, 0.00, 0.00, 0.00, 0.00, 0.00, 0.00, 0.98, 0.03, 0.05
208, 0.00, -59532.37, 0.00, 0.00, 0.00, 0.00, 0.00, 0.00, 0.98, 0.03, 0.05
209, 0.00, -45577.60, 0.00, 0.00, 0.00, 0.00, 0.00, 0.00, 0.99, 0.03, 0.05
210, 0.00, -16443.37, 0.00, 0.00, 0.00, 0.00, 0.00, 0.00, 0.99, 0.03, 0.05
211, 0.00, -26829.85, 0.00, 0.00, 0.00, 0.00, 0.00, 0.00, 0.99, 0.03, 0.05
212, 0.00, -57773.25, 0.00, 0.00, 0.00, 0.00, 0.00, 0.00, 0.99, 0.03, 0.05
213, 0.00, -51738.74, 0.00, 0.00, 0.00, 0.00, 0.00, 0.00, 0.99, 0.03, 0.05
214, 0.00, -20804.76, 0.00, 0.00, 0.00, 0.00, 0.00, 0.00, 0.99, 0.03, 0.05
215, 0.00, -22839.73, 0.00, 0.00, 0.00, 0.00, 0.00, 0.00, 0.99, 0.03, 0.05
216, 0.00, -55130.71, 0.00, 0.00, 0.00, 0.00, 0.00, 0.00, 0.99, 0.03, 0.05
217, 0.00, -57338.97, 0.00, 0.00, 0.00, 0.00, 0.00, 0.00, 0.99, 0.03, 0.05
218, 0.00, -26613.64, 0.00, 0.00, 0.00, 0.00, 0.00, 0.00, 0.99, 0.03, 0.05
219, 0.00, -20073.56, 0.00, 0.00, 0.00, 0.00, 0.00, 0.00, 0.99, 0.03, 0.05
220, 0.00, -51230.06, 0.00, 0.00, 0.00, 0.00, 0.00, 0.00, 0.99, 0.03, 0.05
221, 0.00, -61536.50, 0.00, 0.00, 0.00, 0.00, 0.00, 0.00, 0.99, 0.03, 0.05
222, 0.00, -33088.09, 0.00, 0.00, 0.00, 0.00, 0.00, 0.00, 0.99, 0.03, 0.05
223, 0.00, -18511.47, 0.00, 0.00, 0.00, 0.00, 0.00, 0.00, 0.99, 0.03, 0.05
224, 0.00, -46266.66, 0.00, 0.00, 0.00, 0.00, 0.00, 0.00, 0.99, 0.03, 0.04
225, 0.00, -64057.46, 0.00, 0.00, 0.00, 0.00, 0.00, 0.00, 0.99, 0.03, 0.04
226, 0.00, -39814.13, 0.00, 0.00, 0.00, 0.00, 0.00, 0.00, 0.99, 0.03, 0.04
227, 0.00, -18274.52, 0.00, 0.00, 0.00, 0.00, 0.00, 0.00, 0.99, 0.03, 0.04
228, 0.00, -40575.55, 0.00, 0.00, 0.00, 0.00, 0.00, 0.00, 0.99, 0.03, 0.04
229, 0.00, -64589.48, 0.00, 0.00, 0.00, 0.00, 0.00, 0.00, 0.99, 0.03, 0.04
230, 0.00, -46072.66, 0.00, 0.00, 0.00, 0.00, 0.00, 0.00, 0.99, 0.03, 0.04
231, 0.00, -19115.41, 0.00, 0.00, 0.00, 0.00, 0.00, 0.00, 0.99, 0.03, 0.04
232, 0.00, -34279.66, 0.00, 0.00, 0.00, 0.00, 0.00, 0.00, 0.99, 0.03, 0.04
233, 0.00, -62886.68, 0.00, 0.00, 0.00, 0.00, 0.00, 0.00, 0.99, 0.03, 0.04
234, 0.00, -51419.36, 0.00, 0.00, 0.00, 0.00, 0.00, 0.00, 0.99, 0.03, 0.04
235, 0.00, -21095.33, 0.00, 0.00, 0.00, 0.00, 0.00, 0.00, 0.99, 0.03, 0.04
236, 0.00, -28199.72, 0.00, 0.00, 0.00, 0.00, 0.00, 0.00, 0.99, 0.03, 0.04
237, 0.00, -59499.80, 0.00, 0.00, 0.00, 0.00, 0.00, 0.00, 0.99, 0.03, 0.04
238, 0.00, -55991.34, 0.00, 0.00, 0.00, 0.00, 0.00, 0.00, 0.99, 0.03, 0.04
239, 0.00, -24532.13, 0.00, 0.00, 0.00, 0.00, 0.00, 0.00, 0.99, 0.03, 0.03
240, 0.00, -23099.32, 0.00, 0.00, 0.00, 0.00, 0.00, 0.00, 0.99, 0.03, 0.03
241, 0.00, -54764.27, 0.00, 0.00, 0.00, 0.00, 0.00, 0.00, 0.99, 0.03, 0.03
242, 0.00, -59480.98, 0.00, 0.00, 0.00, 0.00, 0.00, 0.00, 0.99, 0.03, 0.03
243, 0.00, -29070.99, 0.00, 0.00, 0.00, 0.00, 0.00, 0.00, 0.99, 0.03, 0.03
244, 0.00, -19292.51, 0.00, 0.00, 0.00, 0.00, 0.00, 0.00, 0.99, 0.03, 0.04
245, 0.00, -49106.94, 0.00, 0.00, 0.00, 0.00, 0.00, 0.00, 0.99, 0.03, 0.04
246, 0.00, -61839.45, 0.00, 0.00, 0.00, 0.00, 0.00, 0.00, 0.99, 0.03, 0.04
247, 0.00, -34388.79, 0.00, 0.00, 0.00, 0.00, 0.00, 0.00, 0.99, 0.03, 0.04
248, 0.00, -16842.24, 0.00, 0.00, 0.00, 0.00, 0.00, 0.00, 0.99, 0.03, 0.04
249, 0.00, -42514.87, 0.00, 0.00, 0.00, 0.00, 0.00, 0.00, 0.99, 0.03, 0.04
250, 0.00, -62341.16, 0.00, 0.00, 0.00, 0.00, 0.00, 0.00, 0.99, 0.03, 0.04
251, 0.00, -39709.59, 0.00, 0.00, 0.00, 0.00, 0.00, 0.00, 0.99, 0.03, 0.04
252, 0.00, -15799.46, 0.00, 0.00, 0.00, 0.00, 0.00, 0.00, 0.99, 0.03, 0.04
253, 0.00, -35424.99, 0.00, 0.00, 0.00, 0.00, 0.00, 0.00, 0.99, 0.03, 0.04
254, 0.00, -61012.15, 0.00, 0.00, 0.00, 0.00, 0.00, 0.00, 0.99, 0.03, 0.04
255, 0.00, -44698.97, 0.00, 0.00, 0.00, 0.00, 0.00, 0.00, 0.99, 0.03, 0.04
0, 0.00, -16187.07, 0.00, 0.00, 0.00, 0.00, 0.00, 0.00, 0.99, 0.03, 0.04
1, 0.00, -28434.48, 0.00, 0.00, 0.00, 0.00, 0.00, 0.00, 0.99, 0.03, 0.04
2, 0.00, -58072.00, 0.00, 0.00, 0.00, 0.00, 0.00, 0.00, 0.99, 0.03, 0.04
3, 0.00, -49261.41, 0.00, 0.00, 0.00, 0.00, 0.00, 0.00, 0.99, 0.03, 0.04
4, 0.00, -18204.49, 0.00, 0.00, 0.00, 0.00, 0.00, 0.00, 0.99, 0.03, 0.04
5, 0.00, -22169.11, 0.00, 0.00, 0.00, 0.00, 0.00, 0.00, 0.99, 0.03, 0.04
6, 0.00, -53768.71, 0.00, 0.00, 0.00, 0.00, 0.00, 0.00, 0.99, 0.03, 0.04
7, 0.00, -53099.56, 0.00, 0.00, 0.00, 0.00, 0.00, 0.00, 0.99, 0.03, 0.04
8, 0.00, -21601.46, 0.00, 0.00, 0.00, 0.00, 0.00, 0.00, 0.99, 0.03, 0.03
9, 0.00, -16981.83, 0.00, 0.00, 0.00, 0.00, 0.00, 0.00, 0.99, 0.03, 0.03
10, 0.00, -48208.73, 0.00, 0.00, 0.00, 0.00, 0.00, 0.00, 0.99, 0.03, 0.03
11, 0.00, -55817.11, 0.00, 0.00, 0.00, 0.00, 0.00, 0.00, 0.99, 0.03, 0.03
12, 0.00, -26043.92, 0.00, 0.00, 0.00, 0.00, 0.00, 0.00, 0.99, 0.03, 0.03
13, 0.00, -13200.47, 0.00, 0.00, 0.00, 0.00, 0.00, 0.00, 0.99, 0.03, 0.03
14, 0.00, -41742.42, 0.00, 0.00, 0.00, 0.00, 0.00, 0.00, 0.99, 0.03, 0.03
15, 0.00, -57144.22, 0.00, 0.00, 0.00, 0.00, 0.00, 0.00, 0.99, 0.03, 0.03
16, 0.00, -31180.19, 0.00, 0.00, 0.00, 0.00, 0.00, 0.00, 0.99, 0.03, 0.03
17, 0.00, -11169.52, 0.00, 0.00, 0.00, 0.00, 0.00, 0.00, 0.99, 0.03, 0.03
18, 0.00, -34953.52, 0.00, 0.00, 0.00, 0.00, 0.00, 0.00, 0.99, 0.03, 0.04
19, 0.00, -57185.06, 0.00, 0.00, 0.00, 0.00, 0.00, 0.00, 0.99, 0.03, 0.04
20, 0.00, -36771.86, 0.00, 0.00, 0.00, 0.00, 0.00, 0.00, 0.99, 0.03, 0.04
21, 0.00, -11095.34, 0.00, 0.00, 0.00, 0.00, 0.00, 0.00, 0.99, 0.03, 0.04
22, 0.00, -28361.08, 0.00, 0.00, 0.00, 0.00, 0.00, 0.00, 0.99, 0.03, 0.04
23, 0.00, -55844.89, 0.00, 0.00, 0.00, 0.00, 0.00, 0.00, 0.99, 0.03, 0.04
24, 0.00, -42267.64, 0.00, 0.00, 0.00, 0.00, 0.00, 0.00, 0.99, 0.03, 0.04
25, 0.00, -12670.44, 0.00, 0.00, 0.00, 0.00, 0.00, 0.00, 0.99, 0.03, 0.04
26, 0.00, -22114.70, 0.00, 0.00, 0.00, 0.00, 0.00, 0.00, 0.99, 0.03, 0.04
27, 0.00, -52886.08, 0.00, 0.00, 0.00, 0.00, 0.00, 0.00, 0.99, 0.03, 0.04
28, 0.00, -47100.38, 0.00, 0.00, 0.00, 0.00, 0.00, 0.00, 0.99, 0.04, 0.04
29, 0.00, -15726.78, 0.00, 0.00, 0.00, 0.00, 0.00, 0.00, 0.99, 0.04, 0.04
30, 0.00, -16734.44, 0.00, 0.00, 0.00, 0.00, 0.00, 0.00, 0.99, 0.04, 0.04
31, 0.00, -48686.81, 0.00, 0.00, 0.00, 0.00, 0.00, 0.00, 0.99, 0.04, 0.04
32, 0.00, -51224.36, 0.00, 0.00, 0.00, 0.00, 0.00, 0.00, 0.99, 0.04, 0.04
33, 0.00, -20319.23, 0.00, 0.00, 0.00, 0.00, 0.00, 0.00, 0.99, 0.04, 0.04
34, 0.00, -12928.96, 0.00, 0.00, 0.00, 0.00, 0.00, 0.00, 0.99, 0.04, 0.05
35, 0.00, -43723.05, 0.00, 0.00, 0.00, 0.00, 0.00, 0.00, 0.99, 0.04, 0.05
36, 0.00, -54439.97, 0.00, 0.00, 0.00, 0.00, 0.00, 0.00, 0.99, 0.04, 0.05
37, 0.00, -26054.60, 0.00, 0.00, 0.00, 0.00, 0.00, 0.00, 0.99, 0.04, 0.05
38, 0.00, -10758.99, 0.00, 0.00, 0.00, 0.00, 0.00, 0.00, 0.99, 0.04, 0.05
39, 0.00, -38059.81, 0.00, 0.00, 0.00, 0.00, 0.00, 0.00, 0.98, 0.04, 0.04
40, 0.00, -56214.14, 0.00, 0.00, 0.00, 0.00, 0.00, 0.00, 0.98, 0.04, 0.04
41, 0.00, -32143.15, 0.00, 0.00, 0.00, 0.00, 0.00, 0.00, 0.98, 0.04, 0.04
42, 0.00, -9959.85, 0.00, 0.00, 0.00, 0.00, 0.00, 0.00, 0.98, 0.04, 0.04
43, 0.00, -31630.60, 0.00, 0.00, 0.00, 0.00, 0.00, 0.00, 0.98, 0.04, 0.04
44, 0.00, -55969.10, 0.00, 0.00, 0.00, 0.00, 0.00, 0.00, 0.98, 0.03, 0.04
45, 0.00, -37852.28, 0.00, 0.00, 0.00, 0.00, 0.00, 0.00, 0.98, 0.03, 0.04
46, 0.00, -10528.14, 0.00, 0.00, 0.00, 0.00, 0.00, 0.00, 0.98, 0.03, 0.04
47, 0.00, -25150.32, 0.00, 0.00, 0.00, 0.00, 0.00, 0.00, 0.98, 0.03, 0.04
48, 0.00, -54032.64, 0.00, 0.00, 0.00, 0.00, 0.00, 0.00, 0.98, 0.03, 0.04
49, 0.00, -43122.86, 0.00, 0.00, 0.00, 0.00, 0.00, 0.00, 0.99, 0.03, 0.03
50, 0.00, -12633.25, 0.00, 0.00, 0.00, 0.00, 0.00, 0.00, 0.99, 0.03, 0.03
51, 0.00, -19121.13, 0.00, 0.00, 0.00, 0.00, 0.00, 0.00, 0.99, 0.03, 0.03
52, 0.00, -50542.23, 0.00, 0.00, 0.00, 0.00, 0.00, 0.00, 0.99, 0.03, 0.03
53, 0.00, -47671.66, 0.00, 0.00, 0.00, 0.00, 0.00, 0.00, 0.99, 0.03, 0.03
54, 0.00, -16230.09, 0.00, 0.00, 0.00, 0.00, 0.00, 0.00, 0.99, 0.03, 0.04
55, 0.00, -14266.67, 0.00, 0.00, 0.00, 0.00, 0.00, 0.00, 0.99, 0.03, 0.04
56, 0.00, -46058.29, 0.00, 0.00, 0.00, 0.00, 0.00, 0.00, 0.99, 0.03, 0.04
57, 0.00, -51500.79, 0.00, 0.00, 0.00, 0.00, 0.00, 0.00, 0.99, 0.03, 0.04
58, 0.00, -21220.79, 0.00, 0.00, 0.00, 0.00, 0.00, 0.00, 0.99, 0.03, 0.04
59, 0.00, -10881.63, 0.00, 0.00, 0.00, 0.00, 0.00, 0.00, 0.99, 0.02, 0.04
60, 0.00, -40623.20, 0.00, 0.00, 0.00, 0.00, 0.00, 0.00, 0.99, 0.02, 0.04
61, 0.00, -54017.79, 0.00, 0.00, 0.00, 0.00, 0.00, 0.00, 0.99, 0.02, 0.04
62, 0.00, -26928.64, 0.00, 0.00, 0.00, 0.00, 0.00, 0.00, 0.99, 0.02, 0.04
63, 0.00, -9041.59, 0.00, 0.00, 0.00, 0.00, 0.00, 0.00, 0.99, 0.02, 0.04
64, 0.00, -34614.04, 0.00, 0.00, 0.00, 0.00, 0.00, 0.00, 0.99, 0.03, 0.03
65, 0.00, -55168.28, 0.00, 0.00, 0.00, 0.00, 0.00, 0.00, 0.99, 0.03, 0.03
66, 0.00, -33103.27, 0.00, 0.00, 0.00, 0.00, 0.00, 0.00, 0.99, 0.03, 0.03
67, 0.00, -8999.17, 0.00, 0.00, 0.00, 0.00, 0.00, 0.00, 0.99, 0.03, 0.03
68, 0.00, -28441.74, 0.00, 0.00, 0.00, 0.00, 0.00, 0.00, 0.99, 0.03, 0.03
69, 0.00, -54611.70, 0.00, 0.00, 0.00, 0.00, 0.00, 0.00, 0.99, 0.03, 0.03
70, 0.00, -38912.48, 0.00, 0.00, 0.00, 0.00, 0.00, 0.00, 0.99, 0.03, 0.03
71, 0.00, -10292.44, 0.00, 0.00, 0.00, 0.00, 0.00, 0.00, 0.99, 0.03, 0.03
72, 0.00, -22165.82, 0.00, 0.00, 0.00, 0.00, 0.00, 0.00, 0.99, 0.03, 0.03
73, 0.00, -52115.19, 0.00, 0.00, 0.00, 0.00, 0.00, 0.00, 0.99, 0.03, 0.03
74, 0.00, -43834.32, 0.00, 0.00, 0.00, 0.00, 0.00, 0.00, 0.99, 0.03, 0.03
75, 0.00, -12661.73, 0.00, 0.00, 0.00, 0.00, 0.00, 0.00, 0.99, 0.03, 0.03
76, 0.00, -16149.38, 0.00, 0.00, 0.00, 0.00, 0.00, 0.00, 0.99, 0.03, 0.03
77, 0.00, -47956.38, 0.00, 0.00, 0.00, 0.00, 0.00, 0.00, 0.99, 0.03, 0.03
78, 0.00, -48059.27, 0.00, 0.00, 0.00, 0.00, 0.00, 0.00, 0.99, 0.03, 0.03
79, 0.00, -16959.88, 0.00, 0.00, 0.00, 0.00, 0.00, 0.00, 0.99, 0.03, 0.04
80, 0.00, -12263.87, 0.00, 0.00, 0.00, 0.00, 0.00, 0.00, 0.99, 0.03, 0.04
81, 0.00, -43991.94, 0.00, 0.00, 0.00, 0.00, 0.00, 0.00, 0.99, 0.03, 0.04
82, 0.00, -52777.99, 0.00, 0.00, 0.00, 0.00, 0.00, 0.00, 0.99, 0.03, 0.04
83, 0.00, -24099.36, 0.00, 0.00, 0.00, 0.00, 0.00, 0.00, 0.99, 0.03, 0.04
84, 0.00, -11700.38, 0.00, 0.00, 0.00, 0.00, 0.00, 0.00, 0.99, 0.03, 0.03
85, 0.00, -41090.37, 0.00, 0.00, 0.00, 0.00, 0.00, 0.00, 0.99, 0.03, 0.03
86, 0.00, -58074.50, 0.00, 0.00, 0.00, 0.00, 0.00, 0.00, 0.99, 0.03, 0.03
87, 0.00, -33573.19, 0.00, 0.00, 0.00, 0.00, 0.00, 0.00, 0.99, 0.03, 0.03
88, 0.00, -14473.92, 0.00, 0.00, 0.00, 0.00, 0.00, 0.00, 0.99, 0.03, 0.03
89, 0.00, -39310.44, 0.00, 0.00, 0.00, 0.00, 0.00, 0.00, 0.99, 0.03, 0.03
90, 0.00, -63428.26, 0.00, 0.00, 0.00, 0.00, 0.00, 0.00, 0.99, 0.03, 0.03
91, 0.00, -45126.41, 0.00, 0.00, 0.00, 0.00, 0.00, 0.00, 0.99, 0.03, 0.03
92, 0.00, -21129.08, 0.00, 0.00, 0.00, 0.00, 0.00, 0.00, 0.99, 0.03, 0.03
93, 0.00, -39887.74, 0.00, 0.00, 0.00, 0.00, 0.00, 0.00, 0.99, 0.03, 0.03
94, 0.00, -69650.20, 0.00, 0.00, 0.00, 0.00, 0.00, 0.00, 0.99, 0.03, 0.03
95, 0.00, -58792.73, 0.00, 0.00, 0.00, 0.00, 0.00, 0.00, 0.99, 0.03, 0.03
96, 0.00, -31647.10, 0.00, 0.00, 0.00, 0.00, 0.00, 0.00, 0.99, 0.03, 0.03
97, 0.00, -43572.45, 0.00, 0.00, 0.00, 0.00, 0.00, 0.00, 0.99, 0.03, 0.03
98, 0.00, -77860.60, 0.00, 0.00, 0.00, 0.00, 0.00, 0.00, 0.99, 0.03, 0.03
99, 0.00, -75721.27, 0.00, 0.00, 0.00, 0.00, 0.00, 0.00, 0.99, 0.03, 0.03
100, 0.00, -47357.60, 0.00, 0.00, 0.00, 0.00, 0.00, 0.00, 0.99, 0.03, 0.03
101, 0.00, -51142.33, 0.00, 0.00, 0.00, 0.00, 0.00, 0.00, 0.99, 0.03, 0.03
102, 0.00, -86681.67, 0.00, 0.00, 0.00, 0.00, 0.00, 0.00, 0.99, 0.03, 0.03
103, 0.00, -93564.38, 0.00, 0.00, 0.00, 0.00, 0.00, 0.00, 0.99, 0.03, 0.03
104, 0.00, -66025.09, 0.00, 0.00, 0.00, 0.00, 0.00, 0.00, 0.99, 0.04, 0.03
105, 0.00, -61147.80, 0.00, 0.00, 0.00, 0.00, 0.00, 0.00, 0.99, 0.04, 0.03
106, 0.00, -94408.20, 0.00, 0.00, 0.00, 0.00, 0.00, 0.00, 0.99, 0.04, 0.03
107, 0.00, -107920.32, 0.00, 0.00, 0.00, 0.00, 0.00, 0.00, 0.99, 0.04, 0.03
108, 0.00, -82000.77, 0.00, 0.00, 0.00, 0.00, 0.00, 0.00, 0.99, 0.04, 0.03
109, 0.00, -68411.65, 0.00, 0.00, 0.00, 0.00, 0.00, 0.00, 0.99, 0.03, 0.03
110, 0.00, -97456.09, 0.00, 0.00, 0.00, 0.00, 0.00, 0.00, 0.99, 0.03, 0.03
111, 0.00, -117985.04, 0.00, 0.00, 0.00, 0.00, 0.00, 0.00, 0.99, 0.03, 0.03
112, 0.00, -96205.75, 0.00, 0.00, 0.00, 0.00, 0.00, 0.00, 0.99, 0.03, 0.03
113, 0.00, -75673.20, 0.00, 0.00, 0.00, 0.00, 0.00, 0.00, 0.99, 0.03, 0.03
114, 0.00, -98953.18, 0.00, 0.00, 0.00, 0.00, 0.00, 0.00, 0.99, 0.03, 0.03
115, 0.00, -125455.51, 0.00, 0.00, 0.00, 0.00, 0.00, 0.00, 0.99, 0.03, 0.03
116, 0.00, -109493.52, 0.00, 0.00, 0.00, 0.00, 0.00, 0.00, 0.99, 0.03, 0.03
117, 0.00, -83516.93, 0.00, 0.00, 0.00, 0.00, 0.00, 0.00, 0.99, 0.03, 0.03
118, 0.00, -99532.96, 0.00, 0.00, 0.00, 0.00, 0.00, 0.00, 0.99, 0.03, 0.03
119, 0.00, -130563.66, 0.00, 0.00, 0.00, 0.00, 0.00, 0.00, 0.99, 0.03, 0.04
120, 0.00, -121651.63, 0.00, 0.00, 0.00, 0.00, 0.00, 0.00, 0.99, 0.03, 0.04
121, 0.00, -92512.44, 0.00, 0.00, 0.00, 0.00, 0.00, 0.00, 0.99, 0.03, 0.04
122, 0.00, -99893.38, 0.00, 0.00, 0.00, 0.00, 0.00, 0.00, 0.99, 0.03, 0.04
123, 0.00, -132756.86, 0.00, 0.00, 0.00, 0.00, 0.00, 0.00, 0.99, 0.03, 0.04
124, 0.00, -131566.36, 0.00, 0.00, 0.00, 0.00, 0.00, 0.00, 0.99, 0.03, 0.04
125, 0.00, -101155.37, 0.00, 0.00, 0.00, 0.00, 0.00, 0.00, 0.99, 0.03, 0.04
126, 0.00, -99599.84, 0.00, 0.00, 0.00, 0.00, 0.00, 0.00, 0.99, 0.03, 0.04
127, 0.00, -132099.67, 0.00, 0.00, 0.00, 0.00, 0.00, 0.00, 0.99, 0.03, 0.04
128, 0.00, -138823.19, 0.00, 0.00, 0.00, 0.00, 0.00, 0.00, 0.99, 0.03, 0.04
129, 0.00, -109288.43, 0.00, 0.00, 0.00, 0.00, 0.00, 0.00, 0.99, 0.03, 0.03
130, 0.00, -98976.13, 0.00, 0.00, 0.00, 0.00, 0.00, 0.00, 0.99, 0.03, 0.03
131, 0.00, -129027.38, 0.00, 0.00, 0.00, 0.00, 0.00, 0.00, 0.99, 0.03, 0.03
132, 0.00, -143407.98, 0.00, 0.00, 0.00, 0.00, 0.00, 0.00, 0.99, 0.03, 0.03
133, 0.00, -116959.01, 0.00, 0.00, 0.00, 0.00, 0.00, 0.00, 0.99, 0.03, 0.03
134, 0.00, -98792.74, 0.00, 0.00, 0.00, 0.00, 0.00, 0.00, 0.99, 0.03, 0.03
135, 0.00, -124277.35, 0.00, 0.00, 0.00, 0.00, 0.00, 0.00, 0.99, 0.03, 0.03
136, 0.00, -145572.38, 0.00, 0.00, 0.00, 0.00, 0.00, 0.00, 0.99, 0.03, 0.03
137, 0.00, -124245.48, 0.00, 0.00, 0.00, 0.00, 0.00, 0.00, 0.99, 0.03, 0.03
138, 0.00, -99824.72, 0.00, 0.00, 0.00, 0.00, 0.00, 0.00, 0.99, 0.03, 0.03
139, 0.00, -118959.84, 0.00, 0.00, 0.00, 0.00, 0.00, 0.00, 0.99, 0.03, 0.02
140, 0.00, -145853.53, 0.00, 0.00, 0.00, 0.00, 0.00, 0.00, 0.99, 0.03, 0.02
141, 0.00, -130911.15, 0.00, 0.00, 0.00, 0.00, 0.00, 0.00, 0.99, 0.03, 0.02
142, 0.00, -102020.11, 0.00, 0.00, 0.00, 0.00, 0.00, 0.00, 0.99, 0.03, 0.02
143, 0.00, -113349.23, 0.00, 0.00, 0.00, 0.00, 0.00, 0.00, 0.99, 0.03, 0.02
144, 0.00, -143676.77, 0.00, 0.00, 0.00, 0.00, 0.00, 0.00, 0.99, 0.03, 0.03
145, 0.00, -136021.31, 0.00, 0.00, 0.00, 0.00, 0.00, 0.00, 0.99, 0.03, 0.03
146, 0.00, -104425.65, 0.00, 0.00, 0.00, 0.00, 0.00, 0.00, 0.99, 0.03, 0.03
147, 0.00, -106778.10, 0.00, 0.00, 0.00, 0.00, 0.00, 0.00, 0.99, 0.03, 0.03
148, 0.00, -138118.67, 0.00, 0.00, 0.00, 0.00, 0.00, 0.00, 0.99, 0.03, 0.03
149, 0.00, -138057.36, 0.00, 0.00, 0.00, 0.00, 0.00, 0.00, 0.99, 0.03, 0.03
150, 0.00, -105743.73, 0.00, 0.00, 0.00, 0.00, 0.00, 0.00, 0.99, 0.03, 0.03
151, 0.00, -98911.63, 0.00, 0.00, 0.00, 0.00, 0.00, 0.00, 0.99, 0.03, 0.03
152, 0.00, -129003.55, 0.00, 0.00, 0.00, 0.00, 0.00, 0.00, 0.99, 0.03, 0.03
153, 0.00, -136708.22, 0.00, 0.00, 0.00, 0.00, 0.00, 0.00, 0.99, 0.03, 0.03
154, 0.00, -105988.02, 0.00, 0.00, 0.00, 0.00, 0.00, 0.00, 0.99, 0.03, 0.04
155, 0.00, -90566.05, 0.00, 0.00, 0.00, 0.00, 0.00, 0.00, 0.99, 0.03, 0.04
156, 0.00, -117211.41, 0.00, 0.00, 0.00, 0.00, 0.00, 0.00, 0.99, 0.03, 0.04
157, 0.00, -132249.70, 0.00, 0.00, 0.00, 0.00, 0.00, 0.00, 0.99, 0.03, 0.04
158, 0.00, -105369.07, 0.00, 0.00, 0.00, 0.00, 0.00, 0.00, 0.99, 0.03, 0.04
159, 0.00, -82794.41, 0.00, 0.00, 0.00, 0.00, 0.00, 0.00, 0.99, 0.02, 0.04
160, 0.00, -104328.82, 0.00, 0.00, 0.00, 0.00, 0.00, 0.00, 0.99, 0.02, 0.04
161, 0.00, -126003.53, 0.00, 0.00, 0.00, 0.00, 0.00, 0.00, 0.99, 0.02, 0.04
162, 0.00, -104873.22, 0.00, 0.00, 0.00, 0.00, 0.00, 0.00, 0.99, 0.02, 0.04
163, 0.00, -76773.70, 0.00, 0.00, 0.00, 0.00, 0.00, 0.00, 0.99, 0.02, 0.04
164, 0.00, -91574.31, 0.00, 0.00, 0.00, 0.00, 0.00, 0.00, 0.99, 0.03, 0.04
165, 0.00, -118366.27, 0.00, 0.00, 0.00, 0.00, 0.00, 0.00, 0.99, 0.03, 0.04
166, 0.00, -104404.30, 0.00, 0.00, 0.00, 0.00, 0.00, 0.00, 0.99, 0.03, 0.04
167, 0.00, -72866.08, 0.00, 0.00, 0.00, 0.00, 0.00, 0.00, 0.99, 0.03, 0.04
168, 0.00, -79824.49, 0.00, 0.00, 0.00, 0.00, 0.00, 0.00, 0.99, 0.03, 0.04
169, 0.00, -109731.91, 0.00, 0.00, 0.00, 0.00, 0.00, 0.00, 0.99, 0.03, 0.03
170, 0.00, -103857.63, 0.00, 0.00, 0.00, 0.00, 0.00, 0.00, 0.99, 0.03, 0.03
171, 0.00, -71066.12, 0.00, 0.00, 0.00, 0.00, 0.00, 0.00, 0.99, 0.03, 0.03
172, 0.00, -69758.30, 0.00, 0.00, 0.00, 0.00, 0.00, 0.00, 0.99, 0.03, 0.03
173, 0.00, -100833.32, 0.00, 0.00, 0.00, 0.00, 0.00, 0.00, 0.99, 0.03, 0.03
174, 0.00, -103672.69, 0.00, 0.00, 0.00, 0.00, 0.00, 0.00, 0.99, 0.03, 0.03
175, 0.00, -71896.87, 0.00, 0.00, 0.00, 0.00, 0.00, 0.00, 0.99, 0.03, 0.03
176, 0.00, -62335.55, 0.00, 0.00, 0.00, 0.00, 0.00, 0.00, 0.99, 0.03, 0.03
177, 0.00, -92027.05, 0.00, 0.00, 0.00, 0.00, 0.00, 0.00, 0.99, 0.03, 0.03
178, 0.00, -102958.88, 0.00, 0.00, 0.00, 0.00, 0.00, 0.00, 0.99, 0.03, 0.03
179, 0.00, -73915.61, 0.00, 0.00, 0.00, 0.00, 0.00, 0.00, 0.99, 0.03, 0.03
180, 0.00, -56421.46, 0.00, 0.00, 0.00, 0.00, 0.00, 0.00, 0.99, 0.03, 0.03
181, 0.00, -82096.28, 0.00, 0.00, 0.00, 0.00, 0.00, 0.00, 0.99, 0.03, 0.03
182, 0.00, -100195.06, 0.00, 0.00, 0.00, 0.00, 0.00, 0.00, 0.99, 0.03, 0.03
183, 0.00, -75606.18, 0.00, 0.00, 0.00, 0.00, 0.00, 0.00, 0.99, 0.03, 0.03
184, 0.00, -51213.34, 0.00, 0.00, 0.00, 0.00, 0.00, 0.00, 0.99, 0.03, 0.04
185, 0.00, -70697.27, 0.00, 0.00, 0.00, 0.00, 0.00, 0.00, 0.99, 0.03, 0.04
186, 0.00, -94470.96, 0.00, 0.00, 0.00, 0.00, 0.00, 0.00, 0.99, 0.03, 0.04
187, 0.00, -75719.68, 0.00, 0.00, 0.00, 0.00, 0.00, 0.00, 0.99, 0.03, 0.04
188, 0.00, -46079.50, 0.00, 0.00, 0.00, 0.00, 0.00, 0.00, 0.99, 0.03, 0.04
189, 0.00, -58055.32, 0.00, 0.00, 0.00, 0.00, 0.00, 0.00, 0.99, 0.03, 0.04
190, 0.00, -86184.41, 0.00, 0.00, 0.00, 0.00, 0.00, 0.00, 0.99, 0.03, 0.04
191, 0.00, -74995.06, 0.00, 0.00, 0.00, 0.00, 0.00, 0.00, 0.99, 0.03, 0.04
192, 0.00, -42786.94, 0.00, 0.00, 0.00, 0.00, 0.00, 0.00, 0.99, 0.03, 0.04
193, 0.00, -46919.89, 0.00, 0.00, 0.00, 0.00, 0.00, 0.00, 0.99, 0.03, 0.04
194, 0.00, -77647.19, 0.00, 0.00, 0.00, 0.00, 0.00, 0.00, 0.99, 0.03, 0.04
195, 0.00, -74849.17, 0.00, 0.00, 0.00, 0.00, 0.00, 0.00, 0.99, 0.03, 0.04
196, 0.00, -42184.25, 0.00, 0.00, 0.00, 0.00, 0.00, 0.00, 0.99, 0.03, 0.04
197, 0.00, -37916.20, 0.00, 0.00, 0.00, 0.00, 0.00, 0.00, 0.99, 0.03, 0.04
198, 0.00, -68703.94, 0.00, 0.00, 0.00, 0.00, 0.00, 0.00, 0.99, 0.03, 0.04
199, 0.00, -74556.90, 0.00, 0.00, 0.00, 0.00, 0.00, 0.00, 1.00, 0.03, 0.04
200, 0.00, -43722.80, 0.00, 0.00, 0.00, 0.00, 0.00, 0.00, 1.00, 0.03, 0.04
201, 0.00, -31475.21, 0.00, 0.00, 0.00, 0.00, 0.00, 0.00, 1.00, 0.03, 0.04
202, 0.00, -60213.05, 0.00, 0.00, 0.00, 0.00, 0.00, 0.00, 1.00, 0.03, 0.04
203, 0.00, -74107.63, 0.00, 0.00, 0.00, 0.00, 0.00, 0.00, 1.00, 0.03, 0.04
204, 0.00, -46902.21, 0.00, 0.00, 0.00, 0.00, 0.00, 0.00, 1.00, 0.03, 0.04
205, 0.00, -27328.72, 0.00, 0.00, 0.00, 0.00, 0.00, 0.00, 1.00, 0.03, 0.04
206, 0.00, -51952.98, 0.00, 0.00, 0.00, 0.00, 0.00, 0.00, 1.00, 0.03, 0.04
207, 0.00, -73467.45, 0.00, 0.00, 0.00, 0.00, 0.00, 0.00, 1.00, 0.03, 0.04
208, 0.00, -52332.11, 0.00, 0.00, 0.00, 0.00, 0.00, 0.00, 1.00, 0.03, 0.04
209, 0.00, -27643.65, 0.00, 0.00, 0.00, 0.00, 0.00, 0.00, 0.99, 0.03, 0.04
210, 0.00, -46619.50, 0.00, 0.00, 0.00, 0.00, 0.00, 0.00, 0.99, 0.03, 0.04
211, 0.00, -74370.87, 0.00, 0.00, 0.00, 0.00, 0.00, 0.00, 0.99, 0.03, 0.04
212, 0.00, -60650.36, 0.00, 0.00, 0.00, 0.00, 0.00, 0.00, 0.99, 0.03, 0.04
213, 0.00, -32585.89, 0.00, 0.00, 0.00, 0.00, 0.00, 0.00, 0.99, 0.03, 0.04
214, 0.00, -44761.47, 0.00, 0.00, 0.00, 0.00, 0.00, 0.00, 0.99, 0.03, 0.04
215, 0.00, -77006.74, 0.00, 0.00, 0.00, 0.00, 0.00, 0.00, 0.99, 0.03, 0.04
216, 0.00, -71757.91, 0.00, 0.00, 0.00, 0.00, 0.00, 0.00, 0.99, 0.03, 0.04
217, 0.00, -42190.84, 0.00, 0.00, 0.00, 0.00, 0.00, 0.00, 0.99, 0.03, 0.04
218, 0.00, -46504.34, 0.00, 0.00, 0.00, 0.00, 0.00, 0.00, 0.99, 0.03, 0.04
219, 0.00, -80686.62, 0.00, 0.00, 0.00, 0.00, 0.00, 0.00, 0.99, 0.03, 0.04
220, 0.00, -84234.58, 0.00, 0.00, 0.00, 0.00, 0.00, 0.00, 0.99, 0.03, 0.04
221, 0.00, -55273.18, 0.00, 0.00, 0.00, 0.00, 0.00, 0.00, 0.99, 0.03, 0.04
222, 0.00, -51295.73, 0.00, 0.00, 0.00, 0.00, 0.00, 0.00, 0.99, 0.03, 0.04
223, 0.00, -84760.98, 0.00, 0.00, 0.00, 0.00, 0.00, 0.00, 0.99, 0.03, 0.04
224, 0.00, -96545.25, 0.00, 0.00, 0.00, 0.00, 0.00, 0.00, 0.99, 0.03, 0.04
225, 0.00, -69761.40, 0.00, 0.00, 0.00, 0.00, 0.00, 0.00, 0.99, 0.03, 0.04
226, 0.00, -57738.22, 0.00, 0.00, 0.00, 0.00, 0.00, 0.00, 0.99, 0.03, 0.04
227, 0.00, -88072.22, 0.00, 0.00, 0.00, 0.00, 0.00, 0.00, 0.99, 0.03, 0.04
228, 0.00, -107554.40, 0.00, 0.00, 0.00, 0.00, 0.00, 0.00, 0.99, 0.03, 0.04
229, 0.00, -84995.01, 0.00, 0.00, 0.00, 0.00, 0.00, 0.00, 0.99, 0.03, 0.04
230, 0.00, -65996.34, 0.00, 0.00, 0.00, 0.00, 0.00, 0.00, 0.99, 0.03, 0.03
231, 0.00, -91162.55, 0.00, 0.00, 0.00, 0.00, 0.00, 0.00, 0.99, 0.03, 0.03
232, 0.00, -117298.42, 0.00, 0.00, 0.00, 0.00, 0.00, 0.00, 0.99, 0.03, 0.03
233, 0.00, -100669.70, 0.00, 0.00, 0.00, 0.00, 0.00, 0.00, 0.99, 0.03, 0.03
234, 0.00, -76398.51, 0.00, 0.00, 0.00, 0.00, 0.00, 0.00, 0.99, 0.03, 0.03
235, 0.00, -94808.84, 0.00, 0.00, 0.00, 0.00, 0.00, 0.00, 0.99, 0.03, 0.03
236, 0.00, -125999.44, 0.00, 0.00, 0.00, 0.00, 0.00, 0.00, 0.99, 0.03, 0.03
237, 0.00, -116653.55, 0.00, 0.00, 0.00, 0.00, 0.00, 0.00, 0.99, 0.03, 0.03
238, 0.00, -89030.80, 0.00, 0.00, 0.00, 0.00, 0.00, 0.00, 0.99, 0.03, 0.03
239, 0.00, -99391.63, 0.00, 0.00, 0.00, 0.00, 0.00, 0.00, 0.99, 0.03, 0.03
240, 0.00, -133403.39, 0.00, 0.00, 0.00, 0.00, 0.00, 0.00, 0.99, 0.04, 0.03
241, 0.00, -131978.02, 0.00, 0.00, 0.00, 0.00, 0.00, 0.00, 0.99, 0.04, 0.03
242, 0.00, -102888.63, 0.00, 0.00, 0.00, 0.00, 0.00, 0.00, 0.99, 0.04, 0.03
243, 0.00, -104487.31, 0.00, 0.00, 0.00, 0.00, 0.00, 0.00, 0.99, 0.04, 0.03
244, 0.00, -138836.53, 0.00, 0.00, 0.00, 0.00, 0.00, 0.00, 0.99, 0.04, 0.03
245, 0.00, -145290.84, 0.00, 0.00, 0.00, 0.00, 0.00, 0.00, 1.00, 0.03, 0.04
246, 0.00, -116542.20, 0.00, 0.00, 0.00, 0.00, 0.00, 0.00, 1.00, 0.03, 0.04
247, 0.00, -109120.97, 0.00, 0.00, 0.00, 0.00, 0.00, 0.00, 1.00, 0.03, 0.04
248, 0.00, -141160.52, 0.00, 0.00, 0.00, 0.00, 0.00, 0.00, 1.00, 0.03, 0.04
249, 0.00, -155122.36, 0.00, 0.00, 0.00, 0.00, 0.00, 0.00, 1.00, 0.03, 0.04
250, 0.00, -128770.09, 0.00, 0.00, 0.00, 0.00, 0.00, 0.00, 0.99, 0.03, 0.03
251, 0.00, -113102.86, 0.00, 0.00, 0.00, 0.00, 0.00, 0.00, 0.99, 0.03, 0.03
252, 0.00, -140734.84, 0.00, 0.00, 0.00, 0.00, 0.00, 0.00, 0.99, 0.03, 0.03
253, 0.00, -161561.80, 0.00, 0.00, 0.00, 0.00, 0.00, 0.00, 0.99, 0.03, 0.03
254, 0.00, -139678.70, 0.00, 0.00, 0.00, 0.00, 0.00, 0.00, 0.99, 0.03, 0.03
255, 0.00, -117417.24, 0.00, 0.00, 0.00, 0.00, 0.00, 0.00, 0.99, 0.03, 0.04
0, 0.00, -139053.64, 0.00, 0.00, 0.00, 0.00, 0.00, 0.00, 0.99, 0.03, 0.04
1, 0.00, -165803.47, 0.00, 0.00, 0.00, 0.00, 0.00, 0.00, 0.99, 0.03, 0.04
2, 0.00, -150283.00, 0.00, 0.00, 0.00, 0.00, 0.00, 0.00, 0.99, 0.03, 0.04
3, 0.00, -123346.13, 0.00, 0.00, 0.00, 0.00, 0.00, 0.00, 0.99, 0.03, 0.04
4, 0.00, -137969.14, 0.00, 0.00, 0.00, 0.00, 0.00, 0.00, 0.99, 0.03, 0.03
5, 0.00, -169420.31, 0.00, 0.00, 0.00, 0.00, 0.00, 0.00, 0.99, 0.03, 0.03
6, 0.00, -161764.36, 0.00, 0.00, 0.00, 0.00, 0.00, 0.00, 0.99, 0.03, 0.03
7, 0.00, -132500.16, 0.00, 0.00, 0.00, 0.00, 0.00, 0.00, 0.99, 0.03, 0.03
8, 0.00, -139006.30, 0.00, 0.00, 0.00, 0.00, 0.00, 0.00, 0.99, 0.03, 0.03
9, 0.00, -172746.97, 0.00, 0.00, 0.00, 0.00, 0.00, 0.00, 0.99, 0.02, 0.03
10, 0.00, -173443.14, 0.00, 0.00, 0.00, 0.00, 0.00, 0.00, 0.99, 0.02, 0.03
11, 0.00, -143755.50, 0.00, 0.00, 0.00, 0.00, 0.00, 0.00, 0.99, 0.02, 0.03
12, 0.00, -141813.23, 0.00, 0.00, 0.00, 0.00, 0.00, 0.00, 0.99, 0.02, 0.03
13, 0.00, -175513.06, 0.00, 0.00, 0.00, 0.00, 0.00, 0.00, 0.99, 0.02, 0.03
14, 0.00, -184644.16, 0.00, 0.00, 0.00, 0.00, 0.00, 0.00, 0.99, 0.03, 0.03
15, 0.00, -156326.13, 0.00, 0.00, 0.00, 0.00, 0.00, 0.00, 0.99, 0.03, 0.03
16, 0.00, -146016.97, 0.00, 0.00, 0.00, 0.00, 0.00, 0.00, 0.99, 0.03, 0.03
17, 0.00, -175956.44, 0.00, 0.00, 0.00, 0.00, 0.00, 0.00, 0.99, 0.03, 0.03
18, 0.00, -187500.02, 0.00, 0.00, 0.00, 0.00, 0.00, 0.00, 0.99, 0.03, 0.03
19, 0.00, -168604.05, 0.00, 0.00, 0.00, 0.00, 0.00, 0.00, 0.99, 0.03, 0.03
20, 0.00, -150983.44, 0.00, 0.00, 0.00, 0.00, 0.00, 0.00, 0.99, 0.03, 0.03
21, 0.00, -175209.11, 0.00, 0.00, 0.00, 0.00, 0.00, 0.00, 0.99, 0.03, 0.03
22, 0.00, -187500.02, 0.00, 0.00, 0.00, 0.00, 0.00, 0.00, 0.99, 0.03, 0.03
23, 0.00, -178662.66, 0.00, 0.00, 0.00, 0.00, 0.00, 0.00, 0.99, 0.03, 0.03
24, 0.00, -156205.92, 0.00, 0.00, 0.00, 0.00, 0.00, 0.00, 0.99, 0.03, 0.03
25, 0.00, -173490.97, 0.00, 0.00, 0.00, 0.00, 0.00, 0.00, 0.99, 0.03, 0.03
26, 0.00, -187500.02, 0.00, 0.00, 0.00, 0.00, 0.00, 0.00, 0.99, 0.03, 0.03
27, 0.00, -185313.92, 0.00, 0.00, 0.00, 0.00, 0.00, 0.00, 0.99, 0.03, 0.03
28, 0.00, -160946.48, 0.00, 0.00, 0.00, 0.00, 0.00, 0.00, 0.99, 0.03, 0.03
29, 0.00, -170630.50, 0.00, 0.00, 0.00, 0.00, 0.00, 0.00, 0.99, 0.03, 0.04
30, 0.00, -187500.02, 0.00, 0.00, 0.00, 0.00, 0.00, 0.00, 0.99, 0.03, 0.04
31, 0.00, -187500.02, 0.00, 0.00, 0.00, 0.00, 0.00, 0.00, 0.99, 0.03, 0.04
32, 0.00, -165261.11, 0.00, 0.00, 0.00, 0.00, 0.00, 0.00, 0.99, 0.03, 0.04
33, 0.00, -166797.25, 0.00, 0.00, 0.00, 0.00, 0.00, 0.00, 0.99, 0.03, 0.04
34, 0.00, -187500.02, 0.00, 0.00, 0.00, 0.00, 0.00, 0.00, 0.99, 0.03, 0.04
35, 0.00, -187500.02, 0.00, 0.00, 0.00, 0.00, 0.00, 0.00, 0.99, 0.03, 0.04
36, 0.00, -168578.84, 0.00, 0.00, 0.00, 0.00, 0.00, 0.00, 0.99, 0.03, 0.04
37, 0.00, -161797.44, 0.00, 0.00, 0.00, 0.00, 0.00, 0.00, 0.99, 0.03, 0.04
38, 0.00, -186598.34, 0.00, 0.00, 0.00, 0.00, 0.00, 0.00, 0.99, 0.03, 0.04
39, 0.00, -187500.02, 0.00, 0.00, 0.00, 0.00, 0.00, 0.00, 0.99, 0.03, 0.04
40, 0.00, -171187.69, 0.00, 0.00, 0.00, 0.00, 0.00, 0.00, 0.99, 0.03, 0.04
41, 0.00, -156645.69, 0.00, 0.00, 0.00, 0.00, 0.00, 0.00, 0.99, 0.03, 0.04
42, 0.00, -180767.25, 0.00, 0.00, 0.00, 0.00, 0.00, 0.00, 0.99, 0.03, 0.04
43, 0.00, -187500.02, 0.00, 0.00, 0.00, 0.00, 0.00, 0.00, 0.99, 0.03, 0.04
44, 0.00, -173958.38, 0.00, 0.00, 0.00, 0.00, 0.00, 0.00, 0.99, 0.03, 0.04
45, 0.00, -152811.77, 0.00, 0.00, 0.00, 0.00, 0.00, 0.00, 0.99, 0.03, 0.04
46, 0.00, -173426.11, 0.00, 0.00, 0.00, 0.00, 0.00, 0.00, 0.99, 0.03, 0.04
47, 0.00, -187500.02, 0.00, 0.00, 0.00, 0.00, 0.00, 0.00, 0.99, 0.03, 0.04
48, 0.00, -177228.88, 0.00, 0.00, 0.00, 0.00, 0.00, 0.00, 0.99, 0.03, 0.04
49, 0.00, -151019.75, 0.00, 0.00, 0.00, 0.00, 0.00, 0.00, 0.99, 0.03, 0.03
50, 0.00, -165549.06, 0.00, 0.00, 0.00, 0.00, 0.00, 0.00, 0.99, 0.03, 0.03
51, 0.00, -187500.02, 0.00, 0.00, 0.00, 0.00, 0.00, 0.00, 0.99, 0.03, 0.03
52, 0.00, -180447.73, 0.00, 0.00, 0.00, 0.00, 0.00, 0.00, 0.99, 0.03, 0.03
53, 0.00, -150843.17, 0.00, 0.00, 0.00, 0.00, 0.00, 0.00, 0.99, 0.03, 0.03
54, 0.00, -157600.16, 0.00, 0.00, 0.00, 0.00, 0.00, 0.00, 0.99, 0.03, 0.03
55, 0.00, -186967.13, 0.00, 0.00, 0.00, 0.00, 0.00, 0.00, 0.99, 0.03, 0.03
56, 0.00, -183166.70, 0.00, 0.00, 0.00, 0.00, 0.00, 0.00, 0.99, 0.03, 0.03
57, 0.00, -151723.64, 0.00, 0.00, 0.00, 0.00, 0.00, 0.00, 0.99, 0.03, 0.03
58, 0.00, -149662.81, 0.00, 0.00, 0.00, 0.00, 0.00, 0.00, 0.99, 0.03, 0.03
59, 0.00, -180713.05, 0.00, 0.00, 0.00, 0.00, 0.00, 0.00, 0.99, 0.03, 0.04
60, 0.00, -184623.95, 0.00, 0.00, 0.00, 0.00, 0.00, 0.00, 0.99, 0.03, 0.04
61, 0.00, -153190.89, 0.00, 0.00, 0.00, 0.00, 0.00, 0.00, 0.99, 0.03, 0.04
62, 0.00, -142594.25, 0.00, 0.00, 0.00, 0.00, 0.00, 0.00, 0.99, 0.03, 0.04
63, 0.00, -171930.59, 0.00, 0.00, 0.00, 0.00, 0.00, 0.00, 0.99, 0.03, 0.04
64, 0.00, -183917.95, 0.00, 0.00, 0.00, 0.00, 0.00, 0.00, 0.99, 0.03, 0.03
65, 0.00, -155256.48, 0.00, 0.00, 0.00, 0.00, 0.00, 0.00, 0.99, 0.03, 0.03
66, 0.00, -136937.42, 0.00, 0.00, 0.00, 0.00, 0.00, 0.00, 0.99, 0.03, 0.03
67, 0.00, -162128.84, 0.00, 0.00, 0.00, 0.00, 0.00, 0.00, 0.99, 0.03, 0.03
68, 0.00, -181275.41, 0.00, 0.00, 0.00, 0.00, 0.00, 0.00, 0.99, 0.03, 0.03
69, 0.00, -157491.97, 0.00, 0.00, 0.00, 0.00, 0.00, 0.00, 0.99, 0.04, 0.04
70, 0.00, -132670.03, 0.00, 0.00, 0.00, 0.00, 0.00, 0.00, 0.99, 0.04, 0.04
71, 0.00, -151697.73, 0.00, 0.00, 0.00, 0.00, 0.00, 0.00, 0.99, 0.04, 0.04
72, 0.00, -176572.89, 0.00, 0.00, 0.00, 0.00, 0.00, 0.00, 0.99, 0.04, 0.04
73, 0.00, -159190.33, 0.00, 0.00, 0.00, 0.00, 0.00, 0.00, 0.99, 0.04, 0.04
74, 0.00, -129610.88, 0.00, 0.00, 0.00, 0.00, 0.00, 0.00, 0.99, 0.03, 0.04
75, 0.00, -141104.56, 0.00, 0.00, 0.00, 0.00, 0.00, 0.00, 0.99, 0.03, 0.04
76, 0.00, -169939.69, 0.00, 0.00, 0.00, 0.00, 0.00, 0.00, 0.99, 0.03, 0.04
77, 0.00, -159950.52, 0.00, 0.00, 0.00, 0.00, 0.00, 0.00, 0.99, 0.03, 0.04
78, 0.00, -127623.90, 0.00, 0.00, 0.00, 0.00, 0.00, 0.00, 0.99, 0.03, 0.04
79, 0.00, -130628.75, 0.00, 0.00, 0.00, 0.00, 0.00, 0.00, 0.99, 0.02, 0.04
80, 0.00, -161256.14, 0.00, 0.00, 0.00, 0.00, 0.00, 0.00, 0.99, 0.02, 0.04
81, 0.00, -159267.02, 0.00, 0.00, 0.00, 0.00, 0.00, 0.00, 0.99, 0.02, 0.04
82, 0.00, -126360.27, 0.00, 0.00, 0.00, 0.00, 0.00, 0.00, 0.99, 0.02, 0.04
83, 0.00, -120633.92, 0.00, 0.00, 0.00, 0.00, 0.00, 0.00, 0.99, 0.02, 0.04
84, 0.00, -150833.91, 0.00, 0.00, 0.00, 0.00, 0.00, 0.00, 0.99, 0.02, 0.04
85, 0.00, -157108.59, 0.00, 0.00, 0.00, 0.00, 0.00, 0.00, 0.99, 0.02, 0.04
86, 0.00, -125977.98, 0.00, 0.00, 0.00, 0.00, 0.00, 0.00, 0.99, 0.02, 0.04
87, 0.00, -112134.72, 0.00, 0.00, 0.00, 0.00, 0.00, 0.00, 0.99, 0.02, 0.04
88, 0.00, -139846.91, 0.00, 0.00, 0.00, 0.00, 0.00, 0.00, 0.99, 0.02, 0.04
89, 0.00, -154120.66, 0.00, 0.00, 0.00, 0.00, 0.00, 0.00, 0.98, 0.03, 0.04
90, 0.00, -126956.36, 0.00, 0.00, 0.00, 0.00, 0.00, 0.00, 0.98, 0.03, 0.04
91, 0.00, -106101.38, 0.00, 0.00, 0.00, 0.00, 0.00, 0.00, 0.98, 0.03, 0.04
92, 0.00, -129333.47, 0.00, 0.00, 0.00, 0.00, 0.00, 0.00, 0.98, 0.03, 0.04
93, 0.00, -150753.84, 0.00, 0.00, 0.00, 0.00, 0.00, 0.00, 0.98, 0.03, 0.04
94, 0.00, -129355.06, 0.00, 0.00, 0.00, 0.00, 0.00, 0.00, 0.99, 0.03, 0.03
95, 0.00, -102995.09, 0.00, 0.00, 0.00, 0.00, 0.00, 0.00, 0.99, 0.03, 0.03
96, 0.00, -119973.66, 0.00, 0.00, 0.00, 0.00, 0.00, 0.00, 0.99, 0.03, 0.03
97, 0.00, -146927.11, 0.00, 0.00, 0.00, 0.00, 0.00, 0.00, 0.99, 0.03, 0.03
98, 0.00, -132525.41, 0.00, 0.00, 0.00, 0.00, 0.00, 0.00, 0.99, 0.03, 0.03
99, 0.00, -102270.60, 0.00, 0.00, 0.00, 0.00, 0.00, 0.00, 0.99, 0.03, 0.03
100, 0.00, -111445.70, 0.00, 0.00, 0.00, 0.00, 0.00, 0.00, 0.99, 0.03, 0.03
101, 0.00, -141703.38, 0.00, 0.00, 0.00, 0.00, 0.00, 0.00, 0.99, 0.03, 0.03
102, 0.00, -134976.50, 0.00, 0.00, 0.00, 0.00, 0.00, 0.00, 0.99, 0.03, 0.03
103, 0.00, -102766.55, 0.00, 0.00, 0.00, 0.00, 0.00, 0.00, 0.99, 0.03, 0.03
104, 0.00, -103359.41, 0.00, 0.00, 0.00, 0.00, 0.00, 0.00, 0.98, 0.03, 0.04
105, 0.00, -134749.00, 0.00, 0.00, 0.00, 0.00, 0.00, 0.00, 0.98, 0.03, 0.04
106, 0.00, -136249.55, 0.00, 0.00, 0.00, 0.00, 0.00, 0.00, 0.98, 0.03, 0.04
107, 0.00, -104343.86, 0.00, 0.00, 0.00, 0.00, 0.00, 0.00, 0.98, 0.03, 0.04
108, 0.00, -96367.73, 0.00, 0.00, 0.00, 0.00, 0.00, 0.00, 0.98, 0.03, 0.04
109, 0.00, -126566.16, 0.00, 0.00, 0.00, 0.00, 0.00, 0.00, 0.99, 0.03, 0.04
110, 0.00, -136226.13, 0.00, 0.00, 0.00, 0.00, 0.00, 0.00, 0.99, 0.03, 0.04
111, 0.00, -106701.99, 0.00, 0.00, 0.00, 0.00, 0.00, 0.00, 0.99, 0.03, 0.04
112, 0.00, -90641.59, 0.00, 0.00, 0.00, 0.00, 0.00, 0.00, 0.99, 0.03, 0.04
113, 0.00, -117322.31, 0.00, 0.00, 0.00, 0.00, 0.00, 0.00, 0.99, 0.03, 0.04
114, 0.00, -134368.94, 0.00, 0.00, 0.00, 0.00, 0.00, 0.00, 0.99, 0.03, 0.04
115, 0.00, -109050.83, 0.00, 0.00, 0.00, 0.00, 0.00, 0.00, 0.99, 0.03, 0.04
116, 0.00, -86089.91, 0.00, 0.00, 0.00, 0.00, 0.00, 0.00, 0.99, 0.03, 0.04
117, 0.00, -107249.16, 0.00, 0.00, 0.00, 0.00, 0.00, 0.00, 0.99, 0.03, 0.04
118, 0.00, -130560.00, 0.00, 0.00, 0.00, 0.00, 0.00, 0.00, 0.99, 0.03, 0.04
119, 0.00, -111188.30, 0.00, 0.00, 0.00, 0.00, 0.00, 0.00, 1.00, 0.03, 0.04
120, 0.00, -83065.83, 0.00, 0.00, 0.00, 0.00, 0.00, 0.00, 1.00, 0.03, 0.04
121, 0.00, -97364.24, 0.00, 0.00, 0.00, 0.00, 0.00, 0.00, 1.00, 0.03, 0.04
122, 0.00, -125637.41, 0.00, 0.00, 0.00, 0.00, 0.00, 0.00, 1.00, 0.03, 0.04
123, 0.00, -113898.45, 0.00, 0.00, 0.00, 0.00, 0.00, 0.00, 1.00, 0.03, 0.04
124, 0.00, -83040.28, 0.00, 0.00, 0.00, 0.00, 0.00, 0.00, 0.99, 0.03, 0.04
125, 0.00, -89789.84, 0.00, 0.00, 0.00, 0.00, 0.00, 0.00, 0.99, 0.03, 0.04
126, 0.00, -121322.88, 0.00, 0.00, 0.00, 0.00, 0.00, 0.00, 0.99, 0.03, 0.04
127, 0.00, -118257.40, 0.00, 0.00, 0.00, 0.00, 0.00, 0.00, 0.99, 0.03, 0.04
128, 0.00, -86955.03, 0.00, 0.00, 0.00, 0.00, 0.00, 0.00, 0.99, 0.03, 0.04
129, 0.00, -85734.41, 0.00, 0.00, 0.00, 0.00, 0.00, 0.00, 0.99, 0.03, 0.03
130, 0.00, -118305.09, 0.00, 0.00, 0.00, 0.00, 0.00, 0.00, 0.99, 0.03, 0.03
131, 0.00, -124205.29, 0.00, 0.00, 0.00, 0.00, 0.00, 0.00, 0.99, 0.03, 0.03
132, 0.00, -94584.42, 0.00, 0.00, 0.00, 0.00, 0.00, 0.00, 0.99, 0.03, 0.03
133, 0.00, -85518.76, 0.00, 0.00, 0.00, 0.00, 0.00, 0.00, 0.99, 0.03, 0.03
134, 0.00, -116656.01, 0.00, 0.00, 0.00, 0.00, 0.00, 0.00, 0.99, 0.03, 0.04
135, 0.00, -131014.32, 0.00, 0.00, 0.00, 0.00, 0.00, 0.00, 0.99, 0.03, 0.04
136, 0.00, -104844.56, 0.00, 0.00, 0.00, 0.00, 0.00, 0.00, 0.99, 0.03, 0.04
137, 0.00, -88361.80, 0.00, 0.00, 0.00, 0.00, 0.00, 0.00, 0.99, 0.03, 0.04
138, 0.00, -115474.18, 0.00, 0.00, 0.00, 0.00, 0.00, 0.00, 0.99, 0.03, 0.04
139, 0.00, -137090.91, 0.00, 0.00, 0.00, 0.00, 0.00, 0.00, 0.99, 0.03, 0.04
140, 0.00, -115903.20, 0.00, 0.00, 0.00, 0.00, 0.00, 0.00, 0.99, 0.03, 0.04
141, 0.00, -93111.71, 0.00, 0.00, 0.00, 0.00, 0.00, 0.00, 0.99, 0.03, 0.04
142, 0.00, -114177.60, 0.00, 0.00, 0.00, 0.00, 0.00, 0.00, 0.99, 0.03, 0.04
143, 0.00, -141656.72, 0.00, 0.00, 0.00, 0.00, 0.00, 0.00, 0.99, 0.03, 0.04
144, 0.00, -127036.88, 0.00, 0.00, 0.00, 0.00, 0.00, 0.00, 0.98, 0.02, 0.04
145, 0.00, -99751.49, 0.00, 0.00, 0.00, 0.00, 0.00, 0.00, 0.98, 0.02, 0.04
146, 0.00, -113368.54, 0.00, 0.00, 0.00, 0.00, 0.00, 0.00, 0.98, 0.02, 0.04
147, 0.00, -144838.53, 0.00, 0.00, 0.00, 0.00, 0.00, 0.00, 0.98, 0.02, 0.04
148, 0.00, -137733.75, 0.00, 0.00, 0.00, 0.00, 0.00, 0.00, 0.98, 0.02, 0.04
149, 0.00, -107897.84, 0.00, 0.00, 0.00, 0.00, 0.00, 0.00, 0.99, 0.02, 0.03
150, 0.00, -113104.61, 0.00, 0.00, 0.00, 0.00, 0.00, 0.00, 0.99, 0.02, 0.03
151, 0.00, -146403.91, 0.00, 0.00, 0.00, 0.00, 0.00, 0.00, 0.99, 0.02, 0.03
152, 0.00, -147400.45, 0.00, 0.00, 0.00, 0.00, 0.00, 0.00, 0.99, 0.02, 0.03
153, 0.00, -117146.41, 0.00, 0.00, 0.00, 0.00, 0.00, 0.00, 0.99, 0.02, 0.03
154, 0.00, -113623.01, 0.00, 0.00, 0.00, 0.00, 0.00, 0.00, 0.99, 0.02, 0.03
155, 0.00, -146319.50, 0.00, 0.00, 0.00, 0.00, 0.00, 0.00, 0.99, 0.03, 0.03
156, 0.00, -155472.45, 0.00, 0.00, 0.00, 0.00, 0.00, 0.00, 0.99, 0.03, 0.03
157, 0.00, -126938.73, 0.00, 0.00, 0.00, 0.00, 0.00, 0.00, 0.99, 0.03, 0.03
158, 0.00, -115151.94, 0.00, 0.00, 0.00, 0.00, 0.00, 0.00, 0.99, 0.03, 0.03
159, 0.00, -145049.34, 0.00, 0.00, 0.00, 0.00, 0.00, 0.00, 0.99, 0.03, 0.03
160, 0.00, -161945.64, 0.00, 0.00, 0.00, 0.00, 0.00, 0.00, 0.99, 0.03, 0.04
161, 0.00, -137217.38, 0.00, 0.00, 0.00, 0.00, 0.00, 0.00, 0.99, 0.03, 0.04
162, 0.00, -118234.76, 0.00, 0.00, 0.00, 0.00, 0.00, 0.00, 0.99, 0.03, 0.04
163, 0.00, -143272.58, 0.00, 0.00, 0.00, 0.00, 0.00, 0.00, 0.99, 0.03, 0.04
164, 0.00, -166899.00, 0.00, 0.00, 0.00, 0.00, 0.00, 0.00, 0.99, 0.03, 0.04
165, 0.00, -147599.56, 0.00, 0.00, 0.00, 0.00, 0.00, 0.00, 0.99, 0.03, 0.03
166, 0.00, -122677.70, 0.00, 0.00, 0.00, 0.00, 0.00, 0.00, 0.99, 0.03, 0.03
167, 0.00, -140805.30, 0.00, 0.00, 0.00, 0.00, 0.00, 0.00, 0.99, 0.03, 0.03
168, 0.00, -169253.23, 0.00, 0.00, 0.00, 0.00, 0.00, 0.00, 0.99, 0.03, 0.03
169, 0.00, -156375.02, 0.00, 0.00, 0.00, 0.00, 0.00, 0.00, 0.99, 0.03, 0.03
170, 0.00, -127101.09, 0.00, 0.00, 0.00, 0.00, 0.00, 0.00, 0.98, 0.03, 0.03
171, 0.00, -136891.31, 0.00, 0.00, 0.00, 0.00, 0.00, 0.00, 0.98, 0.03, 0.03
172, 0.00, -168110.91, 0.00, 0.00, 0.00, 0.00, 0.00, 0.00, 0.98, 0.03, 0.03
173, 0.00, -162546.27, 0.00, 0.00, 0.00, 0.00, 0.00, 0.00, 0.98, 0.03, 0.03
174, 0.00, -131140.45, 0.00, 0.00, 0.00, 0.00, 0.00, 0.00, 0.98, 0.03, 0.03
175, 0.00, -132079.52, 0.00, 0.00, 0.00, 0.00, 0.00, 0.00, 0.99, 0.03, 0.04
176, 0.00, -164124.31, 0.00, 0.00, 0.00, 0.00, 0.00, 0.00, 0.99, 0.03, 0.04
177, 0.00, -166683.97, 0.00, 0.00, 0.00, 0.00, 0.00, 0.00, 0.99, 0.03, 0.04
178, 0.00, -135615.81, 0.00, 0.00, 0.00, 0.00, 0.00, 0.00, 0.99, 0.03, 0.04
179, 0.00, -128065.70, 0.00, 0.00, 0.00, 0.00, 0.00, 0.00, 0.99, 0.03, 0.04
180, 0.00, -159085.08, 0.00, 0.00, 0.00, 0.00, 0.00, 0.00, 1.00, 0.03, 0.03
181, 0.00, -170185.14, 0.00, 0.00, 0.00, 0.00, 0.00, 0.00, 1.00, 0.03, 0.03
182, 0.00, -142018.00, 0.00, 0.00, 0.00, 0.00, 0.00, 0.00, 1.00, 0.03, 0.03
183, 0.00, -126872.23, 0.00, 0.00, 0.00, 0.00, 0.00, 0.00, 1.00, 0.03, 0.03
184, 0.00, -154663.94, 0.00, 0.00, 0.00, 0.00, 0.00, 0.00, 1.00, 0.03, 0.03
185, 0.00, -173527.11, 0.00, 0.00, 0.00, 0.00, 0.00, 0.00, 0.99, 0.03, 0.04
186, 0.00, -150072.02, 0.00, 0.00, 0.00, 0.00, 0.00, 0.00, 0.99, 0.03, 0.04
187, 0.00, -128439.80, 0.00, 0.00, 0.00, 0.00, 0.00, 0.00, 0.99, 0.03, 0.04
188, 0.00, -150911.95, 0.00, 0.00, 0.00, 0.00, 0.00, 0.00, 0.99, 0.03, 0.04
189, 0.00, -176179.14, 0.00, 0.00, 0.00, 0.00, 0.00, 0.00, 0.99, 0.03, 0.04
190, 0.00, -158810.53, 0.00, 0.00, 0.00, 0.00, 0.00, 0.00, 0.99, 0.03, 0.04
191, 0.00, -132001.22, 0.00, 0.00, 0.00, 0.00, 0.00, 0.00, 0.99, 0.03, 0.04
192, 0.00, -147243.91, 0.00, 0.00, 0.00, 0.00, 0.00, 0.00, 0.99, 0.03, 0.04
193, 0.00, -176889.73, 0.00, 0.00, 0.00, 0.00, 0.00, 0.00, 0.99, 0.03, 0.04
194, 0.00, -166581.00, 0.00, 0.00, 0.00, 0.00, 0.00, 0.00, 0.99, 0.03, 0.04
195, 0.00, -136444.05, 0.00, 0.00, 0.00, 0.00, 0.00, 0.00, 0.99, 0.03, 0.04
196, 0.00, -143332.67, 0.00, 0.00, 0.00, 0.00, 0.00, 0.00, 0.99, 0.03, 0.04
197, 0.00, -175362.14, 0.00, 0.00, 0.00, 0.00, 0.00, 0.00, 0.99, 0.03, 0.04
198, 0.00, -172955.36, 0.00, 0.00, 0.00, 0.00, 0.00, 0.00, 0.99, 0.03, 0.04
199, 0.00, -141732.00, 0.00, 0.00, 0.00, 0.00, 0.00, 0.00, 0.99, 0.03, 0.04
200, 0.00, -139945.39, 0.00, 0.00, 0.00, 0.00, 0.00, 0.00, 0.99, 0.03, 0.04
201, 0.00, -172151.25, 0.00, 0.00, 0.00, 0.00, 0.00, 0.00, 0.99, 0.03, 0.04
202, 0.00, -177957.56, 0.00, 0.00, 0.00, 0.00, 0.00, 0.00, 0.99, 0.03, 0.04
203, 0.00, -147684.83, 0.00, 0.00, 0.00, 0.00, 0.00, 0.00, 0.99, 0.03, 0.04
204, 0.00, -137367.69, 0.00, 0.00, 0.00, 0.00, 0.00, 0.00, 0.99, 0.03, 0.04
205, 0.00, -167358.97, 0.00, 0.00, 0.00, 0.00, 0.00, 0.00, 0.99, 0.03, 0.04
206, 0.00, -180972.25, 0.00, 0.00, 0.00, 0.00, 0.00, 0.00, 0.99, 0.03, 0.04
207, 0.00, -153724.09, 0.00, 0.00, 0.00, 0.00, 0.00, 0.00, 0.99, 0.03, 0.04
208, 0.00, -135668.20, 0.00, 0.00, 0.00, 0.00, 0.00, 0.00, 0.99, 0.03, 0.04
209, 0.00, -161191.86, 0.00, 0.00, 0.00, 0.00, 0.00, 0.00, 0.99, 0.03, 0.04
210, 0.00, -181722.33, 0.00, 0.00, 0.00, 0.00, 0.00, 0.00, 0.99, 0.03, 0.05
211, 0.00, -159330.78, 0.00, 0.00, 0.00, 0.00, 0.00, 0.00, 0.99, 0.03, 0.05
212, 0.00, -134859.89, 0.00, 0.00, 0.00, 0.00, 0.00, 0.00, 0.99, 0.03, 0.05
213, 0.00, -154050.05, 0.00, 0.00, 0.00, 0.00, 0.00, 0.00, 0.99, 0.03, 0.05
214, 0.00, -180091.73, 0.00, 0.00, 0.00, 0.00, 0.00, 0.00, 0.99, 0.03, 0.05
215, 0.00, -164071.31, 0.00, 0.00, 0.00, 0.00, 0.00, 0.00, 0.99, 0.03, 0.04
216, 0.00, -134986.92, 0.00, 0.00, 0.00, 0.00, 0.00, 0.00, 0.99, 0.03, 0.04
217, 0.00, -146544.16, 0.00, 0.00, 0.00, 0.00, 0.00, 0.00, 0.99, 0.03, 0.04
218, 0.00, -176344.44, 0.00, 0.00, 0.00, 0.00, 0.00, 0.00, 0.99, 0.03, 0.04
219, 0.00, -167835.72, 0.00, 0.00, 0.00, 0.00, 0.00, 0.00, 0.99, 0.03, 0.04
220, 0.00, -136279.13, 0.00, 0.00, 0.00, 0.00, 0.00, 0.00, 0.98, 0.02, 0.04
221, 0.00, -139436.45, 0.00, 0.00, 0.00, 0.00, 0.00, 0.00, 0.98, 0.02, 0.04
222, 0.00, -171038.36, 0.00, 0.00, 0.00, 0.00, 0.00, 0.00, 0.98, 0.02, 0.04
223, 0.00, -170757.47, 0.00, 0.00, 0.00, 0.00, 0.00, 0.00, 0.98, 0.02, 0.04
224, 0.00, -138922.28, 0.00, 0.00, 0.00, 0.00, 0.00, 0.00, 0.98, 0.02, 0.04
225, 0.00, -133430.45, 0.00, 0.00, 0.00, 0.00, 0.00, 0.00, 0.98, 0.03, 0.04
226, 0.00, -164373.41, 0.00, 0.00, 0.00, 0.00, 0.00, 0.00, 0.98, 0.03, 0.04
227, 0.00, -172249.44, 0.00, 0.00, 0.00, 0.00, 0.00, 0.00, 0.98, 0.03, 0.04
228, 0.00, -142302.28, 0.00, 0.00, 0.00, 0.00, 0.00, 0.00, 0.98, 0.03, 0.04
229, 0.00, -128609.83, 0.00, 0.00, 0.00, 0.00, 0.00, 0.00, 0.98, 0.03, 0.04
230, 0.00, -156656.47, 0.00, 0.00, 0.00, 0.00, 0.00, 0.00, 0.99, 0.03, 0.03
231, 0.00, -172269.50, 0.00, 0.00, 0.00, 0.00, 0.00, 0.00, 0.99, 0.03, 0.03
232, 0.00, -146252.84, 0.00, 0.00, 0.00, 0.00, 0.00, 0.00, 0.99, 0.03, 0.03
233, 0.00, -125473.32, 0.00, 0.00, 0.00, 0.00, 0.00, 0.00, 0.99, 0.03, 0.03
234, 0.00, -148618.95, 0.00, 0.00, 0.00, 0.00, 0.00, 0.00, 0.99, 0.03, 0.03
235, 0.00, -170970.14, 0.00, 0.00, 0.00, 0.00, 0.00, 0.00, 0.99, 0.03, 0.04
236, 0.00, -150559.53, 0.00, 0.00, 0.00, 0.00, 0.00, 0.00, 0.99, 0.03, 0.04
237, 0.00, -124094.78, 0.00, 0.00, 0.00, 0.00, 0.00, 0.00, 0.99, 0.03, 0.04
238, 0.00, -140539.81, 0.00, 0.00, 0.00, 0.00, 0.00, 0.00, 0.99, 0.03, 0.04
239, 0.00, -167926.92, 0.00, 0.00, 0.00, 0.00, 0.00, 0.00, 0.99, 0.03, 0.04
240, 0.00, -154281.33, 0.00, 0.00, 0.00, 0.00, 0.00, 0.00, 0.99, 0.03, 0.04
241, 0.00, -123858.52, 0.00, 0.00, 0.00, 0.00, 0.00, 0.00, 0.99, 0.03, 0.04
242, 0.00, -132242.34, 0.00, 0.00, 0.00, 0.00, 0.00, 0.00, 0.99, 0.03, 0.04
243, 0.00, -162601.11, 0.00, 0.00, 0.00, 0.00, 0.00, 0.00, 0.99, 0.03, 0.04
244, 0.00, -156594.73, 0.00, 0.00, 0.00, 0.00, 0.00, 0.00, 0.99, 0.03, 0.04
245, 0.00, -124392.30, 0.00, 0.00, 0.00, 0.00, 0.00, 0.00, 0.99, 0.03, 0.04
246, 0.00, -124184.90, 0.00, 0.00, 0.00, 0.00, 0.00, 0.00, 0.99, 0.03, 0.04
247, 0.00, -155450.67, 0.00, 0.00, 0.00, 0.00, 0.00, 0.00, 0.99, 0.03, 0.04
248, 0.00, -157743.20, 0.00, 0.00, 0.00, 0.00, 0.00, 0.00, 0.99, 0.03, 0.04
249, 0.00, -126177.94, 0.00, 0.00, 0.00, 0.00, 0.00, 0.00, 0.99, 0.03, 0.04
250, 0.00, -117664.01, 0.00, 0.00, 0.00, 0.00, 0.00, 0.00, 0.99, 0.02, 0.04
251, 0.00, -147805.63, 0.00, 0.00, 0.00, 0.00, 0.00, 0.00, 0.99, 0.02, 0.04
252, 0.00, -158473.33, 0.00, 0.00, 0.00, 0.00, 0.00, 0.00, 0.99, 0.02, 0.04
253, 0.00, -129782.74, 0.00, 0.00, 0.00, 0.00, 0.00, 0.00, 0.99, 0.02, 0.04
254, 0.00, -113615.86, 0.00, 0.00, 0.00, 0.00, 0.00, 0.00, 0.99, 0.02, 0.04
255, 0.00, -140383.95, 0.00, 0.00, 0.00, 0.00, 0.00, 0.00, 0.99, 0.03, 0.03
0, 0.00, -158694.45, 0.00, 0.00, 0.00, 0.00, 0.00, 0.00, 0.99, 0.03, 0.03
1, 0.00, -134635.34, 0.00, 0.00, 0.00, 0.00, 0.00, 0.00, 0.99, 0.03, 0.03
2, 0.00, -111846.16, 0.00, 0.00, 0.00, 0.00, 0.00, 0.00, 0.99, 0.03, 0.03
3, 0.00, -133031.23, 0.00, 0.00, 0.00, 0.00, 0.00, 0.00, 0.99, 0.03, 0.03
4, 0.00, -157544.75, 0.00, 0.00, 0.00, 0.00, 0.00, 0.00, 0.99, 0.03, 0.03
5, 0.00, -139574.28, 0.00, 0.00, 0.00, 0.00, 0.00, 0.00, 0.99, 0.03, 0.03
6, 0.00, -111728.86, 0.00, 0.00, 0.00, 0.00, 0.00, 0.00, 0.99, 0.03, 0.03
7, 0.00, -125734.17, 0.00, 0.00, 0.00, 0.00, 0.00, 0.00, 0.99, 0.03, 0.03
8, 0.00, -154564.97, 0.00, 0.00, 0.00, 0.00, 0.00, 0.00, 0.99, 0.03, 0.03
9, 0.00, -143671.20, 0.00, 0.00, 0.00, 0.00, 0.00, 0.00, 0.99, 0.03, 0.03
10, 0.00, -112574.38, 0.00, 0.00, 0.00, 0.00, 0.00, 0.00, 0.99, 0.03, 0.03
11, 0.00, -118136.12, 0.00, 0.00, 0.00, 0.00, 0.00, 0.00, 0.99, 0.03, 0.03
12, 0.00, -149122.42, 0.00, 0.00, 0.00, 0.00, 0.00, 0.00, 0.99, 0.03, 0.03
13, 0.00, -145936.25, 0.00, 0.00, 0.00, 0.00, 0.00, 0.00, 0.99, 0.03, 0.03
14, 0.00, -113554.62, 0.00, 0.00, 0.00, 0.00, 0.00, 0.00, 0.99, 0.03, 0.03
15, 0.00, -111462.55, 0.00, 0.00, 0.00, 0.00, 0.00, 0.00, 0.99, 0.03, 0.03
16, 0.00, -146967.81, 0.00, 0.00, 0.00, 0.00, 0.00, 0.00, 0.99, 0.03, 0.03
17, 0.00, -152837.30, 0.00, 0.00, 0.00, 0.00, 0.00, 0.00, 0.99, 0.03, 0.03
18, 0.00, -116221.60, 0.00, 0.00, 0.00, 0.00, 0.00, 0.00, 0.99, 0.03, 0.03
19, 0.00, -101447.93, 0.00, 0.00, 0.00, 0.00, 0.00, 0.00, 0.99, 0.03, 0.04
20, 0.00, -134080.72, 0.00, 0.00, 0.00, 0.00, 0.00, 0.00, 0.99, 0.03, 0.04
21, 0.00, -148960.48, 0.00, 0.00, 0.00, 0.00, 0.00, 0.00, 0.99, 0.03, 0.04
22, 0.00, -116050.99, 0.00, 0.00, 0.00, 0.00, 0.00, 0.00, 0.99, 0.03, 0.04
23, 0.00, -92377.50, 0.00, 0.00, 0.00, 0.00, 0.00, 0.00, 0.99, 0.03, 0.04
24, 0.00, -119789.23, 0.00, 0.00, 0.00, 0.00, 0.00, 0.00, 0.99, 0.02, 0.04
25, 0.00, -142896.06, 0.00, 0.00, 0.00, 0.00, 0.00, 0.00, 0.99, 0.02, 0.04
26, 0.00, -116160.94, 0.00, 0.00, 0.00, 0.00, 0.00, 0.00, 0.99, 0.02, 0.04
27, 0.00, -85594.51, 0.00, 0.00, 0.00, 0.00, 0.00, 0.00, 0.99, 0.02, 0.04
28, 0.00, -106009.60, 0.00, 0.00, 0.00, 0.00, 0.00, 0.00, 0.99, 0.02, 0.04
29, 0.00, -135977.22, 0.00, 0.00, 0.00, 0.00, 0.00, 0.00, 0.99, 0.02, 0.04
30, 0.00, -117341.65, 0.00, 0.00, 0.00, 0.00, 0.00, 0.00, 0.99, 0.02, 0.04
31, 0.00, -82162.13, 0.00, 0.00, 0.00, 0.00, 0.00, 0.00, 0.99, 0.02, 0.04
32, 0.00, -94018.25, 0.00, 0.00, 0.00, 0.00, 0.00, 0.00, 0.99, 0.02, 0.04
33, 0.00, -128493.16, 0.00, 0.00, 0.00, 0.00, 0.00, 0.00, 0.99, 0.02, 0.04
34, 0.00, -118936.20, 0.00, 0.00, 0.00, 0.00, 0.00, 0.00, 0.99, 0.02, 0.04
35, 0.00, -81488.67, 0.00, 0.00, 0.00, 0.00, 0.00, 0.00, 0.99, 0.02, 0.04
36, 0.00, -83797.91, 0.00, 0.00, 0.00, 0.00, 0.00, 0.00, 0.99, 0.02, 0.04
37, 0.00, -120410.14, 0.00, 0.00, 0.00, 0.00, 0.00, 0.00, 0.99, 0.02, 0.04
38, 0.00, -120704.29, 0.00, 0.00, 0.00, 0.00, 0.00, 0.00, 0.99, 0.02, 0.04
39, 0.00, -83362.23, 0.00, 0.00, 0.00, 0.00, 0.00, 0.00, 0.99, 0.03, 0.04
40, 0.00, -75773.02, 0.00, 0.00, 0.00, 0.00, 0.00, 0.00, 0.99, 0.03, 0.04
41, 0.00, -111589.85, 0.00, 0.00, 0.00, 0.00, 0.00, 0.00, 0.99, 0.03, 0.04
42, 0.00, -121647.87, 0.00, 0.00, 0.00, 0.00, 0.00, 0.00, 0.99, 0.03, 0.04
43, 0.00, -86785.05, 0.00, 0.00, 0.00, 0.00, 0.00, 0.00, 0.99, 0.03, 0.04
44, 0.00, -69673.02, 0.00, 0.00, 0.00, 0.00, 0.00, 0.00, 0.99, 0.03, 0.03
45, 0.00, -101842.30, 0.00, 0.00, 0.00, 0.00, 0.00, 0.00, 0.99, 0.03, 0.03
46, 0.00, -120689.98, 0.00, 0.00, 0.00, 0.00, 0.00, 0.00, 0.99, 0.03, 0.03
47, 0.00, -90546.82, 0.00, 0.00, 0.00, 0.00, 0.00, 0.00, 0.99, 0.03, 0.03
48, 0.00, -65156.79, 0.00, 0.00, 0.00, 0.00, 0.00, 0.00, 0.99, 0.03, 0.03
49, 0.00, -91375.98, 0.00, 0.00, 0.00, 0.00, 0.00, 0.00, 0.99, 0.03, 0.03
50, 0.00, -118155.36, 0.00, 0.00, 0.00, 0.00, 0.00, 0.00, 0.99, 0.03, 0.03
51, 0.00, -94866.86, 0.00, 0.00, 0.00, 0.00, 0.00, 0.00, 0.99, 0.03, 0.03
52, 0.00, -63081.09, 0.00, 0.00, 0.00, 0.00, 0.00, 0.00, 0.99, 0.03, 0.03
53, 0.00, -81326.80, 0.00, 0.00, 0.00, 0.00, 0.00, 0.00, 0.99, 0.03, 0.03
54, 0.00, -113845.97, 0.00, 0.00, 0.00, 0.00, 0.00, 0.00, 1.00, 0.03, 0.03
55, 0.00, -98772.24, 0.00, 0.00, 0.00, 0.00, 0.00, 0.00, 1.00, 0.03, 0.03
56, 0.00, -62836.99, 0.00, 0.00, 0.00, 0.00, 0.00, 0.00, 1.00, 0.03, 0.03
57, 0.00, -71773.84, 0.00, 0.00, 0.00, 0.00, 0.00, 0.00, 1.00, 0.03, 0.03
58, 0.00, -107889.23, 0.00, 0.00, 0.00, 0.00, 0.00, 0.00, 1.00, 0.03, 0.03
59, 0.00, -102168.39, 0.00, 0.00, 0.00, 0.00, 0.00, 0.00, 0.99, 0.03, 0.03
60, 0.00, -64534.71, 0.00, 0.00, 0.00, 0.00, 0.00, 0.00, 0.99, 0.03, 0.03
61, 0.00, -63316.75, 0.00, 0.00, 0.00, 0.00, 0.00, 0.00, 0.99, 0.03, 0.03
62, 0.00, -99990.15, 0.00, 0.00, 0.00, 0.00, 0.00, 0.00, 0.99, 0.03, 0.03
63, 0.00, -103610.39, 0.00, 0.00, 0.00, 0.00, 0.00, 0.00, 0.99, 0.03, 0.03
64, 0.00, -66381.26, 0.00, 0.00, 0.00, 0.00, 0.00, 0.00, 0.99, 0.03, 0.03
65, 0.00, -54641.21, 0.00, 0.00, 0.00, 0.00, 0.00, 0.00, 0.99, 0.03, 0.03
66, 0.00, -88818.03, 0.00, 0.00, 0.00, 0.00, 0.00, 0.00, 0.99, 0.03, 0.03
67, 0.00, -101363.91, 0.00, 0.00, 0.00, 0.00, 0.00, 0.00, 0.99, 0.03, 0.03
68, 0.00, -67047.34, 0.00, 0.00, 0.00, 0.00, 0.00, 0.00, 0.99, 0.03, 0.03
69, 0.00, -45872.53, 0.00, 0.00, 0.00, 0.00, 0.00, 0.00, 0.99, 0.03, 0.04
70, 0.00, -75433.13, 0.00, 0.00, 0.00, 0.00, 0.00, 0.00, 0.99, 0.03, 0.04
71, 0.00, -96649.61, 0.00, 0.00, 0.00, 0.00, 0.00, 0.00, 0.99, 0.03, 0.04
72, 0.00, -68068.03, 0.00, 0.00, 0.00, 0.00, 0.00, 0.00, 0.99, 0.03, 0.04
73, 0.00, -39610.17, 0.00, 0.00, 0.00, 0.00, 0.00, 0.00, 0.99, 0.03, 0.04
74, 0.00, -62857.60, 0.00, 0.00, 0.00, 0.00, 0.00, 0.00, 0.99, 0.03, 0.04
75, 0.00, -91670.38, 0.00, 0.00, 0.00, 0.00, 0.00, 0.00, 0.99, 0.03, 0.04
