%OpenBCI Raw EEG Data
%
%Sample Rate = 250.0 Hz
%First Column = SampleIndex
%Other Columns = EEG data in microvolts followed by Accel Data (in G) interleaved with Aux Data
0, 0.00, 58940.50, 0.00, 0.00, 0.00, 0.00, 0.00, 0.00, 0.03, 0.41, 0.95
1, 0.00, 58939.20, 0.00, 0.00, 0.00, 0.00, 0.00, 0.00, 0.03, 0.41, 0.95
2, 0.00, 58942.40, 0.00, 0.00, 0.00, 0.00, 0.00, 0.00, 0.03, 0.39, 0.95
3, 0.00, 58946.36, 0.00, 0.00, 0.00, 0.00, 0.00, 0.00, 0.03, 0.39, 0.95
4, 0.00, 58945.91, 0.00, 0.00, 0.00, 0.00, 0.00, 0.00, 0.03, 0.39, 0.95
5, 0.00, 58938.80, 0.00, 0.00, 0.00, 0.00, 0.00, 0.00, 0.03, 0.39, 0.95
6, 0.00, 58946.04, 0.00, 0.00, 0.00, 0.00, 0.00, 0.00, 0.03, 0.39, 0.95
7, 0.00, 58947.58, 0.00, 0.00, 0.00, 0.00, 0.00, 0.00, 0.03, 0.40, 0.95
8, 0.00, 58944.70, 0.00, 0.00, 0.00, 0.00, 0.00, 0.00, 0.03, 0.40, 0.95
9, 0.00, 58941.21, 0.00, 0.00, 0.00, 0.00, 0.00, 0.00, 0.03, 0.40, 0.95
10, 0.00, 58944.54, 0.00, 0.00, 0.00, 0.00, 0.00, 0.00, 0.03, 0.40, 0.95
11, 0.00, 58952.43, 0.00, 0.00, 0.00, 0.00, 0.00, 0.00, 0.03, 0.40, 0.95
12, 0.00, 58948.50, 0.00, 0.00, 0.00, 0.00, 0.00, 0.00, 0.03, 0.41, 0.95
13, 0.00, 58942.40, 0.00, 0.00, 0.00, 0.00, 0.00, 0.00, 0.03, 0.41, 0.95
14, 0.00, 58937.95, 0.00, 0.00, 0.00, 0.00, 0.00, 0.00, 0.03, 0.41, 0.95
15, 0.00, 58946.49, 0.00, 0.00, 0.00, 0.00, 0.00, 0.00, 0.03, 0.41, 0.95
16, 0.00, 58945.95, 0.00, 0.00, 0.00, 0.00, 0.00, 0.00, 0.03, 0.41, 0.95
17, 0.00, 58941.75, 0.00, 0.00, 0.00, 0.00, 0.00, 0.00, 0.02, 0.41, 0.95
18, 0.00, 58944.18, 0.00, 0.00, 0.00, 0.00, 0.00, 0.00, 0.02, 0.41, 0.95
19, 0.00, 58944.16, 0.00, 0.00, 0.00, 0.00, 0.00, 0.00, 0.02, 0.41, 0.95
20, 0.00, 58946.89, 0.00, 0.00, 0.00, 0.00, 0.00, 0.00, 0.02, 0.41, 0.95
21, 0.00, 58940.39, 0.00, 0.00, 0.00, 0.00, 0.00, 0.00, 0.02, 0.41, 0.95
22, 0.00, 58938.64, 0.00, 0.00, 0.00, 0.00, 0.00, 0.00, 0.03, 0.41, 0.95
23, 0.00, 58943.80, 0.00, 0.00, 0.00, 0.00, 0.00, 0.00, 0.03, 0.41, 0.95
24, 0.00, 58939.74, 0.00, 0.00, 0.00, 0.00, 0.00, 0.00, 0.03, 0.41, 0.95
25, 0.00, 58938.42, 0.00, 0.00, 0.00, 0.00, 0.00, 0.00, 0.03, 0.41, 0.95
26, 0.00, 58943.14, 0.00, 0.00, 0.00, 0.00, 0.00, 0.00, 0.03, 0.41, 0.95
27, 0.00, 58943.83, 0.00, 0.00, 0.00, 0.00, 0.00, 0.00, 0.03, 0.41, 0.95
28, 0.00, 58947.07, 0.00, 0.00, 0.00, 0.00, 0.00, 0.00, 0.03, 0.41, 0.95
29, 0.00, 58950.64, 0.00, 0.00, 0.00, 0.00, 0.00, 0.00, 0.03, 0.41, 0.95
30, 0.00, 58949.62, 0.00, 0.00, 0.00, 0.00, 0.00, 0.00, 0.03, 0.41, 0.95
31, 0.00, 58951.47, 0.00, 0.00, 0.00, 0.00, 0.00, 0.00, 0.03, 0.41, 0.95
32, 0.00, 58947.45, 0.00, 0.00, 0.00, 0.00, 0.00, 0.00, 0.03, 0.40, 0.94
33, 0.00, 58954.78, 0.00, 0.00, 0.00, 0.00, 0.00, 0.00, 0.03, 0.40, 0.94
34, 0.00, 58955.70, 0.00, 0.00, 0.00, 0.00, 0.00, 0.00, 0.03, 0.40, 0.94
35, 0.00, 58958.16, 0.00, 0.00, 0.00, 0.00, 0.00, 0.00, 0.03, 0.40, 0.94
36, 0.00, 58960.35, 0.00, 0.00, 0.00, 0.00, 0.00, 0.00, 0.03, 0.40, 0.94
37, 0.00, 58953.68, 0.00, 0.00, 0.00, 0.00, 0.00, 0.00, 0.02, 0.40, 0.94
38, 0.00, 58950.40, 0.00, 0.00, 0.00, 0.00, 0.00, 0.00, 0.02, 0.40, 0.94
39, 0.00, 58944.07, 0.00, 0.00, 0.00, 0.00, 0.00, 0.00, 0.02, 0.40, 0.94
40, 0.00, 58942.46, 0.00, 0.00, 0.00, 0.00, 0.00, 0.00, 0.02, 0.40, 0.94
41, 0.00, 58943.61, 0.00, 0.00, 0.00, 0.00, 0.00, 0.00, 0.02, 0.40, 0.94
42, 0.00, 58942.35, 0.00, 0.00, 0.00, 0.00, 0.00, 0.00, 0.02, 0.40, 0.94
43, 0.00, 58939.65, 0.00, 0.00, 0.00, 0.00, 0.00, 0.00, 0.02, 0.40, 0.94
44, 0.00, 58946.60, 0.00, 0.00, 0.00, 0.00, 0.00, 0.00, 0.02, 0.40, 0.94
45, 0.00, 58947.98, 0.00, 0.00, 0.00, 0.00, 0.00, 0.00, 0.02, 0.40, 0.94
46, 0.00, 58951.36, 0.00, 0.00, 0.00, 0.00, 0.00, 0.00, 0.02, 0.40, 0.94
47, 0.00, 58949.84, 0.00, 0.00, 0.00, 0.00, 0.00, 0.00, 0.03, 0.40, 0.95
48, 0.00, 58954.31, 0.00, 0.00, 0.00, 0.00, 0.00, 0.00, 0.03, 0.40, 0.95
49, 0.00, 58955.36, 0.00, 0.00, 0.00, 0.00, 0.00, 0.00, 0.03, 0.40, 0.95
50, 0.00, 58956.32, 0.00, 0.00, 0.00, 0.00, 0.00, 0.00, 0.03, 0.40, 0.95
51, 0.00, 58952.86, 0.00, 0.00, 0.00, 0.00, 0.00, 0.00, 0.03, 0.40, 0.95
52, 0.00, 58959.18, 0.00, 0.00, 0.00, 0.00, 0.00, 0.00, 0.02, 0.40, 0.95
53, 0.00, 58957.82, 0.00, 0.00, 0.00, 0.00, 0.00, 0.00, 0.02, 0.40, 0.95
54, 0.00, 58958.00, 0.00, 0.00, 0.00, 0.00, 0.00, 0.00, 0.02, 0.40, 0.95
55, 0.00, 58956.70, 0.00, 0.00, 0.00, 0.00, 0.00, 0.00, 0.02, 0.40, 0.95
56, 0.00, 58954.38, 0.00, 0.00, 0.00, 0.00, 0.00, 0.00, 0.02, 0.40, 0.95
57, 0.00, 58956.41, 0.00, 0.00, 0.00, 0.00, 0.00, 0.00, 0.02, 0.40, 0.95
58, 0.00, 58950.78, 0.00, 0.00, 0.00, 0.00, 0.00, 0.00, 0.02, 0.40, 0.95
59, 0.00, 58949.57, 0.00, 0.00, 0.00, 0.00, 0.00, 0.00, 0.02, 0.40, 0.95
60, 0.00, 58944.25, 0.00, 0.00, 0.00, 0.00, 0.00, 0.00, 0.02, 0.40, 0.95
61, 0.00, 58947.23, 0.00, 0.00, 0.00, 0.00, 0.00, 0.00, 0.02, 0.40, 0.95
62, 0.00, 58947.40, 0.00, 0.00, 0.00, 0.00, 0.00, 0.00, 0.02, 0.41, 0.95
63, 0.00, 58941.86, 0.00, 0.00, 0.00, 0.00, 0.00, 0.00, 0.02, 0.41, 0.95
64, 0.00, 58937.50, 0.00, 0.00, 0.00, 0.00, 0.00, 0.00, 0.02, 0.41, 0.95
65, 0.00, 58944.41, 0.00, 0.00, 0.00, 0.00, 0.00, 0.00, 0.02, 0.41, 0.95
66, 0.00, 58941.53, 0.00, 0.00, 0.00, 0.00, 0.00, 0.00, 0.02, 0.41, 0.95
67, 0.00, 58944.14, 0.00, 0.00, 0.00, 0.00, 0.00, 0.00, 0.03, 0.41, 0.95
68, 0.00, 58939.87, 0.00, 0.00, 0.00, 0.00, 0.00, 0.00, 0.03, 0.41, 0.95
69, 0.00, 58944.14, 0.00, 0.00, 0.00, 0.00, 0.00, 0.00, 0.03, 0.41, 0.95
70, 0.00, 58946.96, 0.00, 0.00, 0.00, 0.00, 0.00, 0.00, 0.03, 0.41, 0.95
71, 0.00, 58940.63, 0.00, 0.00, 0.00, 0.00, 0.00, 0.00, 0.03, 0.41, 0.95
72, 0.00, 58944.03, 0.00, 0.00, 0.00, 0.00, 0.00, 0.00, 0.02, 0.40, 0.95
73, 0.00, 58951.81, 0.00, 0.00, 0.00, 0.00, 0.00, 0.00, 0.02, 0.40, 0.95
74, 0.00, 58945.37, 0.00, 0.00, 0.00, 0.00, 0.00, 0.00, 0.02, 0.40, 0.95
75, 0.00, 58941.23, 0.00, 0.00, 0.00, 0.00, 0.00, 0.00, 0.02, 0.40, 0.95
76, 0.00, 58941.75, 0.00, 0.00, 0.00, 0.00, 0.00, 0.00, 0.02, 0.40, 0.95
77, 0.00, 58942.84, 0.00, 0.00, 0.00, 0.00, 0.00, 0.00, 0.02, 0.40, 0.94
78, 0.00, 58942.44, 0.00, 0.00, 0.00, 0.00, 0.00, 0.00, 0.02, 0.40, 0.94
79, 0.00, 58934.35, 0.00, 0.00, 0.00, 0.00, 0.00, 0.00, 0.02, 0.40, 0.94
80, 0.00, 58936.50, 0.00, 0.00, 0.00, 0.00, 0.00, 0.00, 0.02, 0.40, 0.94
81, 0.00, 58936.34, 0.00, 0.00, 0.00, 0.00, 0.00, 0.00, 0.02, 0.40, 0.94
82, 0.00, 58933.12, 0.00, 0.00, 0.00, 0.00, 0.00, 0.00, 0.02, 0.41, 0.94
83, 0.00, 58930.13, 0.00, 0.00, 0.00, 0.00, 0.00, 0.00, 0.02, 0.41, 0.94
84, 0.00, 58929.39, 0.00, 0.00, 0.00, 0.00, 0.00, 0.00, 0.02, 0.41, 0.94
85, 0.00, 58923.84, 0.00, 0.00, 0.00, 0.00, 0.00, 0.00, 0.02, 0.41, 0.94
86, 0.00, 58932.52, 0.00, 0.00, 0.00, 0.00, 0.00, 0.00, 0.02, 0.41, 0.94
87, 0.00, 58938.48, 0.00, 0.00, 0.00, 0.00, 0.00, 0.00, 0.02, 0.40, 0.94
88, 0.00, 58938.73, 0.00, 0.00, 0.00, 0.00, 0.00, 0.00, 0.02, 0.40, 0.94
89, 0.00, 58937.01, 0.00, 0.00, 0.00, 0.00, 0.00, 0.00, 0.02, 0.40, 0.94
90, 0.00, 58945.62, 0.00, 0.00, 0.00, 0.00, 0.00, 0.00, 0.02, 0.40, 0.94
91, 0.00, 58953.06, 0.00, 0.00, 0.00, 0.00, 0.00, 0.00, 0.02, 0.40, 0.94
92, 0.00, 58954.56, 0.00, 0.00, 0.00, 0.00, 0.00, 0.00, 0.02, 0.40, 0.95
93, 0.00, 58957.44, 0.00, 0.00, 0.00, 0.00, 0.00, 0.00, 0.02, 0.40, 0.95
94, 0.00, 58957.30, 0.00, 0.00, 0.00, 0.00, 0.00, 0.00, 0.02, 0.40, 0.95
95, 0.00, 58957.02, 0.00, 0.00, 0.00, 0.00, 0.00, 0.00, 0.02, 0.40, 0.95
96, 0.00, 58954.78, 0.00, 0.00, 0.00, 0.00, 0.00, 0.00, 0.02, 0.40, 0.95
97, 0.00, 58951.52, 0.00, 0.00, 0.00, 0.00, 0.00, 0.00, 0.02, 0.40, 0.95
98, 0.00, 58957.57, 0.00, 0.00, 0.00, 0.00, 0.00, 0.00, 0.02, 0.40, 0.95
99, 0.00, 58956.68, 0.00, 0.00, 0.00, 0.00, 0.00, 0.00, 0.02, 0.40, 0.95
100, 0.00, 58951.23, 0.00, 0.00, 0.00, 0.00, 0.00, 0.00, 0.02, 0.40, 0.95
101, 0.00, 58949.06, 0.00, 0.00, 0.00, 0.00, 0.00, 0.00, 0.02, 0.40, 0.95
102, 0.00, 58949.41, 0.00, 0.00, 0.00, 0.00, 0.00, 0.00, 0.03, 0.41, 0.95
103, 0.00, 58945.30, 0.00, 0.00, 0.00, 0.00, 0.00, 0.00, 0.03, 0.41, 0.95
104, 0.00, 58947.67, 0.00, 0.00, 0.00, 0.00, 0.00, 0.00, 0.03, 0.41, 0.95
105, 0.00, 58946.82, 0.00, 0.00, 0.00, 0.00, 0.00, 0.00, 0.03, 0.41, 0.95
106, 0.00, 58950.31, 0.00, 0.00, 0.00, 0.00, 0.00, 0.00, 0.03, 0.41, 0.95
107, 0.00, 58951.81, 0.00, 0.00, 0.00, 0.00, 0.00, 0.00, 0.03, 0.40, 0.94
108, 0.00, 58946.38, 0.00, 0.00, 0.00, 0.00, 0.00, 0.00, 0.03, 0.40, 0.94
109, 0.00, 58944.18, 0.00, 0.00, 0.00, 0.00, 0.00, 0.00, 0.03, 0.40, 0.94
110, 0.00, 58947.98, 0.00, 0.00, 0.00, 0.00, 0.00, 0.00, 0.03, 0.40, 0.94
111, 0.00, 58954.73, 0.00, 0.00, 0.00, 0.00, 0.00, 0.00, 0.03, 0.40, 0.94
112, 0.00, 58957.91, 0.00, 0.00, 0.00, 0.00, 0.00, 0.00, 0.03, 0.40, 0.95
113, 0.00, 58947.23, 0.00, 0.00, 0.00, 0.00, 0.00, 0.00, 0.03, 0.40, 0.95
114, 0.00, 58949.15, 0.00, 0.00, 0.00, 0.00, 0.00, 0.00, 0.03, 0.40, 0.95
115, 0.00, 58954.09, 0.00, 0.00, 0.00, 0.00, 0.00, 0.00, 0.03, 0.40, 0.95
116, 0.00, 58949.82, 0.00, 0.00, 0.00, 0.00, 0.00, 0.00, 0.03, 0.40, 0.95
117, 0.00, 58952.59, 0.00, 0.00, 0.00, 0.00, 0.00, 0.00, 0.02, 0.39, 0.95
118, 0.00, 58953.95, 0.00, 0.00, 0.00, 0.00, 0.00, 0.00, 0.02, 0.39, 0.95
119, 0.00, 58956.37, 0.00, 0.00, 0.00, 0.00, 0.00, 0.00, 0.02, 0.39, 0.95
120, 0.00, 58956.84, 0.00, 0.00, 0.00, 0.00, 0.00, 0.00, 0.02, 0.39, 0.95
121, 0.00, 58971.88, 0.00, 0.00, 0.00, 0.00, 0.00, 0.00, 0.02, 0.39, 0.95
122, 0.00, 58980.33, 0.00, 0.00, 0.00, 0.00, 0.00, 0.00, 0.02, 0.40, 0.94
123, 0.00, 58941.57, 0.00, 0.00, 0.00, 0.00, 0.00, 0.00, 0.02, 0.40, 0.94
124, 0.00, 58937.17, 0.00, 0.00, 0.00, 0.00, 0.00, 0.00, 0.02, 0.40, 0.94
125, 0.00, 58932.07, 0.00, 0.00, 0.00, 0.00, 0.00, 0.00, 0.02, 0.40, 0.94
126, 0.00, 58914.68, 0.00, 0.00, 0.00, 0.00, 0.00, 0.00, 0.02, 0.40, 0.94
127, 0.00, 58906.97, 0.00, 0.00, 0.00, 0.00, 0.00, 0.00, 0.02, 0.41, 0.94
128, 0.00, 58898.70, 0.00, 0.00, 0.00, 0.00, 0.00, 0.00, 0.02, 0.41, 0.94
129, 0.00, 58891.19, 0.00, 0.00, 0.00, 0.00, 0.00, 0.00, 0.02, 0.41, 0.94
130, 0.00, 58873.33, 0.00, 0.00, 0.00, 0.00, 0.00, 0.00, 0.02, 0.41, 0.94
131, 0.00, 58859.63, 0.00, 0.00, 0.00, 0.00, 0.00, 0.00, 0.02, 0.41, 0.94
132, 0.00, 58858.60, 0.00, 0.00, 0.00, 0.00, 0.00, 0.00, 0.02, 0.41, 0.94
133, 0.00, 58843.80, 0.00, 0.00, 0.00, 0.00, 0.00, 0.00, 0.02, 0.41, 0.94
134, 0.00, 58839.69, 0.00, 0.00, 0.00, 0.00, 0.00, 0.00, 0.02, 0.41, 0.94
135, 0.00, 58829.05, 0.00, 0.00, 0.00, 0.00, 0.00, 0.00, 0.02, 0.41, 0.94
136, 0.00, 58829.32, 0.00, 0.00, 0.00, 0.00, 0.00, 0.00, 0.02, 0.41, 0.94
137, 0.00, 58815.08, 0.00, 0.00, 0.00, 0.00, 0.00, 0.00, 0.02, 0.41, 0.94
138, 0.00, 58812.51, 0.00, 0.00, 0.00, 0.00, 0.00, 0.00, 0.02, 0.41, 0.94
139, 0.00, 58804.31, 0.00, 0.00, 0.00, 0.00, 0.00, 0.00, 0.02, 0.41, 0.94
140, 0.00, 58797.34, 0.00, 0.00, 0.00, 0.00, 0.00, 0.00, 0.02, 0.41, 0.94
141, 0.00, 58790.52, 0.00, 0.00, 0.00, 0.00, 0.00, 0.00, 0.02, 0.41, 0.94
142, 0.00, 58782.83, 0.00, 0.00, 0.00, 0.00, 0.00, 0.00, 0.03, 0.40, 0.94
143, 0.00, 58772.59, 0.00, 0.00, 0.00, 0.00, 0.00, 0.00, 0.03, 0.40, 0.94
144, 0.00, 58768.39, 0.00, 0.00, 0.00, 0.00, 0.00, 0.00, 0.03, 0.40, 0.94
145, 0.00, 58762.45, 0.00, 0.00, 0.00, 0.00, 0.00, 0.00, 0.03, 0.40, 0.94
146, 0.00, 58748.21, 0.00, 0.00, 0.00, 0.00, 0.00, 0.00, 0.03, 0.40, 0.94
147, 0.00, 58740.36, 0.00, 0.00, 0.00, 0.00, 0.00, 0.00, 0.03, 0.40, 0.95
148, 0.00, 58738.01, 0.00, 0.00, 0.00, 0.00, 0.00, 0.00, 0.03, 0.40, 0.95
149, 0.00, 58736.74, 0.00, 0.00, 0.00, 0.00, 0.00, 0.00, 0.03, 0.40, 0.95
150, 0.00, 58736.11, 0.00, 0.00, 0.00, 0.00, 0.00, 0.00, 0.03, 0.40, 0.95
151, 0.00, 58723.64, 0.00, 0.00, 0.00, 0.00, 0.00, 0.00, 0.03, 0.40, 0.95
152, 0.00, 58710.63, 0.00, 0.00, 0.00, 0.00, 0.00, 0.00, 0.03, 0.39, 0.96
153, 0.00, 58717.94, 0.00, 0.00, 0.00, 0.00, 0.00, 0.00, 0.03, 0.39, 0.96
154, 0.00, 58721.20, 0.00, 0.00, 0.00, 0.00, 0.00, 0.00, 0.03, 0.39, 0.96
155, 0.00, 58716.98, 0.00, 0.00, 0.00, 0.00, 0.00, 0.00, 0.03, 0.39, 0.96
156, 0.00, 58719.53, 0.00, 0.00, 0.00, 0.00, 0.00, 0.00, 0.03, 0.39, 0.96
157, 0.00, 58723.48, 0.00, 0.00, 0.00, 0.00, 0.00, 0.00, 0.03, 0.40, 0.95
158, 0.00, 58715.68, 0.00, 0.00, 0.00, 0.00, 0.00, 0.00, 0.03, 0.40, 0.95
159, 0.00, 58721.81, 0.00, 0.00, 0.00, 0.00, 0.00, 0.00, 0.03, 0.40, 0.95
160, 0.00, 58725.05, 0.00, 0.00, 0.00, 0.00, 0.00, 0.00, 0.03, 0.40, 0.95
161, 0.00, 58731.40, 0.00, 0.00, 0.00, 0.00, 0.00, 0.00, 0.03, 0.40, 0.95
162, 0.00, 58736.05, 0.00, 0.00, 0.00, 0.00, 0.00, 0.00, 0.02, 0.40, 0.95
163, 0.00, 58738.73, 0.00, 0.00, 0.00, 0.00, 0.00, 0.00, 0.02, 0.40, 0.95
164, 0.00, 58740.38, 0.00, 0.00, 0.00, 0.00, 0.00, 0.00, 0.02, 0.40, 0.95
165, 0.00, 58743.27, 0.00, 0.00, 0.00, 0.00, 0.00, 0.00, 0.02, 0.40, 0.95
166, 0.00, 58743.60, 0.00, 0.00, 0.00, 0.00, 0.00, 0.00, 0.02, 0.40, 0.95
167, 0.00, 58746.62, 0.00, 0.00, 0.00, 0.00, 0.00, 0.00, 0.03, 0.40, 0.95
168, 0.00, 58763.92, 0.00, 0.00, 0.00, 0.00, 0.00, 0.00, 0.03, 0.40, 0.95
169, 0.00, 58761.06, 0.00, 0.00, 0.00, 0.00, 0.00, 0.00, 0.03, 0.40, 0.95
170, 0.00, 58754.42, 0.00, 0.00, 0.00, 0.00, 0.00, 0.00, 0.03, 0.40, 0.95
171, 0.00, 58762.38, 0.00, 0.00, 0.00, 0.00, 0.00, 0.00, 0.03, 0.40, 0.95
172, 0.00, 58772.93, 0.00, 0.00, 0.00, 0.00, 0.00, 0.00, 0.02, 0.41, 0.94
173, 0.00, 58770.63, 0.00, 0.00, 0.00, 0.00, 0.00, 0.00, 0.02, 0.41, 0.94
174, 0.00, 58782.49, 0.00, 0.00, 0.00, 0.00, 0.00, 0.00, 0.02, 0.41, 0.94
175, 0.00, 58781.00, 0.00, 0.00, 0.00, 0.00, 0.00, 0.00, 0.02, 0.41, 0.94
176, 0.00, 58777.00, 0.00, 0.00, 0.00, 0.00, 0.00, 0.00, 0.02, 0.41, 0.94
177, 0.00, 58792.02, 0.00, 0.00, 0.00, 0.00, 0.00, 0.00, 0.02, 0.41, 0.95
178, 0.00, 58795.34, 0.00, 0.00, 0.00, 0.00, 0.00, 0.00, 0.02, 0.41, 0.95
179, 0.00, 58786.94, 0.00, 0.00, 0.00, 0.00, 0.00, 0.00, 0.02, 0.41, 0.95
180, 0.00, 58799.93, 0.00, 0.00, 0.00, 0.00, 0.00, 0.00, 0.02, 0.41, 0.95
181, 0.00, 58803.70, 0.00, 0.00, 0.00, 0.00, 0.00, 0.00, 0.02, 0.41, 0.95
182, 0.00, 58806.34, 0.00, 0.00, 0.00, 0.00, 0.00, 0.00, 0.02, 0.41, 0.95
183, 0.00, 58818.03, 0.00, 0.00, 0.00, 0.00, 0.00, 0.00, 0.03, 0.41, 0.95
184, 0.00, 58826.17, 0.00, 0.00, 0.00, 0.00, 0.00, 0.00, 0.03, 0.41, 0.95
185, 0.00, 58832.02, 0.00, 0.00, 0.00, 0.00, 0.00, 0.00, 0.03, 0.41, 0.95
186, 0.00, 58841.39, 0.00, 0.00, 0.00, 0.00, 0.00, 0.00, 0.03, 0.41, 0.95
187, 0.00, 58841.88, 0.00, 0.00, 0.00, 0.00, 0.00, 0.00, 0.03, 0.41, 0.95
188, 0.00, 58840.77, 0.00, 0.00, 0.00, 0.00, 0.00, 0.00, 0.03, 0.42, 0.95
189, 0.00, 58841.30, 0.00, 0.00, 0.00, 0.00, 0.00, 0.00, 0.03, 0.42, 0.95
190, 0.00, 58843.22, 0.00, 0.00, 0.00, 0.00, 0.00, 0.00, 0.03, 0.42, 0.95
191, 0.00, 58840.59, 0.00, 0.00, 0.00, 0.00, 0.00, 0.00, 0.03, 0.42, 0.95
192, 0.00, 58837.84, 0.00, 0.00, 0.00, 0.00, 0.00, 0.00, 0.03, 0.42, 0.95
193, 0.00, 58843.43, 0.00, 0.00, 0.00, 0.00, 0.00, 0.00, 0.03, 0.41, 0.95
194, 0.00, 58842.55, 0.00, 0.00, 0.00, 0.00, 0.00, 0.00, 0.03, 0.41, 0.95
195, 0.00, 58847.29, 0.00, 0.00, 0.00, 0.00, 0.00, 0.00, 0.03, 0.41, 0.95
196, 0.00, 58843.27, 0.00, 0.00, 0.00, 0.00, 0.00, 0.00, 0.03, 0.41, 0.95
197, 0.00, 58840.72, 0.00, 0.00, 0.00, 0.00, 0.00, 0.00, 0.03, 0.41, 0.95
198, 0.00, 58847.56, 0.00, 0.00, 0.00, 0.00, 0.00, 0.00, 0.02, 0.41, 0.95
199, 0.00, 58844.96, 0.00, 0.00, 0.00, 0.00, 0.00, 0.00, 0.02, 0.41, 0.95
200, 0.00, 58846.69, 0.00, 0.00, 0.00, 0.00, 0.00, 0.00, 0.02, 0.41, 0.95
201, 0.00, 58844.07, 0.00, 0.00, 0.00, 0.00, 0.00, 0.00, 0.02, 0.41, 0.95
202, 0.00, 58843.94, 0.00, 0.00, 0.00, 0.00, 0.00, 0.00, 0.02, 0.41, 0.95
203, 0.00, 58849.01, 0.00, 0.00, 0.00, 0.00, 0.00, 0.00, 0.02, 0.40, 0.95
204, 0.00, 58850.71, 0.00, 0.00, 0.00, 0.00, 0.00, 0.00, 0.02, 0.40, 0.95
205, 0.00, 58847.45, 0.00, 0.00, 0.00, 0.00, 0.00, 0.00, 0.02, 0.40, 0.95
206, 0.00, 58847.87, 0.00, 0.00, 0.00, 0.00, 0.00, 0.00, 0.02, 0.40, 0.95
207, 0.00, 58852.57, 0.00, 0.00, 0.00, 0.00, 0.00, 0.00, 0.02, 0.40, 0.95
208, 0.00, 58852.95, 0.00, 0.00, 0.00, 0.00, 0.00, 0.00, 0.02, 0.40, 0.95
209, 0.00, 58856.75, 0.00, 0.00, 0.00, 0.00, 0.00, 0.00, 0.02, 0.40, 0.95
210, 0.00, 58857.53, 0.00, 0.00, 0.00, 0.00, 0.00, 0.00, 0.02, 0.40, 0.95
211, 0.00, 58860.05, 0.00, 0.00, 0.00, 0.00, 0.00, 0.00, 0.02, 0.40, 0.95
212, 0.00, 58860.75, 0.00, 0.00, 0.00, 0.00, 0.00, 0.00, 0.02, 0.40, 0.95
213, 0.00, 58863.54, 0.00, 0.00, 0.00, 0.00, 0.00, 0.00, 0.03, 0.41, 0.95
214, 0.00, 58859.61, 0.00, 0.00, 0.00, 0.00, 0.00, 0.00, 0.03, 0.41, 0.95
215, 0.00, 58860.95, 0.00, 0.00, 0.00, 0.00, 0.00, 0.00, 0.03, 0.41, 0.95
216, 0.00, 58864.97, 0.00, 0.00, 0.00, 0.00, 0.00, 0.00, 0.03, 0.41, 0.95
217, 0.00, 58871.79, 0.00, 0.00, 0.00, 0.00, 0.00, 0.00, 0.03, 0.41, 0.95
218, 0.00, 58869.71, 0.00, 0.00, 0.00, 0.00, 0.00, 0.00, 0.03, 0.41, 0.95
219, 0.00, 58865.80, 0.00, 0.00, 0.00, 0.00, 0.00, 0.00, 0.03, 0.41, 0.95
220, 0.00, 58870.76, 0.00, 0.00, 0.00, 0.00, 0.00, 0.00, 0.03, 0.41, 0.95
221, 0.00, 58872.70, 0.00, 0.00, 0.00, 0.00, 0.00, 0.00, 0.03, 0.41, 0.95
222, 0.00, 58873.73, 0.00, 0.00, 0.00, 0.00, 0.00, 0.00, 0.03, 0.41, 0.95
223, 0.00, 58867.77, 0.00, 0.00, 0.00, 0.00, 0.00, 0.00, 0.03, 0.41, 0.95
224, 0.00, 58866.98, 0.00, 0.00, 0.00, 0.00, 0.00, 0.00, 0.03, 0.41, 0.95
225, 0.00, 58871.21, 0.00, 0.00, 0.00, 0.00, 0.00, 0.00, 0.03, 0.41, 0.95
226, 0.00, 58867.12, 0.00, 0.00, 0.00, 0.00, 0.00, 0.00, 0.03, 0.41, 0.95
227, 0.00, 58873.51, 0.00, 0.00, 0.00, 0.00, 0.00, 0.00, 0.03, 0.41, 0.95
228, 0.00, 58875.59, 0.00, 0.00, 0.00, 0.00, 0.00, 0.00, 0.03, 0.41, 0.94
229, 0.00, 58882.16, 0.00, 0.00, 0.00, 0.00, 0.00, 0.00, 0.03, 0.41, 0.94
230, 0.00, 58876.53, 0.00, 0.00, 0.00, 0.00, 0.00, 0.00, 0.03, 0.41, 0.94
231, 0.00, 58877.64, 0.00, 0.00, 0.00, 0.00, 0.00, 0.00, 0.03, 0.41, 0.94
232, 0.00, 58884.02, 0.00, 0.00, 0.00, 0.00, 0.00, 0.00, 0.03, 0.41, 0.94
233, 0.00, 58889.00, 0.00, 0.00, 0.00, 0.00, 0.00, 0.00, 0.03, 0.41, 0.94
234, 0.00, 58881.45, 0.00, 0.00, 0.00, 0.00, 0.00, 0.00, 0.03, 0.41, 0.94
235, 0.00, 58885.27, 0.00, 0.00, 0.00, 0.00, 0.00, 0.00, 0.03, 0.41, 0.94
236, 0.00, 58892.53, 0.00, 0.00, 0.00, 0.00, 0.00, 0.00, 0.03, 0.41, 0.94
237, 0.00, 58901.76, 0.00, 0.00, 0.00, 0.00, 0.00, 0.00, 0.03, 0.41, 0.94
238, 0.00, 58904.22, 0.00, 0.00, 0.00, 0.00, 0.00, 0.00, 0.02, 0.41, 0.95
239, 0.00, 58915.55, 0.00, 0.00, 0.00, 0.00, 0.00, 0.00, 0.02, 0.41, 0.95
240, 0.00, 58905.45, 0.00, 0.00, 0.00, 0.00, 0.00, 0.00, 0.02, 0.41, 0.95
241, 0.00, 58881.49, 0.00, 0.00, 0.00, 0.00, 0.00, 0.00, 0.02, 0.41, 0.95
242, 0.00, 58882.18, 0.00, 0.00, 0.00, 0.00, 0.00, 0.00, 0.02, 0.41, 0.95
243, 0.00, 58879.41, 0.00, 0.00, 0.00, 0.00, 0.00, 0.00, 0.03, 0.41, 0.95
244, 0.00, 58880.89, 0.00, 0.00, 0.00, 0.00, 0.00, 0.00, 0.03, 0.41, 0.95
245, 0.00, 58884.02, 0.00, 0.00, 0.00, 0.00, 0.00, 0.00, 0.03, 0.41, 0.95
246, 0.00, 58880.15, 0.00, 0.00, 0.00, 0.00, 0.00, 0.00, 0.03, 0.41, 0.95
247, 0.00, 58879.97, 0.00, 0.00, 0.00, 0.00, 0.00, 0.00, 0.03, 0.41, 0.95
248, 0.00, 58879.70, 0.00, 0.00, 0.00, 0.00, 0.00, 0.00, 0.03, 0.41, 0.95
249, 0.00, 58880.55, 0.00, 0.00, 0.00, 0.00, 0.00, 0.00, 0.03, 0.41, 0.95
250, 0.00, 58879.81, 0.00, 0.00, 0.00, 0.00, 0.00, 0.00, 0.03, 0.41, 0.95
251, 0.00, 58889.02, 0.00, 0.00, 0.00, 0.00, 0.00, 0.00, 0.03, 0.41, 0.95
252, 0.00, 58885.02, 0.00, 0.00, 0.00, 0.00, 0.00, 0.00, 0.03, 0.41, 0.95
253, 0.00, 58881.00, 0.00, 0.00, 0.00, 0.00, 0.00, 0.00, 0.02, 0.40, 0.95
254, 0.00, 58888.35, 0.00, 0.00, 0.00, 0.00, 0.00, 0.00, 0.02, 0.40, 0.95
255, 0.00, 58890.63, 0.00, 0.00, 0.00, 0.00, 0.00, 0.00, 0.02, 0.40, 0.95
0, 0.00, 58896.42, 0.00, 0.00, 0.00, 0.00, 0.00, 0.00, 0.02, 0.40, 0.95
1, 0.00, 58900.71, 0.00, 0.00, 0.00, 0.00, 0.00, 0.00, 0.02, 0.40, 0.95
2, 0.00, 58902.97, 0.00, 0.00, 0.00, 0.00, 0.00, 0.00, 0.02, 0.40, 0.95
3, 0.00, 58900.82, 0.00, 0.00, 0.00, 0.00, 0.00, 0.00, 0.02, 0.40, 0.95
4, 0.00, 58904.58, 0.00, 0.00, 0.00, 0.00, 0.00, 0.00, 0.02, 0.40, 0.95
5, 0.00, 58907.44, 0.00, 0.00, 0.00, 0.00, 0.00, 0.00, 0.02, 0.40, 0.95
6, 0.00, 58908.47, 0.00, 0.00, 0.00, 0.00, 0.00, 0.00, 0.02, 0.40, 0.95
7, 0.00, 58910.50, 0.00, 0.00, 0.00, 0.00, 0.00, 0.00, 0.02, 0.40, 0.95
8, 0.00, 58912.69, 0.00, 0.00, 0.00, 0.00, 0.00, 0.00, 0.02, 0.40, 0.95
9, 0.00, 58915.48, 0.00, 0.00, 0.00, 0.00, 0.00, 0.00, 0.02, 0.40, 0.95
10, 0.00, 58920.11, 0.00, 0.00, 0.00, 0.00, 0.00, 0.00, 0.02, 0.40, 0.95
11, 0.00, 58924.83, 0.00, 0.00, 0.00, 0.00, 0.00, 0.00, 0.02, 0.40, 0.95
12, 0.00, 58918.95, 0.00, 0.00, 0.00, 0.00, 0.00, 0.00, 0.02, 0.41, 0.94
13, 0.00, 58925.21, 0.00, 0.00, 0.00, 0.00, 0.00, 0.00, 0.02, 0.41, 0.94
14, 0.00, 58926.10, 0.00, 0.00, 0.00, 0.00, 0.00, 0.00, 0.02, 0.41, 0.94
15, 0.00, 58918.08, 0.00, 0.00, 0.00, 0.00, 0.00, 0.00, 0.02, 0.41, 0.94
16, 0.00, 58920.27, 0.00, 0.00, 0.00, 0.00, 0.00, 0.00, 0.02, 0.41, 0.94
17, 0.00, 58919.82, 0.00, 0.00, 0.00, 0.00, 0.00, 0.00, 0.02, 0.41, 0.95
18, 0.00, 58919.64, 0.00, 0.00, 0.00, 0.00, 0.00, 0.00, 0.02, 0.41, 0.95
19, 0.00, 58922.08, 0.00, 0.00, 0.00, 0.00, 0.00, 0.00, 0.02, 0.41, 0.95
20, 0.00, 58917.50, 0.00, 0.00, 0.00, 0.00, 0.00, 0.00, 0.02, 0.41, 0.95
21, 0.00, 58917.54, 0.00, 0.00, 0.00, 0.00, 0.00, 0.00, 0.02, 0.41, 0.95
22, 0.00, 58917.65, 0.00, 0.00, 0.00, 0.00, 0.00, 0.00, 0.02, 0.41, 0.95
23, 0.00, 58913.61, 0.00, 0.00, 0.00, 0.00, 0.00, 0.00, 0.02, 0.41, 0.95
24, 0.00, 58920.52, 0.00, 0.00, 0.00, 0.00, 0.00, 0.00, 0.02, 0.41, 0.95
25, 0.00, 58917.36, 0.00, 0.00, 0.00, 0.00, 0.00, 0.00, 0.02, 0.41, 0.95
26, 0.00, 58927.11, 0.00, 0.00, 0.00, 0.00, 0.00, 0.00, 0.02, 0.41, 0.95
27, 0.00, 58927.89, 0.00, 0.00, 0.00, 0.00, 0.00, 0.00, 0.03, 0.41, 0.96
28, 0.00, 58923.38, 0.00, 0.00, 0.00, 0.00, 0.00, 0.00, 0.03, 0.41, 0.96
29, 0.00, 58919.69, 0.00, 0.00, 0.00, 0.00, 0.00, 0.00, 0.03, 0.41, 0.96
30, 0.00, 58926.86, 0.00, 0.00, 0.00, 0.00, 0.00, 0.00, 0.03, 0.41, 0.96
31, 0.00, 58929.99, 0.00, 0.00, 0.00, 0.00, 0.00, 0.00, 0.03, 0.41, 0.96
32, 0.00, 58925.61, 0.00, 0.00, 0.00, 0.00, 0.00, 0.00, 0.03, 0.41, 0.96
33, 0.00, 58925.54, 0.00, 0.00, 0.00, 0.00, 0.00, 0.00, 0.03, 0.41, 0.96
34, 0.00, 58925.52, 0.00, 0.00, 0.00, 0.00, 0.00, 0.00, 0.03, 0.41, 0.96
35, 0.00, 58926.64, 0.00, 0.00, 0.00, 0.00, 0.00, 0.00, 0.03, 0.41, 0.96
36, 0.00, 58922.41, 0.00, 0.00, 0.00, 0.00, 0.00, 0.00, 0.03, 0.41, 0.96
37, 0.00, 58919.49, 0.00, 0.00, 0.00, 0.00, 0.00, 0.00, 0.03, 0.40, 0.95
38, 0.00, 58920.40, 0.00, 0.00, 0.00, 0.00, 0.00, 0.00, 0.03, 0.40, 0.95
39, 0.00, 58922.32, 0.00, 0.00, 0.00, 0.00, 0.00, 0.00, 0.03, 0.40, 0.95
40, 0.00, 58924.36, 0.00, 0.00, 0.00, 0.00, 0.00, 0.00, 0.03, 0.40, 0.95
41, 0.00, 58919.93, 0.00, 0.00, 0.00, 0.00, 0.00, 0.00, 0.03, 0.40, 0.95
42, 0.00, 58924.23, 0.00, 0.00, 0.00, 0.00, 0.00, 0.00, 0.03, 0.40, 0.96
43, 0.00, 58933.48, 0.00, 0.00, 0.00, 0.00, 0.00, 0.00, 0.03, 0.40, 0.96
44, 0.00, 58929.72, 0.00, 0.00, 0.00, 0.00, 0.00, 0.00, 0.03, 0.40, 0.96
45, 0.00, 58920.98, 0.00, 0.00, 0.00, 0.00, 0.00, 0.00, 0.03, 0.40, 0.96
46, 0.00, 58929.48, 0.00, 0.00, 0.00, 0.00, 0.00, 0.00, 0.03, 0.40, 0.96
47, 0.00, 58931.18, 0.00, 0.00, 0.00, 0.00, 0.00, 0.00, 0.03, 0.40, 0.96
48, 0.00, 58932.96, 0.00, 0.00, 0.00, 0.00, 0.00, 0.00, 0.03, 0.40, 0.96
49, 0.00, 58922.35, 0.00, 0.00, 0.00, 0.00, 0.00, 0.00, 0.03, 0.40, 0.96
50, 0.00, 58920.83, 0.00, 0.00, 0.00, 0.00, 0.00, 0.00, 0.03, 0.40, 0.96
51, 0.00, 58920.94, 0.00, 0.00, 0.00, 0.00, 0.00, 0.00, 0.03, 0.40, 0.96
52, 0.00, 58913.88, 0.00, 0.00, 0.00, 0.00, 0.00, 0.00, 0.02, 0.40, 0.95
53, 0.00, 58916.31, 0.00, 0.00, 0.00, 0.00, 0.00, 0.00, 0.02, 0.40, 0.95
54, 0.00, 58917.86, 0.00, 0.00, 0.00, 0.00, 0.00, 0.00, 0.02, 0.40, 0.95
55, 0.00, 58917.03, 0.00, 0.00, 0.00, 0.00, 0.00, 0.00, 0.02, 0.40, 0.95
56, 0.00, 58917.99, 0.00, 0.00, 0.00, 0.00, 0.00, 0.00, 0.02, 0.40, 0.95
57, 0.00, 58916.47, 0.00, 0.00, 0.00, 0.00, 0.00, 0.00, 0.02, 0.41, 0.95
58, 0.00, 58915.02, 0.00, 0.00, 0.00, 0.00, 0.00, 0.00, 0.02, 0.41, 0.95
59, 0.00, 58914.97, 0.00, 0.00, 0.00, 0.00, 0.00, 0.00, 0.02, 0.41, 0.95
60, 0.00, 58916.58, 0.00, 0.00, 0.00, 0.00, 0.00, 0.00, 0.02, 0.41, 0.95
61, 0.00, 58916.27, 0.00, 0.00, 0.00, 0.00, 0.00, 0.00, 0.02, 0.41, 0.95
62, 0.00, 58913.43, 0.00, 0.00, 0.00, 0.00, 0.00, 0.00, 0.02, 0.40, 0.95
63, 0.00, 58916.07, 0.00, 0.00, 0.00, 0.00, 0.00, 0.00, 0.02, 0.40, 0.95
64, 0.00, 58915.82, 0.00, 0.00, 0.00, 0.00, 0.00, 0.00, 0.02, 0.40, 0.95
65, 0.00, 58918.14, 0.00, 0.00, 0.00, 0.00, 0.00, 0.00, 0.02, 0.40, 0.95
66, 0.00, 58920.22, 0.00, 0.00, 0.00, 0.00, 0.00, 0.00, 0.02, 0.40, 0.95
67, 0.00, 58917.16, 0.00, 0.00, 0.00, 0.00, 0.00, 0.00, 0.03, 0.40, 0.95
68, 0.00, 58921.39, 0.00, 0.00, 0.00, 0.00, 0.00, 0.00, 0.03, 0.40, 0.95
69, 0.00, 58920.71, 0.00, 0.00, 0.00, 0.00, 0.00, 0.00, 0.03, 0.40, 0.95
70, 0.00, 58916.65, 0.00, 0.00, 0.00, 0.00, 0.00, 0.00, 0.03, 0.40, 0.95
71, 0.00, 58915.98, 0.00, 0.00, 0.00, 0.00, 0.00, 0.00, 0.03, 0.40, 0.95
72, 0.00, 58918.70, 0.00, 0.00, 0.00, 0.00, 0.00, 0.00, 0.03, 0.40, 0.95
73, 0.00, 58916.71, 0.00, 0.00, 0.00, 0.00, 0.00, 0.00, 0.03, 0.40, 0.95
74, 0.00, 58915.31, 0.00, 0.00, 0.00, 0.00, 0.00, 0.00, 0.03, 0.40, 0.95
75, 0.00, 58921.97, 0.00, 0.00, 0.00, 0.00, 0.00, 0.00, 0.03, 0.40, 0.95
76, 0.00, 58919.58, 0.00, 0.00, 0.00, 0.00, 0.00, 0.00, 0.03, 0.40, 0.95
77, 0.00, 58926.93, 0.00, 0.00, 0.00, 0.00, 0.00, 0.00, 0.03, 0.40, 0.96
78, 0.00, 58929.59, 0.00, 0.00, 0.00, 0.00, 0.00, 0.00, 0.03, 0.40, 0.96
79, 0.00, 58927.67, 0.00, 0.00, 0.00, 0.00, 0.00, 0.00, 0.03, 0.40, 0.96
80, 0.00, 58924.52, 0.00, 0.00, 0.00, 0.00, 0.00, 0.00, 0.03, 0.40, 0.96
81, 0.00, 58922.41, 0.00, 0.00, 0.00, 0.00, 0.00, 0.00, 0.03, 0.40, 0.96
82, 0.00, 58924.27, 0.00, 0.00, 0.00, 0.00, 0.00, 0.00, 0.03, 0.40, 0.95
83, 0.00, 58927.71, 0.00, 0.00, 0.00, 0.00, 0.00, 0.00, 0.03, 0.40, 0.95
84, 0.00, 58927.38, 0.00, 0.00, 0.00, 0.00, 0.00, 0.00, 0.03, 0.40, 0.95
85, 0.00, 58929.05, 0.00, 0.00, 0.00, 0.00, 0.00, 0.00, 0.03, 0.40, 0.95
86, 0.00, 58926.64, 0.00, 0.00, 0.00, 0.00, 0.00, 0.00, 0.03, 0.40, 0.95
87, 0.00, 58930.80, 0.00, 0.00, 0.00, 0.00, 0.00, 0.00, 0.03, 0.40, 0.94
88, 0.00, 58931.07, 0.00, 0.00, 0.00, 0.00, 0.00, 0.00, 0.03, 0.40, 0.94
89, 0.00, 58933.17, 0.00, 0.00, 0.00, 0.00, 0.00, 0.00, 0.03, 0.40, 0.94
90, 0.00, 58935.20, 0.00, 0.00, 0.00, 0.00, 0.00, 0.00, 0.03, 0.40, 0.94
91, 0.00, 58929.50, 0.00, 0.00, 0.00, 0.00, 0.00, 0.00, 0.03, 0.40, 0.94
92, 0.00, 58925.70, 0.00, 0.00, 0.00, 0.00, 0.00, 0.00, 0.03, 0.40, 0.94
93, 0.00, 58932.56, 0.00, 0.00, 0.00, 0.00, 0.00, 0.00, 0.03, 0.40, 0.94
94, 0.00, 58929.72, 0.00, 0.00, 0.00, 0.00, 0.00, 0.00, 0.03, 0.40, 0.94
95, 0.00, 58929.01, 0.00, 0.00, 0.00, 0.00, 0.00, 0.00, 0.03, 0.40, 0.94
96, 0.00, 58931.73, 0.00, 0.00, 0.00, 0.00, 0.00, 0.00, 0.03, 0.40, 0.94
97, 0.00, 58929.16, 0.00, 0.00, 0.00, 0.00, 0.00, 0.00, 0.02, 0.41, 0.94
98, 0.00, 58933.95, 0.00, 0.00, 0.00, 0.00, 0.00, 0.00, 0.02, 0.41, 0.94
99, 0.00, 58932.85, 0.00, 0.00, 0.00, 0.00, 0.00, 0.00, 0.02, 0.41, 0.94
100, 0.00, 58935.02, 0.00, 0.00, 0.00, 0.00, 0.00, 0.00, 0.02, 0.41, 0.94
101, 0.00, 58937.03, 0.00, 0.00, 0.00, 0.00, 0.00, 0.00, 0.02, 0.41, 0.94
102, 0.00, 58938.02, 0.00, 0.00, 0.00, 0.00, 0.00, 0.00, 0.02, 0.40, 0.95
103, 0.00, 58936.63, 0.00, 0.00, 0.00, 0.00, 0.00, 0.00, 0.02, 0.40, 0.95
104, 0.00, 58932.41, 0.00, 0.00, 0.00, 0.00, 0.00, 0.00, 0.02, 0.40, 0.95
105, 0.00, 58933.99, 0.00, 0.00, 0.00, 0.00, 0.00, 0.00, 0.02, 0.40, 0.95
106, 0.00, 58946.02, 0.00, 0.00, 0.00, 0.00, 0.00, 0.00, 0.02, 0.40, 0.95
107, 0.00, 58935.13, 0.00, 0.00, 0.00, 0.00, 0.00, 0.00, 0.02, 0.40, 0.95
108, 0.00, 58935.11, 0.00, 0.00, 0.00, 0.00, 0.00, 0.00, 0.02, 0.40, 0.95
109, 0.00, 58939.49, 0.00, 0.00, 0.00, 0.00, 0.00, 0.00, 0.02, 0.40, 0.95
110, 0.00, 58930.42, 0.00, 0.00, 0.00, 0.00, 0.00, 0.00, 0.02, 0.40, 0.95
111, 0.00, 58914.01, 0.00, 0.00, 0.00, 0.00, 0.00, 0.00, 0.02, 0.40, 0.95
112, 0.00, 58918.05, 0.00, 0.00, 0.00, 0.00, 0.00, 0.00, 0.03, 0.41, 0.95
113, 0.00, 58921.34, 0.00, 0.00, 0.00, 0.00, 0.00, 0.00, 0.03, 0.41, 0.95
114, 0.00, 58923.53, 0.00, 0.00, 0.00, 0.00, 0.00, 0.00, 0.03, 0.41, 0.95
115, 0.00, 58922.41, 0.00, 0.00, 0.00, 0.00, 0.00, 0.00, 0.03, 0.41, 0.95
116, 0.00, 58922.17, 0.00, 0.00, 0.00, 0.00, 0.00, 0.00, 0.03, 0.41, 0.95
117, 0.00, 58928.02, 0.00, 0.00, 0.00, 0.00, 0.00, 0.00, 0.03, 0.41, 0.94
118, 0.00, 58931.18, 0.00, 0.00, 0.00, 0.00, 0.00, 0.00, 0.03, 0.41, 0.94
119, 0.00, 58930.28, 0.00, 0.00, 0.00, 0.00, 0.00, 0.00, 0.03, 0.41, 0.94
120, 0.00, 58930.48, 0.00, 0.00, 0.00, 0.00, 0.00, 0.00, 0.03, 0.41, 0.94
121, 0.00, 58932.72, 0.00, 0.00, 0.00, 0.00, 0.00, 0.00, 0.03, 0.41, 0.94
122, 0.00, 58937.88, 0.00, 0.00, 0.00, 0.00, 0.00, 0.00, 0.03, 0.41, 0.94
123, 0.00, 58938.78, 0.00, 0.00, 0.00, 0.00, 0.00, 0.00, 0.03, 0.41, 0.94
124, 0.00, 58931.51, 0.00, 0.00, 0.00, 0.00, 0.00, 0.00, 0.03, 0.41, 0.94
125, 0.00, 58933.19, 0.00, 0.00, 0.00, 0.00, 0.00, 0.00, 0.03, 0.41, 0.94
126, 0.00, 58933.12, 0.00, 0.00, 0.00, 0.00, 0.00, 0.00, 0.03, 0.41, 0.94
127, 0.00, 58932.81, 0.00, 0.00, 0.00, 0.00, 0.00, 0.00, 0.03, 0.41, 0.94
128, 0.00, 58929.88, 0.00, 0.00, 0.00, 0.00, 0.00, 0.00, 0.03, 0.41, 0.94
129, 0.00, 58931.16, 0.00, 0.00, 0.00, 0.00, 0.00, 0.00, 0.03, 0.41, 0.94
130, 0.00, 58930.28, 0.00, 0.00, 0.00, 0.00, 0.00, 0.00, 0.03, 0.41, 0.94
131, 0.00, 58933.34, 0.00, 0.00, 0.00, 0.00, 0.00, 0.00, 0.03, 0.41, 0.94
132, 0.00, 58929.59, 0.00, 0.00, 0.00, 0.00, 0.00, 0.00, 0.02, 0.40, 0.94
133, 0.00, 58934.73, 0.00, 0.00, 0.00, 0.00, 0.00, 0.00, 0.02, 0.40, 0.94
134, 0.00, 58933.84, 0.00, 0.00, 0.00, 0.00, 0.00, 0.00, 0.02, 0.40, 0.94
135, 0.00, 58928.43, 0.00, 0.00, 0.00, 0.00, 0.00, 0.00, 0.02, 0.40, 0.94
136, 0.00, 58922.91, 0.00, 0.00, 0.00, 0.00, 0.00, 0.00, 0.02, 0.40, 0.94
137, 0.00, 58915.04, 0.00, 0.00, 0.00, 0.00, 0.00, 0.00, 0.02, 0.40, 0.94
138, 0.00, 58923.60, 0.00, 0.00, 0.00, 0.00, 0.00, 0.00, 0.02, 0.40, 0.94
139, 0.00, 58925.77, 0.00, 0.00, 0.00, 0.00, 0.00, 0.00, 0.02, 0.40, 0.94
140, 0.00, 58927.67, 0.00, 0.00, 0.00, 0.00, 0.00, 0.00, 0.02, 0.40, 0.94
141, 0.00, 58926.04, 0.00, 0.00, 0.00, 0.00, 0.00, 0.00, 0.02, 0.40, 0.94
142, 0.00, 58929.30, 0.00, 0.00, 0.00, 0.00, 0.00, 0.00, 0.02, 0.41, 0.94
143, 0.00, 58929.10, 0.00, 0.00, 0.00, 0.00, 0.00, 0.00, 0.02, 0.41, 0.94
144, 0.00, 58924.05, 0.00, 0.00, 0.00, 0.00, 0.00, 0.00, 0.02, 0.41, 0.94
145, 0.00, 58916.25, 0.00, 0.00, 0.00, 0.00, 0.00, 0.00, 0.02, 0.41, 0.94
146, 0.00, 58915.91, 0.00, 0.00, 0.00, 0.00, 0.00, 0.00, 0.02, 0.41, 0.94
147, 0.00, 58925.63, 0.00, 0.00, 0.00, 0.00, 0.00, 0.00, 0.02, 0.41, 0.94
148, 0.00, 58920.61, 0.00, 0.00, 0.00, 0.00, 0.00, 0.00, 0.02, 0.41, 0.94
149, 0.00, 58917.32, 0.00, 0.00, 0.00, 0.00, 0.00, 0.00, 0.02, 0.41, 0.94
150, 0.00, 58924.74, 0.00, 0.00, 0.00, 0.00, 0.00, 0.00, 0.02, 0.41, 0.94
151, 0.00, 58924.07, 0.00, 0.00, 0.00, 0.00, 0.00, 0.00, 0.02, 0.41, 0.94
152, 0.00, 58923.11, 0.00, 0.00, 0.00, 0.00, 0.00, 0.00, 0.02, 0.41, 0.94
153, 0.00, 58921.99, 0.00, 0.00, 0.00, 0.00, 0.00, 0.00, 0.02, 0.40, 0.94
154, 0.00, 58916.96, 0.00, 0.00, 0.00, 0.00, 0.00, 0.00, 0.02, 0.40, 0.94
155, 0.00, 58923.51, 0.00, 0.00, 0.00, 0.00, 0.00, 0.00, 0.02, 0.40, 0.94
156, 0.00, 58921.16, 0.00, 0.00, 0.00, 0.00, 0.00, 0.00, 0.02, 0.40, 0.94
157, 0.00, 58917.77, 0.00, 0.00, 0.00, 0.00, 0.00, 0.00, 0.02, 0.40, 0.94
158, 0.00, 58919.26, 0.00, 0.00, 0.00, 0.00, 0.00, 0.00, 0.02, 0.40, 0.94
159, 0.00, 58918.10, 0.00, 0.00, 0.00, 0.00, 0.00, 0.00, 0.02, 0.40, 0.94
160, 0.00, 58920.89, 0.00, 0.00, 0.00, 0.00, 0.00, 0.00, 0.02, 0.40, 0.94
161, 0.00, 58919.58, 0.00, 0.00, 0.00, 0.00, 0.00, 0.00, 0.02, 0.40, 0.94
162, 0.00, 58917.88, 0.00, 0.00, 0.00, 0.00, 0.00, 0.00, 0.02, 0.40, 0.94
163, 0.00, 58918.55, 0.00, 0.00, 0.00, 0.00, 0.00, 0.00, 0.02, 0.40, 0.95
164, 0.00, 58914.48, 0.00, 0.00, 0.00, 0.00, 0.00, 0.00, 0.02, 0.40, 0.95
165, 0.00, 58913.86, 0.00, 0.00, 0.00, 0.00, 0.00, 0.00, 0.02, 0.40, 0.95
166, 0.00, 58912.22, 0.00, 0.00, 0.00, 0.00, 0.00, 0.00, 0.02, 0.40, 0.95
167, 0.00, 58919.66, 0.00, 0.00, 0.00, 0.00, 0.00, 0.00, 0.02, 0.40, 0.95
168, 0.00, 58928.94, 0.00, 0.00, 0.00, 0.00, 0.00, 0.00, 0.03, 0.40, 0.95
169, 0.00, 58924.61, 0.00, 0.00, 0.00, 0.00, 0.00, 0.00, 0.03, 0.40, 0.95
170, 0.00, 58922.86, 0.00, 0.00, 0.00, 0.00, 0.00, 0.00, 0.03, 0.40, 0.95
171, 0.00, 58922.97, 0.00, 0.00, 0.00, 0.00, 0.00, 0.00, 0.03, 0.40, 0.95
172, 0.00, 58927.78, 0.00, 0.00, 0.00, 0.00, 0.00, 0.00, 0.03, 0.40, 0.95
173, 0.00, 58924.23, 0.00, 0.00, 0.00, 0.00, 0.00, 0.00, 0.03, 0.40, 0.95
174, 0.00, 58926.82, 0.00, 0.00, 0.00, 0.00, 0.00, 0.00, 0.03, 0.40, 0.95
175, 0.00, 58925.14, 0.00, 0.00, 0.00, 0.00, 0.00, 0.00, 0.03, 0.40, 0.95
176, 0.00, 58925.52, 0.00, 0.00, 0.00, 0.00, 0.00, 0.00, 0.03, 0.40, 0.95
177, 0.00, 58925.54, 0.00, 0.00, 0.00, 0.00, 0.00, 0.00, 0.03, 0.40, 0.95
178, 0.00, 58923.38, 0.00, 0.00, 0.00, 0.00, 0.00, 0.00, 0.04, 0.41, 0.95
179, 0.00, 58917.27, 0.00, 0.00, 0.00, 0.00, 0.00, 0.00, 0.04, 0.41, 0.95
180, 0.00, 58925.28, 0.00, 0.00, 0.00, 0.00, 0.00, 0.00, 0.04, 0.41, 0.95
181, 0.00, 58923.55, 0.00, 0.00, 0.00, 0.00, 0.00, 0.00, 0.04, 0.41, 0.95
182, 0.00, 58923.71, 0.00, 0.00, 0.00, 0.00, 0.00, 0.00, 0.04, 0.41, 0.95
183, 0.00, 58920.80, 0.00, 0.00, 0.00, 0.00, 0.00, 0.00, 0.04, 0.41, 0.95
184, 0.00, 58923.98, 0.00, 0.00, 0.00, 0.00, 0.00, 0.00, 0.04, 0.41, 0.95
185, 0.00, 58926.68, 0.00, 0.00, 0.00, 0.00, 0.00, 0.00, 0.04, 0.41, 0.95
186, 0.00, 58921.34, 0.00, 0.00, 0.00, 0.00, 0.00, 0.00, 0.04, 0.41, 0.95
187, 0.00, 58919.38, 0.00, 0.00, 0.00, 0.00, 0.00, 0.00, 0.04, 0.41, 0.95
188, 0.00, 58920.05, 0.00, 0.00, 0.00, 0.00, 0.00, 0.00, 0.03, 0.40, 0.95
189, 0.00, 58915.84, 0.00, 0.00, 0.00, 0.00, 0.00, 0.00, 0.03, 0.40, 0.95
190, 0.00, 58920.43, 0.00, 0.00, 0.00, 0.00, 0.00, 0.00, 0.03, 0.40, 0.95
191, 0.00, 58920.85, 0.00, 0.00, 0.00, 0.00, 0.00, 0.00, 0.03, 0.40, 0.95
192, 0.00, 58919.04, 0.00, 0.00, 0.00, 0.00, 0.00, 0.00, 0.03, 0.40, 0.95
193, 0.00, 58919.26, 0.00, 0.00, 0.00, 0.00, 0.00, 0.00, 0.03, 0.40, 0.95
194, 0.00, 58911.39, 0.00, 0.00, 0.00, 0.00, 0.00, 0.00, 0.03, 0.40, 0.95
195, 0.00, 58914.17, 0.00, 0.00, 0.00, 0.00, 0.00, 0.00, 0.03, 0.40, 0.95
196, 0.00, 58915.93, 0.00, 0.00, 0.00, 0.00, 0.00, 0.00, 0.03, 0.40, 0.95
197, 0.00, 58916.87, 0.00, 0.00, 0.00, 0.00, 0.00, 0.00, 0.03, 0.40, 0.95
198, 0.00, 58913.96, 0.00, 0.00, 0.00, 0.00, 0.00, 0.00, 0.02, 0.41, 0.94
199, 0.00, 58909.20, 0.00, 0.00, 0.00, 0.00, 0.00, 0.00, 0.02, 0.41, 0.94
200, 0.00, 58915.04, 0.00, 0.00, 0.00, 0.00, 0.00, 0.00, 0.02, 0.41, 0.94
201, 0.00, 58919.22, 0.00, 0.00, 0.00, 0.00, 0.00, 0.00, 0.02, 0.41, 0.94
202, 0.00, 58921.61, 0.00, 0.00, 0.00, 0.00, 0.00, 0.00, 0.02, 0.41, 0.94
203, 0.00, 58924.02, 0.00, 0.00, 0.00, 0.00, 0.00, 0.00, 0.02, 0.41, 0.94
204, 0.00, 58921.05, 0.00, 0.00, 0.00, 0.00, 0.00, 0.00, 0.02, 0.41, 0.94
205, 0.00, 58923.42, 0.00, 0.00, 0.00, 0.00, 0.00, 0.00, 0.02, 0.41, 0.94
206, 0.00, 58930.39, 0.00, 0.00, 0.00, 0.00, 0.00, 0.00, 0.02, 0.41, 0.94
207, 0.00, 58927.94, 0.00, 0.00, 0.00, 0.00, 0.00, 0.00, 0.02, 0.41, 0.94
208, 0.00, 58924.54, 0.00, 0.00, 0.00, 0.00, 0.00, 0.00, 0.02, 0.41, 0.95
209, 0.00, 58925.66, 0.00, 0.00, 0.00, 0.00, 0.00, 0.00, 0.02, 0.41, 0.95
210, 0.00, 58924.43, 0.00, 0.00, 0.00, 0.00, 0.00, 0.00, 0.02, 0.41, 0.95
211, 0.00, 58927.54, 0.00, 0.00, 0.00, 0.00, 0.00, 0.00, 0.02, 0.41, 0.95
212, 0.00, 58924.89, 0.00, 0.00, 0.00, 0.00, 0.00, 0.00, 0.02, 0.41, 0.95
213, 0.00, 58927.60, 0.00, 0.00, 0.00, 0.00, 0.00, 0.00, 0.02, 0.40, 0.95
214, 0.00, 58934.39, 0.00, 0.00, 0.00, 0.00, 0.00, 0.00, 0.02, 0.40, 0.95
215, 0.00, 58930.71, 0.00, 0.00, 0.00, 0.00, 0.00, 0.00, 0.02, 0.40, 0.95
216, 0.00, 58927.42, 0.00, 0.00, 0.00, 0.00, 0.00, 0.00, 0.02, 0.40, 0.95
217, 0.00, 58928.74, 0.00, 0.00, 0.00, 0.00, 0.00, 0.00, 0.02, 0.40, 0.95
218, 0.00, 58927.60, 0.00, 0.00, 0.00, 0.00, 0.00, 0.00, 0.02, 0.41, 0.95
219, 0.00, 58932.29, 0.00, 0.00, 0.00, 0.00, 0.00, 0.00, 0.02, 0.41, 0.95
220, 0.00, 58930.55, 0.00, 0.00, 0.00, 0.00, 0.00, 0.00, 0.02, 0.41, 0.95
221, 0.00, 58931.16, 0.00, 0.00, 0.00, 0.00, 0.00, 0.00, 0.02, 0.41, 0.95
222, 0.00, 58939.18, 0.00, 0.00, 0.00, 0.00, 0.00, 0.00, 0.02, 0.41, 0.95
223, 0.00, 58944.21, 0.00, 0.00, 0.00, 0.00, 0.00, 0.00, 0.02, 0.40, 0.94
224, 0.00, 58934.38, 0.00, 0.00, 0.00, 0.00, 0.00, 0.00, 0.02, 0.40, 0.94
225, 0.00, 58931.64, 0.00, 0.00, 0.00, 0.00, 0.00, 0.00, 0.02, 0.40, 0.94
226, 0.00, 58939.80, 0.00, 0.00, 0.00, 0.00, 0.00, 0.00, 0.02, 0.40, 0.94
227, 0.00, 58939.11, 0.00, 0.00, 0.00, 0.00, 0.00, 0.00, 0.02, 0.40, 0.94
228, 0.00, 58925.63, 0.00, 0.00, 0.00, 0.00, 0.00, 0.00, 0.03, 0.41, 0.94
229, 0.00, 58929.84, 0.00, 0.00, 0.00, 0.00, 0.00, 0.00, 0.03, 0.41, 0.94
230, 0.00, 58939.83, 0.00, 0.00, 0.00, 0.00, 0.00, 0.00, 0.03, 0.41, 0.94
231, 0.00, 58936.63, 0.00, 0.00, 0.00, 0.00, 0.00, 0.00, 0.03, 0.41, 0.94
232, 0.00, 58936.65, 0.00, 0.00, 0.00, 0.00, 0.00, 0.00, 0.03, 0.41, 0.94
233, 0.00, 58931.33, 0.00, 0.00, 0.00, 0.00, 0.00, 0.00, 0.03, 0.41, 0.95
234, 0.00, 58924.20, 0.00, 0.00, 0.00, 0.00, 0.00, 0.00, 0.03, 0.41, 0.95
235, 0.00, 58934.30, 0.00, 0.00, 0.00, 0.00, 0.00, 0.00, 0.03, 0.41, 0.95
236, 0.00, 58930.57, 0.00, 0.00, 0.00, 0.00, 0.00, 0.00, 0.03, 0.41, 0.95
237, 0.00, 58932.09, 0.00, 0.00, 0.00, 0.00, 0.00, 0.00, 0.03, 0.41, 0.95
238, 0.00, 58938.98, 0.00, 0.00, 0.00, 0.00, 0.00, 0.00, 0.02, 0.41, 0.95
239, 0.00, 58938.75, 0.00, 0.00, 0.00, 0.00, 0.00, 0.00, 0.02, 0.41, 0.95
240, 0.00, 58938.62, 0.00, 0.00, 0.00, 0.00, 0.00, 0.00, 0.02, 0.41, 0.95
241, 0.00, 58934.51, 0.00, 0.00, 0.00, 0.00, 0.00, 0.00, 0.02, 0.41, 0.95
242, 0.00, 58936.30, 0.00, 0.00, 0.00, 0.00, 0.00, 0.00, 0.02, 0.41, 0.95
243, 0.00, 58941.39, 0.00, 0.00, 0.00, 0.00, 0.00, 0.00, 0.02, 0.41, 0.96
244, 0.00, 58935.71, 0.00, 0.00, 0.00, 0.00, 0.00, 0.00, 0.02, 0.41, 0.96
245, 0.00, 58933.39, 0.00, 0.00, 0.00, 0.00, 0.00, 0.00, 0.02, 0.41, 0.96
246, 0.00, 58938.06, 0.00, 0.00, 0.00, 0.00, 0.00, 0.00, 0.02, 0.41, 0.96
247, 0.00, 58940.65, 0.00, 0.00, 0.00, 0.00, 0.00, 0.00, 0.02, 0.41, 0.96
248, 0.00, 58948.45, 0.00, 0.00, 0.00, 0.00, 0.00, 0.00, 0.02, 0.41, 0.96
249, 0.00, 58944.41, 0.00, 0.00, 0.00, 0.00, 0.00, 0.00, 0.02, 0.41, 0.96
250, 0.00, 58939.52, 0.00, 0.00, 0.00, 0.00, 0.00, 0.00, 0.02, 0.41, 0.96
251, 0.00, 58941.46, 0.00, 0.00, 0.00, 0.00, 0.00, 0.00, 0.02, 0.41, 0.96
252, 0.00, 58942.02, 0.00, 0.00, 0.00, 0.00, 0.00, 0.00, 0.02, 0.41, 0.96
253, 0.00, 58942.53, 0.00, 0.00, 0.00, 0.00, 0.00, 0.00, 0.03, 0.41, 0.95
254, 0.00, 58933.03, 0.00, 0.00, 0.00, 0.00, 0.00, 0.00, 0.03, 0.41, 0.95
255, 0.00, 58941.82, 0.00, 0.00, 0.00, 0.00, 0.00, 0.00, 0.03, 0.41, 0.95
0, 0.00, 58943.09, 0.00, 0.00, 0.00, 0.00, 0.00, 0.00, 0.03, 0.41, 0.95
1, 0.00, 58938.33, 0.00, 0.00, 0.00, 0.00, 0.00, 0.00, 0.03, 0.41, 0.95
2, 0.00, 58936.74, 0.00, 0.00, 0.00, 0.00, 0.00, 0.00, 0.02, 0.41, 0.95
3, 0.00, 58933.48, 0.00, 0.00, 0.00, 0.00, 0.00, 0.00, 0.02, 0.41, 0.95
4, 0.00, 58935.80, 0.00, 0.00, 0.00, 0.00, 0.00, 0.00, 0.02, 0.41, 0.95
5, 0.00, 58935.98, 0.00, 0.00, 0.00, 0.00, 0.00, 0.00, 0.02, 0.41, 0.95
6, 0.00, 58937.48, 0.00, 0.00, 0.00, 0.00, 0.00, 0.00, 0.02, 0.41, 0.95
7, 0.00, 58939.07, 0.00, 0.00, 0.00, 0.00, 0.00, 0.00, 0.02, 0.40, 0.94
8, 0.00, 58943.80, 0.00, 0.00, 0.00, 0.00, 0.00, 0.00, 0.02, 0.40, 0.94
9, 0.00, 58951.70, 0.00, 0.00, 0.00, 0.00, 0.00, 0.00, 0.02, 0.40, 0.94
10, 0.00, 58948.66, 0.00, 0.00, 0.00, 0.00, 0.00, 0.00, 0.02, 0.40, 0.94
11, 0.00, 58949.59, 0.00, 0.00, 0.00, 0.00, 0.00, 0.00, 0.02, 0.40, 0.94
12, 0.00, 58953.08, 0.00, 0.00, 0.00, 0.00, 0.00, 0.00, 0.02, 0.41, 0.94
13, 0.00, 58952.16, 0.00, 0.00, 0.00, 0.00, 0.00, 0.00, 0.02, 0.41, 0.94
14, 0.00, 58953.84, 0.00, 0.00, 0.00, 0.00, 0.00, 0.00, 0.02, 0.41, 0.94
15, 0.00, 58952.48, 0.00, 0.00, 0.00, 0.00, 0.00, 0.00, 0.02, 0.41, 0.94
16, 0.00, 58955.81, 0.00, 0.00, 0.00, 0.00, 0.00, 0.00, 0.02, 0.41, 0.94
17, 0.00, 58953.19, 0.00, 0.00, 0.00, 0.00, 0.00, 0.00, 0.02, 0.40, 0.95
18, 0.00, 58950.33, 0.00, 0.00, 0.00, 0.00, 0.00, 0.00, 0.02, 0.40, 0.95
19, 0.00, 58950.24, 0.00, 0.00, 0.00, 0.00, 0.00, 0.00, 0.02, 0.40, 0.95
20, 0.00, 58950.18, 0.00, 0.00, 0.00, 0.00, 0.00, 0.00, 0.02, 0.40, 0.95
21, 0.00, 58948.88, 0.00, 0.00, 0.00, 0.00, 0.00, 0.00, 0.02, 0.40, 0.95
22, 0.00, 58946.00, 0.00, 0.00, 0.00, 0.00, 0.00, 0.00, 0.02, 0.40, 0.95
23, 0.00, 58941.97, 0.00, 0.00, 0.00, 0.00, 0.00, 0.00, 0.02, 0.40, 0.95
24, 0.00, 58942.58, 0.00, 0.00, 0.00, 0.00, 0.00, 0.00, 0.02, 0.40, 0.95
25, 0.00, 58945.26, 0.00, 0.00, 0.00, 0.00, 0.00, 0.00, 0.02, 0.40, 0.95
26, 0.00, 58944.86, 0.00, 0.00, 0.00, 0.00, 0.00, 0.00, 0.02, 0.40, 0.95
27, 0.00, 58942.31, 0.00, 0.00, 0.00, 0.00, 0.00, 0.00, 0.02, 0.40, 0.95
28, 0.00, 58946.69, 0.00, 0.00, 0.00, 0.00, 0.00, 0.00, 0.02, 0.40, 0.95
29, 0.00, 58949.80, 0.00, 0.00, 0.00, 0.00, 0.00, 0.00, 0.02, 0.40, 0.95
30, 0.00, 58944.68, 0.00, 0.00, 0.00, 0.00, 0.00, 0.00, 0.02, 0.40, 0.95
31, 0.00, 58946.27, 0.00, 0.00, 0.00, 0.00, 0.00, 0.00, 0.02, 0.40, 0.95
32, 0.00, 58954.02, 0.00, 0.00, 0.00, 0.00, 0.00, 0.00, 0.03, 0.40, 0.95
33, 0.00, 58957.26, 0.00, 0.00, 0.00, 0.00, 0.00, 0.00, 0.03, 0.40, 0.95
34, 0.00, 58948.79, 0.00, 0.00, 0.00, 0.00, 0.00, 0.00, 0.03, 0.40, 0.95
35, 0.00, 58947.80, 0.00, 0.00, 0.00, 0.00, 0.00, 0.00, 0.03, 0.40, 0.95
36, 0.00, 58950.62, 0.00, 0.00, 0.00, 0.00, 0.00, 0.00, 0.03, 0.40, 0.95
37, 0.00, 58948.66, 0.00, 0.00, 0.00, 0.00, 0.00, 0.00, 0.02, 0.41, 0.95
38, 0.00, 58944.39, 0.00, 0.00, 0.00, 0.00, 0.00, 0.00, 0.02, 0.41, 0.95
39, 0.00, 58949.44, 0.00, 0.00, 0.00, 0.00, 0.00, 0.00, 0.02, 0.41, 0.95
40, 0.00, 58948.28, 0.00, 0.00, 0.00, 0.00, 0.00, 0.00, 0.02, 0.41, 0.95
41, 0.00, 58951.70, 0.00, 0.00, 0.00, 0.00, 0.00, 0.00, 0.02, 0.41, 0.95
42, 0.00, 58945.53, 0.00, 0.00, 0.00, 0.00, 0.00, 0.00, 0.02, 0.40, 0.95
43, 0.00, 58943.89, 0.00, 0.00, 0.00, 0.00, 0.00, 0.00, 0.02, 0.40, 0.95
44, 0.00, 58945.88, 0.00, 0.00, 0.00, 0.00, 0.00, 0.00, 0.02, 0.40, 0.95
45, 0.00, 58950.73, 0.00, 0.00, 0.00, 0.00, 0.00, 0.00, 0.02, 0.40, 0.95
46, 0.00, 58949.77, 0.00, 0.00, 0.00, 0.00, 0.00, 0.00, 0.02, 0.40, 0.95
47, 0.00, 58952.79, 0.00, 0.00, 0.00, 0.00, 0.00, 0.00, 0.02, 0.41, 0.94
48, 0.00, 58955.70, 0.00, 0.00, 0.00, 0.00, 0.00, 0.00, 0.02, 0.41, 0.94
49, 0.00, 58955.59, 0.00, 0.00, 0.00, 0.00, 0.00, 0.00, 0.02, 0.41, 0.94
50, 0.00, 58962.87, 0.00, 0.00, 0.00, 0.00, 0.00, 0.00, 0.02, 0.41, 0.94
51, 0.00, 58955.23, 0.00, 0.00, 0.00, 0.00, 0.00, 0.00, 0.02, 0.41, 0.94
52, 0.00, 58958.04, 0.00, 0.00, 0.00, 0.00, 0.00, 0.00, 0.02, 0.41, 0.95
53, 0.00, 58956.66, 0.00, 0.00, 0.00, 0.00, 0.00, 0.00, 0.02, 0.41, 0.95
54, 0.00, 58957.11, 0.00, 0.00, 0.00, 0.00, 0.00, 0.00, 0.02, 0.41, 0.95
55, 0.00, 58955.34, 0.00, 0.00, 0.00, 0.00, 0.00, 0.00, 0.02, 0.41, 0.95
56, 0.00, 58951.79, 0.00, 0.00, 0.00, 0.00, 0.00, 0.00, 0.02, 0.41, 0.95
57, 0.00, 58949.71, 0.00, 0.00, 0.00, 0.00, 0.00, 0.00, 0.03, 0.41, 0.95
58, 0.00, 58954.20, 0.00, 0.00, 0.00, 0.00, 0.00, 0.00, 0.03, 0.41, 0.95
59, 0.00, 58956.64, 0.00, 0.00, 0.00, 0.00, 0.00, 0.00, 0.03, 0.41, 0.95
60, 0.00, 58955.05, 0.00, 0.00, 0.00, 0.00, 0.00, 0.00, 0.03, 0.41, 0.95
61, 0.00, 58954.20, 0.00, 0.00, 0.00, 0.00, 0.00, 0.00, 0.03, 0.41, 0.95
62, 0.00, 58955.90, 0.00, 0.00, 0.00, 0.00, 0.00, 0.00, 0.03, 0.41, 0.95
63, 0.00, 58956.32, 0.00, 0.00, 0.00, 0.00, 0.00, 0.00, 0.03, 0.41, 0.95
64, 0.00, 58953.95, 0.00, 0.00, 0.00, 0.00, 0.00, 0.00, 0.03, 0.41, 0.95
65, 0.00, 58948.95, 0.00, 0.00, 0.00, 0.00, 0.00, 0.00, 0.03, 0.41, 0.95
66, 0.00, 58956.52, 0.00, 0.00, 0.00, 0.00, 0.00, 0.00, 0.03, 0.41, 0.95
67, 0.00, 58961.53, 0.00, 0.00, 0.00, 0.00, 0.00, 0.00, 0.02, 0.41, 0.95
68, 0.00, 58950.76, 0.00, 0.00, 0.00, 0.00, 0.00, 0.00, 0.02, 0.41, 0.95
69, 0.00, 58948.39, 0.00, 0.00, 0.00, 0.00, 0.00, 0.00, 0.02, 0.41, 0.95
70, 0.00, 58951.07, 0.00, 0.00, 0.00, 0.00, 0.00, 0.00, 0.02, 0.41, 0.95
71, 0.00, 58948.99, 0.00, 0.00, 0.00, 0.00, 0.00, 0.00, 0.02, 0.41, 0.95
72, 0.00, 58947.67, 0.00, 0.00, 0.00, 0.00, 0.00, 0.00, 0.02, 0.41, 0.95
73, 0.00, 58945.64, 0.00, 0.00, 0.00, 0.00, 0.00, 0.00, 0.02, 0.41, 0.95
74, 0.00, 58952.07, 0.00, 0.00, 0.00, 0.00, 0.00, 0.00, 0.02, 0.41, 0.95
75, 0.00, 58946.11, 0.00, 0.00, 0.00, 0.00, 0.00, 0.00, 0.02, 0.41, 0.95
76, 0.00, 58946.64, 0.00, 0.00, 0.00, 0.00, 0.00, 0.00, 0.02, 0.41, 0.95
77, 0.00, 58950.78, 0.00, 0.00, 0.00, 0.00, 0.00, 0.00, 0.02, 0.41, 0.95
78, 0.00, 58947.98, 0.00, 0.00, 0.00, 0.00, 0.00, 0.00, 0.02, 0.41, 0.95
79, 0.00, 58954.22, 0.00, 0.00, 0.00, 0.00, 0.00, 0.00, 0.02, 0.41, 0.95
80, 0.00, 58954.82, 0.00, 0.00, 0.00, 0.00, 0.00, 0.00, 0.02, 0.41, 0.95
81, 0.00, 58955.63, 0.00, 0.00, 0.00, 0.00, 0.00, 0.00, 0.02, 0.41, 0.95
82, 0.00, 58954.16, 0.00, 0.00, 0.00, 0.00, 0.00, 0.00, 0.03, 0.41, 0.95
83, 0.00, 58952.43, 0.00, 0.00, 0.00, 0.00, 0.00, 0.00, 0.03, 0.41, 0.95
84, 0.00, 58953.26, 0.00, 0.00, 0.00, 0.00, 0.00, 0.00, 0.03, 0.41, 0.95
85, 0.00, 58953.91, 0.00, 0.00, 0.00, 0.00, 0.00, 0.00, 0.03, 0.41, 0.95
86, 0.00, 58951.58, 0.00, 0.00, 0.00, 0.00, 0.00, 0.00, 0.03, 0.41, 0.95
87, 0.00, 58950.58, 0.00, 0.00, 0.00, 0.00, 0.00, 0.00, 0.03, 0.41, 0.95
88, 0.00, 58944.52, 0.00, 0.00, 0.00, 0.00, 0.00, 0.00, 0.03, 0.41, 0.95
89, 0.00, 58945.91, 0.00, 0.00, 0.00, 0.00, 0.00, 0.00, 0.03, 0.41, 0.95
90, 0.00, 58944.03, 0.00, 0.00, 0.00, 0.00, 0.00, 0.00, 0.03, 0.41, 0.95
91, 0.00, 58948.14, 0.00, 0.00, 0.00, 0.00, 0.00, 0.00, 0.03, 0.41, 0.95
92, 0.00, 58952.72, 0.00, 0.00, 0.00, 0.00, 0.00, 0.00, 0.02, 0.40, 0.95
93, 0.00, 58949.39, 0.00, 0.00, 0.00, 0.00, 0.00, 0.00, 0.02, 0.40, 0.95
94, 0.00, 58946.02, 0.00, 0.00, 0.00, 0.00, 0.00, 0.00, 0.02, 0.40, 0.95
95, 0.00, 58955.05, 0.00, 0.00, 0.00, 0.00, 0.00, 0.00, 0.02, 0.40, 0.95
96, 0.00, 58960.43, 0.00, 0.00, 0.00, 0.00, 0.00, 0.00, 0.02, 0.40, 0.95
97, 0.00, 58944.81, 0.00, 0.00, 0.00, 0.00, 0.00, 0.00, 0.03, 0.41, 0.96
98, 0.00, 58948.10, 0.00, 0.00, 0.00, 0.00, 0.00, 0.00, 0.03, 0.41, 0.96
99, 0.00, 58947.85, 0.00, 0.00, 0.00, 0.00, 0.00, 0.00, 0.03, 0.41, 0.96
100, 0.00, 58947.58, 0.00, 0.00, 0.00, 0.00, 0.00, 0.00, 0.03, 0.41, 0.96
101, 0.00, 58949.01, 0.00, 0.00, 0.00, 0.00, 0.00, 0.00, 0.03, 0.41, 0.96
102, 0.00, 58952.43, 0.00, 0.00, 0.00, 0.00, 0.00, 0.00, 0.02, 0.41, 0.95
103, 0.00, 58950.09, 0.00, 0.00, 0.00, 0.00, 0.00, 0.00, 0.02, 0.41, 0.95
104, 0.00, 58944.14, 0.00, 0.00, 0.00, 0.00, 0.00, 0.00, 0.02, 0.41, 0.95
105, 0.00, 58950.22, 0.00, 0.00, 0.00, 0.00, 0.00, 0.00, 0.02, 0.41, 0.95
106, 0.00, 58951.43, 0.00, 0.00, 0.00, 0.00, 0.00, 0.00, 0.02, 0.41, 0.95
107, 0.00, 58947.49, 0.00, 0.00, 0.00, 0.00, 0.00, 0.00, 0.02, 0.40, 0.96
108, 0.00, 58950.69, 0.00, 0.00, 0.00, 0.00, 0.00, 0.00, 0.02, 0.40, 0.96
109, 0.00, 58950.13, 0.00, 0.00, 0.00, 0.00, 0.00, 0.00, 0.02, 0.40, 0.96
110, 0.00, 58950.49, 0.00, 0.00, 0.00, 0.00, 0.00, 0.00, 0.02, 0.40, 0.96
111, 0.00, 58952.28, 0.00, 0.00, 0.00, 0.00, 0.00, 0.00, 0.02, 0.40, 0.96
112, 0.00, 58955.81, 0.00, 0.00, 0.00, 0.00, 0.00, 0.00, 0.02, 0.40, 0.96
113, 0.00, 58953.19, 0.00, 0.00, 0.00, 0.00, 0.00, 0.00, 0.02, 0.40, 0.96
114, 0.00, 58944.97, 0.00, 0.00, 0.00, 0.00, 0.00, 0.00, 0.02, 0.40, 0.96
115, 0.00, 58937.73, 0.00, 0.00, 0.00, 0.00, 0.00, 0.00, 0.02, 0.40, 0.96
116, 0.00, 58939.13, 0.00, 0.00, 0.00, 0.00, 0.00, 0.00, 0.02, 0.40, 0.96
117, 0.00, 58939.29, 0.00, 0.00, 0.00, 0.00, 0.00, 0.00, 0.02, 0.40, 0.95
118, 0.00, 58933.37, 0.00, 0.00, 0.00, 0.00, 0.00, 0.00, 0.02, 0.40, 0.95
119, 0.00, 58940.23, 0.00, 0.00, 0.00, 0.00, 0.00, 0.00, 0.02, 0.40, 0.95
120, 0.00, 58937.77, 0.00, 0.00, 0.00, 0.00, 0.00, 0.00, 0.02, 0.40, 0.95
121, 0.00, 58940.52, 0.00, 0.00, 0.00, 0.00, 0.00, 0.00, 0.02, 0.40, 0.95
122, 0.00, 58938.73, 0.00, 0.00, 0.00, 0.00, 0.00, 0.00, 0.02, 0.40, 0.95
123, 0.00, 58937.10, 0.00, 0.00, 0.00, 0.00, 0.00, 0.00, 0.02, 0.41, 0.95
124, 0.00, 58941.39, 0.00, 0.00, 0.00, 0.00, 0.00, 0.00, 0.02, 0.41, 0.95
125, 0.00, 58946.36, 0.00, 0.00, 0.00, 0.00, 0.00, 0.00, 0.02, 0.41, 0.95
126, 0.00, 58942.73, 0.00, 0.00, 0.00, 0.00, 0.00, 0.00, 0.02, 0.41, 0.95
127, 0.00, 58937.77, 0.00, 0.00, 0.00, 0.00, 0.00, 0.00, 0.02, 0.41, 0.95
128, 0.00, 58941.91, 0.00, 0.00, 0.00, 0.00, 0.00, 0.00, 0.02, 0.41, 0.95
129, 0.00, 58942.20, 0.00, 0.00, 0.00, 0.00, 0.00, 0.00, 0.02, 0.41, 0.95
130, 0.00, 58943.58, 0.00, 0.00, 0.00, 0.00, 0.00, 0.00, 0.02, 0.41, 0.95
131, 0.00, 58947.11, 0.00, 0.00, 0.00, 0.00, 0.00, 0.00, 0.02, 0.41, 0.95
132, 0.00, 58939.07, 0.00, 0.00, 0.00, 0.00, 0.00, 0.00, 0.02, 0.41, 0.95
133, 0.00, 58941.53, 0.00, 0.00, 0.00, 0.00, 0.00, 0.00, 0.03, 0.40, 0.95
134, 0.00, 58940.65, 0.00, 0.00, 0.00, 0.00, 0.00, 0.00, 0.03, 0.40, 0.95
135, 0.00, 58937.84, 0.00, 0.00, 0.00, 0.00, 0.00, 0.00, 0.03, 0.40, 0.95
136, 0.00, 58927.69, 0.00, 0.00, 0.00, 0.00, 0.00, 0.00, 0.03, 0.40, 0.95
137, 0.00, 58936.54, 0.00, 0.00, 0.00, 0.00, 0.00, 0.00, 0.03, 0.40, 0.95
138, 0.00, 58939.98, 0.00, 0.00, 0.00, 0.00, 0.00, 0.00, 0.03, 0.40, 0.95
139, 0.00, 58932.77, 0.00, 0.00, 0.00, 0.00, 0.00, 0.00, 0.03, 0.40, 0.95
140, 0.00, 58928.54, 0.00, 0.00, 0.00, 0.00, 0.00, 0.00, 0.03, 0.40, 0.95
141, 0.00, 58931.40, 0.00, 0.00, 0.00, 0.00, 0.00, 0.00, 0.03, 0.40, 0.95
142, 0.00, 58933.57, 0.00, 0.00, 0.00, 0.00, 0.00, 0.00, 0.03, 0.40, 0.95
143, 0.00, 58930.73, 0.00, 0.00, 0.00, 0.00, 0.00, 0.00, 0.02, 0.41, 0.94
144, 0.00, 58930.42, 0.00, 0.00, 0.00, 0.00, 0.00, 0.00, 0.02, 0.41, 0.94
145, 0.00, 58931.29, 0.00, 0.00, 0.00, 0.00, 0.00, 0.00, 0.02, 0.41, 0.94
146, 0.00, 58936.09, 0.00, 0.00, 0.00, 0.00, 0.00, 0.00, 0.02, 0.41, 0.94
147, 0.00, 58937.93, 0.00, 0.00, 0.00, 0.00, 0.00, 0.00, 0.02, 0.41, 0.94
148, 0.00, 58937.79, 0.00, 0.00, 0.00, 0.00, 0.00, 0.00, 0.02, 0.41, 0.95
149, 0.00, 58942.82, 0.00, 0.00, 0.00, 0.00, 0.00, 0.00, 0.02, 0.41, 0.95
150, 0.00, 58938.33, 0.00, 0.00, 0.00, 0.00, 0.00, 0.00, 0.02, 0.41, 0.95
151, 0.00, 58937.01, 0.00, 0.00, 0.00, 0.00, 0.00, 0.00, 0.02, 0.41, 0.95
152, 0.00, 58932.90, 0.00, 0.00, 0.00, 0.00, 0.00, 0.00, 0.02, 0.41, 0.95
153, 0.00, 58927.46, 0.00, 0.00, 0.00, 0.00, 0.00, 0.00, 0.02, 0.41, 0.95
154, 0.00, 58935.45, 0.00, 0.00, 0.00, 0.00, 0.00, 0.00, 0.02, 0.41, 0.95
155, 0.00, 58936.21, 0.00, 0.00, 0.00, 0.00, 0.00, 0.00, 0.02, 0.41, 0.95
156, 0.00, 58931.27, 0.00, 0.00, 0.00, 0.00, 0.00, 0.00, 0.02, 0.41, 0.95
157, 0.00, 58929.99, 0.00, 0.00, 0.00, 0.00, 0.00, 0.00, 0.02, 0.41, 0.95
158, 0.00, 58929.05, 0.00, 0.00, 0.00, 0.00, 0.00, 0.00, 0.03, 0.41, 0.94
159, 0.00, 58927.80, 0.00, 0.00, 0.00, 0.00, 0.00, 0.00, 0.03, 0.41, 0.94
160, 0.00, 58926.46, 0.00, 0.00, 0.00, 0.00, 0.00, 0.00, 0.03, 0.41, 0.94
161, 0.00, 58928.05, 0.00, 0.00, 0.00, 0.00, 0.00, 0.00, 0.03, 0.41, 0.94
162, 0.00, 58931.73, 0.00, 0.00, 0.00, 0.00, 0.00, 0.00, 0.03, 0.41, 0.94
163, 0.00, 58932.45, 0.00, 0.00, 0.00, 0.00, 0.00, 0.00, 0.03, 0.41, 0.94
164, 0.00, 58935.47, 0.00, 0.00, 0.00, 0.00, 0.00, 0.00, 0.03, 0.41, 0.94
165, 0.00, 58932.20, 0.00, 0.00, 0.00, 0.00, 0.00, 0.00, 0.03, 0.41, 0.94
166, 0.00, 58922.30, 0.00, 0.00, 0.00, 0.00, 0.00, 0.00, 0.03, 0.41, 0.94
167, 0.00, 58932.16, 0.00, 0.00, 0.00, 0.00, 0.00, 0.00, 0.03, 0.41, 0.94
168, 0.00, 58933.46, 0.00, 0.00, 0.00, 0.00, 0.00, 0.00, 0.02, 0.41, 0.95
169, 0.00, 58931.49, 0.00, 0.00, 0.00, 0.00, 0.00, 0.00, 0.02, 0.41, 0.95
170, 0.00, 58929.90, 0.00, 0.00, 0.00, 0.00, 0.00, 0.00, 0.02, 0.41, 0.95
171, 0.00, 58927.04, 0.00, 0.00, 0.00, 0.00, 0.00, 0.00, 0.02, 0.41, 0.95
172, 0.00, 58925.32, 0.00, 0.00, 0.00, 0.00, 0.00, 0.00, 0.02, 0.41, 0.95
173, 0.00, 58926.21, 0.00, 0.00, 0.00, 0.00, 0.00, 0.00, 0.02, 0.41, 0.95
174, 0.00, 58928.83, 0.00, 0.00, 0.00, 0.00, 0.00, 0.00, 0.02, 0.41, 0.95
175, 0.00, 58941.30, 0.00, 0.00, 0.00, 0.00, 0.00, 0.00, 0.02, 0.41, 0.95
176, 0.00, 58939.52, 0.00, 0.00, 0.00, 0.00, 0.00, 0.00, 0.02, 0.41, 0.95
177, 0.00, 58935.09, 0.00, 0.00, 0.00, 0.00, 0.00, 0.00, 0.02, 0.41, 0.95
178, 0.00, 58937.23, 0.00, 0.00, 0.00, 0.00, 0.00, 0.00, 0.03, 0.40, 0.95
179, 0.00, 58939.36, 0.00, 0.00, 0.00, 0.00, 0.00, 0.00, 0.03, 0.40, 0.95
180, 0.00, 58939.58, 0.00, 0.00, 0.00, 0.00, 0.00, 0.00, 0.03, 0.40, 0.95
181, 0.00, 58937.82, 0.00, 0.00, 0.00, 0.00, 0.00, 0.00, 0.03, 0.40, 0.95
182, 0.00, 58935.85, 0.00, 0.00, 0.00, 0.00, 0.00, 0.00, 0.03, 0.40, 0.95
183, 0.00, 58935.16, 0.00, 0.00, 0.00, 0.00, 0.00, 0.00, 0.02, 0.40, 0.95
184, 0.00, 58932.81, 0.00, 0.00, 0.00, 0.00, 0.00, 0.00, 0.02, 0.40, 0.95
185, 0.00, 58932.79, 0.00, 0.00, 0.00, 0.00, 0.00, 0.00, 0.02, 0.40, 0.95
186, 0.00, 58928.09, 0.00, 0.00, 0.00, 0.00, 0.00, 0.00, 0.02, 0.40, 0.95
187, 0.00, 58921.34, 0.00, 0.00, 0.00, 0.00, 0.00, 0.00, 0.02, 0.40, 0.95
188, 0.00, 58923.24, 0.00, 0.00, 0.00, 0.00, 0.00, 0.00, 0.02, 0.40, 0.96
189, 0.00, 58922.01, 0.00, 0.00, 0.00, 0.00, 0.00, 0.00, 0.02, 0.40, 0.96
190, 0.00, 58921.79, 0.00, 0.00, 0.00, 0.00, 0.00, 0.00, 0.02, 0.40, 0.96
191, 0.00, 58923.55, 0.00, 0.00, 0.00, 0.00, 0.00, 0.00, 0.02, 0.40, 0.96
192, 0.00, 58926.10, 0.00, 0.00, 0.00, 0.00, 0.00, 0.00, 0.02, 0.40, 0.96
193, 0.00, 58926.98, 0.00, 0.00, 0.00, 0.00, 0.00, 0.00, 0.02, 0.40, 0.96
194, 0.00, 58927.96, 0.00, 0.00, 0.00, 0.00, 0.00, 0.00, 0.02, 0.40, 0.96
195, 0.00, 58923.42, 0.00, 0.00, 0.00, 0.00, 0.00, 0.00, 0.02, 0.40, 0.96
196, 0.00, 58933.46, 0.00, 0.00, 0.00, 0.00, 0.00, 0.00, 0.02, 0.40, 0.96
197, 0.00, 58932.81, 0.00, 0.00, 0.00, 0.00, 0.00, 0.00, 0.02, 0.40, 0.96
198, 0.00, 58930.35, 0.00, 0.00, 0.00, 0.00, 0.00, 0.00, 0.02, 0.40, 0.95
199, 0.00, 58929.32, 0.00, 0.00, 0.00, 0.00, 0.00, 0.00, 0.02, 0.40, 0.95
200, 0.00, 58931.63, 0.00, 0.00, 0.00, 0.00, 0.00, 0.00, 0.02, 0.40, 0.95
201, 0.00, 58927.13, 0.00, 0.00, 0.00, 0.00, 0.00, 0.00, 0.02, 0.40, 0.95
202, 0.00, 58918.66, 0.00, 0.00, 0.00, 0.00, 0.00, 0.00, 0.02, 0.40, 0.95
203, 0.00, 58924.70, 0.00, 0.00, 0.00, 0.00, 0.00, 0.00, 0.02, 0.40, 0.95
204, 0.00, 58925.95, 0.00, 0.00, 0.00, 0.00, 0.00, 0.00, 0.02, 0.40, 0.95
205, 0.00, 58929.81, 0.00, 0.00, 0.00, 0.00, 0.00, 0.00, 0.02, 0.40, 0.95
206, 0.00, 58922.68, 0.00, 0.00, 0.00, 0.00, 0.00, 0.00, 0.02, 0.40, 0.95
207, 0.00, 58918.50, 0.00, 0.00, 0.00, 0.00, 0.00, 0.00, 0.02, 0.40, 0.95
208, 0.00, 58922.86, 0.00, 0.00, 0.00, 0.00, 0.00, 0.00, 0.02, 0.40, 0.95
209, 0.00, 58918.48, 0.00, 0.00, 0.00, 0.00, 0.00, 0.00, 0.02, 0.40, 0.95
210, 0.00, 58910.86, 0.00, 0.00, 0.00, 0.00, 0.00, 0.00, 0.02, 0.40, 0.95
211, 0.00, 58914.05, 0.00, 0.00, 0.00, 0.00, 0.00, 0.00, 0.02, 0.40, 0.95
212, 0.00, 58920.56, 0.00, 0.00, 0.00, 0.00, 0.00, 0.00, 0.02, 0.40, 0.95
213, 0.00, 58918.97, 0.00, 0.00, 0.00, 0.00, 0.00, 0.00, 0.02, 0.41, 0.96
214, 0.00, 58912.11, 0.00, 0.00, 0.00, 0.00, 0.00, 0.00, 0.02, 0.41, 0.96
215, 0.00, 58910.79, 0.00, 0.00, 0.00, 0.00, 0.00, 0.00, 0.02, 0.41, 0.96
216, 0.00, 58913.00, 0.00, 0.00, 0.00, 0.00, 0.00, 0.00, 0.02, 0.41, 0.96
217, 0.00, 58915.02, 0.00, 0.00, 0.00, 0.00, 0.00, 0.00, 0.02, 0.41, 0.96
218, 0.00, 58905.36, 0.00, 0.00, 0.00, 0.00, 0.00, 0.00, 0.02, 0.40, 0.94
219, 0.00, 58908.29, 0.00, 0.00, 0.00, 0.00, 0.00, 0.00, 0.02, 0.40, 0.94
220, 0.00, 58913.18, 0.00, 0.00, 0.00, 0.00, 0.00, 0.00, 0.02, 0.40, 0.94
221, 0.00, 58907.77, 0.00, 0.00, 0.00, 0.00, 0.00, 0.00, 0.02, 0.40, 0.94
222, 0.00, 58910.23, 0.00, 0.00, 0.00, 0.00, 0.00, 0.00, 0.02, 0.40, 0.94
223, 0.00, 58908.51, 0.00, 0.00, 0.00, 0.00, 0.00, 0.00, 0.01, 0.40, 0.95
224, 0.00, 58913.50, 0.00, 0.00, 0.00, 0.00, 0.00, 0.00, 0.01, 0.40, 0.95
225, 0.00, 58916.16, 0.00, 0.00, 0.00, 0.00, 0.00, 0.00, 0.01, 0.40, 0.95
226, 0.00, 58909.77, 0.00, 0.00, 0.00, 0.00, 0.00, 0.00, 0.01, 0.40, 0.95
227, 0.00, 58907.75, 0.00, 0.00, 0.00, 0.00, 0.00, 0.00, 0.01, 0.40, 0.95
228, 0.00, 58912.25, 0.00, 0.00, 0.00, 0.00, 0.00, 0.00, 0.02, 0.41, 0.95
229, 0.00, 58909.16, 0.00, 0.00, 0.00, 0.00, 0.00, 0.00, 0.02, 0.41, 0.95
230, 0.00, 58910.39, 0.00, 0.00, 0.00, 0.00, 0.00, 0.00, 0.02, 0.41, 0.95
231, 0.00, 58907.39, 0.00, 0.00, 0.00, 0.00, 0.00, 0.00, 0.02, 0.41, 0.95
232, 0.00, 58907.89, 0.00, 0.00, 0.00, 0.00, 0.00, 0.00, 0.02, 0.41, 0.95
233, 0.00, 58910.17, 0.00, 0.00, 0.00, 0.00, 0.00, 0.00, 0.02, 0.41, 0.95
234, 0.00, 58903.39, 0.00, 0.00, 0.00, 0.00, 0.00, 0.00, 0.02, 0.41, 0.95
235, 0.00, 58905.83, 0.00, 0.00, 0.00, 0.00, 0.00, 0.00, 0.02, 0.41, 0.95
236, 0.00, 58898.25, 0.00, 0.00, 0.00, 0.00, 0.00, 0.00, 0.02, 0.41, 0.95
237, 0.00, 58897.87, 0.00, 0.00, 0.00, 0.00, 0.00, 0.00, 0.02, 0.41, 0.95
238, 0.00, 58909.20, 0.00, 0.00, 0.00, 0.00, 0.00, 0.00, 0.02, 0.41, 0.95
239, 0.00, 58905.02, 0.00, 0.00, 0.00, 0.00, 0.00, 0.00, 0.02, 0.41, 0.95
240, 0.00, 58896.71, 0.00, 0.00, 0.00, 0.00, 0.00, 0.00, 0.02, 0.41, 0.95
241, 0.00, 58901.89, 0.00, 0.00, 0.00, 0.00, 0.00, 0.00, 0.02, 0.41, 0.95
242, 0.00, 58906.52, 0.00, 0.00, 0.00, 0.00, 0.00, 0.00, 0.02, 0.41, 0.95
243, 0.00, 58900.51, 0.00, 0.00, 0.00, 0.00, 0.00, 0.00, 0.03, 0.40, 0.94
244, 0.00, 58897.92, 0.00, 0.00, 0.00, 0.00, 0.00, 0.00, 0.03, 0.40, 0.94
245, 0.00, 58903.24, 0.00, 0.00, 0.00, 0.00, 0.00, 0.00, 0.03, 0.40, 0.94
246, 0.00, 58901.34, 0.00, 0.00, 0.00, 0.00, 0.00, 0.00, 0.03, 0.40, 0.94
247, 0.00, 58900.31, 0.00, 0.00, 0.00, 0.00, 0.00, 0.00, 0.03, 0.40, 0.94
248, 0.00, 58898.10, 0.00, 0.00, 0.00, 0.00, 0.00, 0.00, 0.03, 0.40, 0.94
249, 0.00, 58896.49, 0.00, 0.00, 0.00, 0.00, 0.00, 0.00, 0.03, 0.40, 0.94
250, 0.00, 58901.45, 0.00, 0.00, 0.00, 0.00, 0.00, 0.00, 0.03, 0.40, 0.94
251, 0.00, 58902.07, 0.00, 0.00, 0.00, 0.00, 0.00, 0.00, 0.03, 0.40, 0.94
252, 0.00, 58898.27, 0.00, 0.00, 0.00, 0.00, 0.00, 0.00, 0.03, 0.40, 0.94
253, 0.00, 58898.81, 0.00, 0.00, 0.00, 0.00, 0.00, 0.00, 0.03, 0.41, 0.95
254, 0.00, 58910.66, 0.00, 0.00, 0.00, 0.00, 0.00, 0.00, 0.03, 0.41, 0.95
255, 0.00, 58902.21, 0.00, 0.00, 0.00, 0.00, 0.00, 0.00, 0.03, 0.41, 0.95
0, 0.00, 58897.45, 0.00, 0.00, 0.00, 0.00, 0.00, 0.00, 0.03, 0.41, 0.95
1, 0.00, 58905.99, 0.00, 0.00, 0.00, 0.00, 0.00, 0.00, 0.03, 0.41, 0.95
2, 0.00, 58905.81, 0.00, 0.00, 0.00, 0.00, 0.00, 0.00, 0.03, 0.41, 0.95
3, 0.00, 58906.99, 0.00, 0.00, 0.00, 0.00, 0.00, 0.00, 0.03, 0.41, 0.95
4, 0.00, 58903.55, 0.00, 0.00, 0.00, 0.00, 0.00, 0.00, 0.03, 0.41, 0.95
5, 0.00, 58897.47, 0.00, 0.00, 0.00, 0.00, 0.00, 0.00, 0.03, 0.41, 0.95
6, 0.00, 58894.68, 0.00, 0.00, 0.00, 0.00, 0.00, 0.00, 0.03, 0.41, 0.95
7, 0.00, 58897.89, 0.00, 0.00, 0.00, 0.00, 0.00, 0.00, 0.02, 0.41, 0.95
8, 0.00, 58897.05, 0.00, 0.00, 0.00, 0.00, 0.00, 0.00, 0.02, 0.41, 0.95
9, 0.00, 58890.52, 0.00, 0.00, 0.00, 0.00, 0.00, 0.00, 0.02, 0.41, 0.95
10, 0.00, 58886.43, 0.00, 0.00, 0.00, 0.00, 0.00, 0.00, 0.02, 0.41, 0.95
11, 0.00, 58888.30, 0.00, 0.00, 0.00, 0.00, 0.00, 0.00, 0.02, 0.41, 0.95
12, 0.00, 58882.36, 0.00, 0.00, 0.00, 0.00, 0.00, 0.00, 0.02, 0.41, 0.94
13, 0.00, 58889.78, 0.00, 0.00, 0.00, 0.00, 0.00, 0.00, 0.02, 0.41, 0.94
14, 0.00, 58891.10, 0.00, 0.00, 0.00, 0.00, 0.00, 0.00, 0.02, 0.41, 0.94
15, 0.00, 58894.36, 0.00, 0.00, 0.00, 0.00, 0.00, 0.00, 0.02, 0.41, 0.94
16, 0.00, 58898.36, 0.00, 0.00, 0.00, 0.00, 0.00, 0.00, 0.02, 0.41, 0.94
17, 0.00, 58898.99, 0.00, 0.00, 0.00, 0.00, 0.00, 0.00, 0.02, 0.41, 0.94
18, 0.00, 58897.49, 0.00, 0.00, 0.00, 0.00, 0.00, 0.00, 0.02, 0.41, 0.94
19, 0.00, 58899.66, 0.00, 0.00, 0.00, 0.00, 0.00, 0.00, 0.02, 0.41, 0.94
20, 0.00, 58891.68, 0.00, 0.00, 0.00, 0.00, 0.00, 0.00, 0.02, 0.41, 0.94
21, 0.00, 58893.54, 0.00, 0.00, 0.00, 0.00, 0.00, 0.00, 0.02, 0.41, 0.94
22, 0.00, 58895.26, 0.00, 0.00, 0.00, 0.00, 0.00, 0.00, 0.03, 0.41, 0.94
23, 0.00, 58893.85, 0.00, 0.00, 0.00, 0.00, 0.00, 0.00, 0.03, 0.41, 0.94
24, 0.00, 58893.96, 0.00, 0.00, 0.00, 0.00, 0.00, 0.00, 0.03, 0.41, 0.94
25, 0.00, 58896.53, 0.00, 0.00, 0.00, 0.00, 0.00, 0.00, 0.03, 0.41, 0.94
26, 0.00, 58892.29, 0.00, 0.00, 0.00, 0.00, 0.00, 0.00, 0.03, 0.41, 0.94
27, 0.00, 58893.07, 0.00, 0.00, 0.00, 0.00, 0.00, 0.00, 0.03, 0.41, 0.93
28, 0.00, 58892.91, 0.00, 0.00, 0.00, 0.00, 0.00, 0.00, 0.03, 0.41, 0.93
29, 0.00, 58889.65, 0.00, 0.00, 0.00, 0.00, 0.00, 0.00, 0.03, 0.41, 0.93
30, 0.00, 58889.38, 0.00, 0.00, 0.00, 0.00, 0.00, 0.00, 0.03, 0.41, 0.93
31, 0.00, 58894.03, 0.00, 0.00, 0.00, 0.00, 0.00, 0.00, 0.03, 0.41, 0.93
32, 0.00, 58897.89, 0.00, 0.00, 0.00, 0.00, 0.00, 0.00, 0.02, 0.41, 0.95
33, 0.00, 58893.56, 0.00, 0.00, 0.00, 0.00, 0.00, 0.00, 0.02, 0.41, 0.95
34, 0.00, 58884.28, 0.00, 0.00, 0.00, 0.00, 0.00, 0.00, 0.02, 0.41, 0.95
35, 0.00, 58882.00, 0.00, 0.00, 0.00, 0.00, 0.00, 0.00, 0.02, 0.41, 0.95
36, 0.00, 58883.81, 0.00, 0.00, 0.00, 0.00, 0.00, 0.00, 0.02, 0.41, 0.95
37, 0.00, 58885.42, 0.00, 0.00, 0.00, 0.00, 0.00, 0.00, 0.02, 0.41, 0.95
38, 0.00, 58879.50, 0.00, 0.00, 0.00, 0.00, 0.00, 0.00, 0.02, 0.41, 0.95
39, 0.00, 58882.96, 0.00, 0.00, 0.00, 0.00, 0.00, 0.00, 0.02, 0.41, 0.95
40, 0.00, 58886.68, 0.00, 0.00, 0.00, 0.00, 0.00, 0.00, 0.02, 0.41, 0.95
41, 0.00, 58879.99, 0.00, 0.00, 0.00, 0.00, 0.00, 0.00, 0.02, 0.41, 0.95
42, 0.00, 58875.41, 0.00, 0.00, 0.00, 0.00, 0.00, 0.00, 0.02, 0.41, 0.95
43, 0.00, 58881.78, 0.00, 0.00, 0.00, 0.00, 0.00, 0.00, 0.02, 0.41, 0.95
44, 0.00, 58881.91, 0.00, 0.00, 0.00, 0.00, 0.00, 0.00, 0.02, 0.41, 0.95
45, 0.00, 58883.86, 0.00, 0.00, 0.00, 0.00, 0.00, 0.00, 0.02, 0.41, 0.95
46, 0.00, 58881.71, 0.00, 0.00, 0.00, 0.00, 0.00, 0.00, 0.02, 0.41, 0.95
47, 0.00, 58881.15, 0.00, 0.00, 0.00, 0.00, 0.00, 0.00, 0.02, 0.41, 0.94
48, 0.00, 58877.44, 0.00, 0.00, 0.00, 0.00, 0.00, 0.00, 0.02, 0.41, 0.94
49, 0.00, 58875.68, 0.00, 0.00, 0.00, 0.00, 0.00, 0.00, 0.02, 0.41, 0.94
50, 0.00, 58874.63, 0.00, 0.00, 0.00, 0.00, 0.00, 0.00, 0.02, 0.41, 0.94
51, 0.00, 58873.80, 0.00, 0.00, 0.00, 0.00, 0.00, 0.00, 0.02, 0.41, 0.94
52, 0.00, 58879.57, 0.00, 0.00, 0.00, 0.00, 0.00, 0.00, 0.03, 0.41, 0.95
53, 0.00, 58879.32, 0.00, 0.00, 0.00, 0.00, 0.00, 0.00, 0.03, 0.41, 0.95
54, 0.00, 58876.68, 0.00, 0.00, 0.00, 0.00, 0.00, 0.00, 0.03, 0.41, 0.95
55, 0.00, 58879.25, 0.00, 0.00, 0.00, 0.00, 0.00, 0.00, 0.03, 0.41, 0.95
56, 0.00, 58879.10, 0.00, 0.00, 0.00, 0.00, 0.00, 0.00, 0.03, 0.41, 0.95
57, 0.00, 58882.38, 0.00, 0.00, 0.00, 0.00, 0.00, 0.00, 0.03, 0.42, 0.95
58, 0.00, 58880.19, 0.00, 0.00, 0.00, 0.00, 0.00, 0.00, 0.03, 0.42, 0.95
59, 0.00, 58878.88, 0.00, 0.00, 0.00, 0.00, 0.00, 0.00, 0.03, 0.42, 0.95
60, 0.00, 58885.22, 0.00, 0.00, 0.00, 0.00, 0.00, 0.00, 0.03, 0.42, 0.95
61, 0.00, 58881.82, 0.00, 0.00, 0.00, 0.00, 0.00, 0.00, 0.03, 0.42, 0.95
62, 0.00, 58871.95, 0.00, 0.00, 0.00, 0.00, 0.00, 0.00, 0.02, 0.41, 0.95
63, 0.00, 58870.40, 0.00, 0.00, 0.00, 0.00, 0.00, 0.00, 0.02, 0.41, 0.95
64, 0.00, 58872.37, 0.00, 0.00, 0.00, 0.00, 0.00, 0.00, 0.02, 0.41, 0.95
65, 0.00, 58871.70, 0.00, 0.00, 0.00, 0.00, 0.00, 0.00, 0.02, 0.41, 0.95
66, 0.00, 58880.46, 0.00, 0.00, 0.00, 0.00, 0.00, 0.00, 0.02, 0.41, 0.95
67, 0.00, 58874.89, 0.00, 0.00, 0.00, 0.00, 0.00, 0.00, 0.02, 0.40, 0.94
68, 0.00, 58867.18, 0.00, 0.00, 0.00, 0.00, 0.00, 0.00, 0.02, 0.40, 0.94
69, 0.00, 58870.22, 0.00, 0.00, 0.00, 0.00, 0.00, 0.00, 0.02, 0.40, 0.94
70, 0.00, 58875.52, 0.00, 0.00, 0.00, 0.00, 0.00, 0.00, 0.02, 0.40, 0.94
71, 0.00, 58876.41, 0.00, 0.00, 0.00, 0.00, 0.00, 0.00, 0.02, 0.40, 0.94
72, 0.00, 58870.78, 0.00, 0.00, 0.00, 0.00, 0.00, 0.00, 0.02, 0.41, 0.94
73, 0.00, 58871.61, 0.00, 0.00, 0.00, 0.00, 0.00, 0.00, 0.02, 0.41, 0.94
74, 0.00, 58876.66, 0.00, 0.00, 0.00, 0.00, 0.00, 0.00, 0.02, 0.41, 0.94
75, 0.00, 58873.53, 0.00, 0.00, 0.00, 0.00, 0.00, 0.00, 0.02, 0.41, 0.94
76, 0.00, 58874.96, 0.00, 0.00, 0.00, 0.00, 0.00, 0.00, 0.02, 0.41, 0.94
77, 0.00, 58878.02, 0.00, 0.00, 0.00, 0.00, 0.00, 0.00, 0.02, 0.40, 0.94
78, 0.00, 58878.94, 0.00, 0.00, 0.00, 0.00, 0.00, 0.00, 0.02, 0.40, 0.94
79, 0.00, 58873.96, 0.00, 0.00, 0.00, 0.00, 0.00, 0.00, 0.02, 0.40, 0.94
80, 0.00, 58870.98, 0.00, 0.00, 0.00, 0.00, 0.00, 0.00, 0.02, 0.40, 0.94
81, 0.00, 58871.81, 0.00, 0.00, 0.00, 0.00, 0.00, 0.00, 0.02, 0.40, 0.94
82, 0.00, 58867.09, 0.00, 0.00, 0.00, 0.00, 0.00, 0.00, 0.02, 0.40, 0.95
83, 0.00, 58866.94, 0.00, 0.00, 0.00, 0.00, 0.00, 0.00, 0.02, 0.40, 0.95
84, 0.00, 58870.09, 0.00, 0.00, 0.00, 0.00, 0.00, 0.00, 0.02, 0.40, 0.95
85, 0.00, 58868.50, 0.00, 0.00, 0.00, 0.00, 0.00, 0.00, 0.02, 0.40, 0.95
86, 0.00, 58868.14, 0.00, 0.00, 0.00, 0.00, 0.00, 0.00, 0.02, 0.40, 0.95
87, 0.00, 58867.21, 0.00, 0.00, 0.00, 0.00, 0.00, 0.00, 0.02, 0.40, 0.95
88, 0.00, 58866.36, 0.00, 0.00, 0.00, 0.00, 0.00, 0.00, 0.02, 0.40, 0.95
89, 0.00, 58871.05, 0.00, 0.00, 0.00, 0.00, 0.00, 0.00, 0.02, 0.40, 0.95
90, 0.00, 58874.47, 0.00, 0.00, 0.00, 0.00, 0.00, 0.00, 0.02, 0.40, 0.95
91, 0.00, 58867.21, 0.00, 0.00, 0.00, 0.00, 0.00, 0.00, 0.02, 0.40, 0.95
92, 0.00, 58873.69, 0.00, 0.00, 0.00, 0.00, 0.00, 0.00, 0.02, 0.40, 0.95
93, 0.00, 58874.36, 0.00, 0.00, 0.00, 0.00, 0.00, 0.00, 0.03, 0.41, 0.94
94, 0.00, 58878.72, 0.00, 0.00, 0.00, 0.00, 0.00, 0.00, 0.03, 0.41, 0.94
95, 0.00, 58876.71, 0.00, 0.00, 0.00, 0.00, 0.00, 0.00, 0.03, 0.41, 0.94
96, 0.00, 58875.23, 0.00, 0.00, 0.00, 0.00, 0.00, 0.00, 0.03, 0.41, 0.94
97, 0.00, 58870.76, 0.00, 0.00, 0.00, 0.00, 0.00, 0.00, 0.03, 0.41, 0.94
98, 0.00, 58866.09, 0.00, 0.00, 0.00, 0.00, 0.00, 0.00, 0.03, 0.41, 0.94
99, 0.00, 58866.36, 0.00, 0.00, 0.00, 0.00, 0.00, 0.00, 0.03, 0.41, 0.94
100, 0.00, 58869.96, 0.00, 0.00, 0.00, 0.00, 0.00, 0.00, 0.03, 0.41, 0.94
101, 0.00, 58862.02, 0.00, 0.00, 0.00, 0.00, 0.00, 0.00, 0.03, 0.41, 0.94
102, 0.00, 58862.40, 0.00, 0.00, 0.00, 0.00, 0.00, 0.00, 0.03, 0.41, 0.94
103, 0.00, 58865.20, 0.00, 0.00, 0.00, 0.00, 0.00, 0.00, 0.03, 0.41, 0.95
104, 0.00, 58857.53, 0.00, 0.00, 0.00, 0.00, 0.00, 0.00, 0.03, 0.41, 0.95
105, 0.00, 58855.67, 0.00, 0.00, 0.00, 0.00, 0.00, 0.00, 0.03, 0.41, 0.95
106, 0.00, 58861.44, 0.00, 0.00, 0.00, 0.00, 0.00, 0.00, 0.03, 0.41, 0.95
107, 0.00, 58861.62, 0.00, 0.00, 0.00, 0.00, 0.00, 0.00, 0.03, 0.41, 0.95
108, 0.00, 58858.18, 0.00, 0.00, 0.00, 0.00, 0.00, 0.00, 0.03, 0.41, 0.94
109, 0.00, 58862.98, 0.00, 0.00, 0.00, 0.00, 0.00, 0.00, 0.03, 0.41, 0.94
110, 0.00, 58863.29, 0.00, 0.00, 0.00, 0.00, 0.00, 0.00, 0.03, 0.41, 0.94
111, 0.00, 58866.42, 0.00, 0.00, 0.00, 0.00, 0.00, 0.00, 0.03, 0.41, 0.94
112, 0.00, 58864.08, 0.00, 0.00, 0.00, 0.00, 0.00, 0.00, 0.03, 0.41, 0.94
113, 0.00, 58861.37, 0.00, 0.00, 0.00, 0.00, 0.00, 0.00, 0.03, 0.41, 0.94
114, 0.00, 58858.04, 0.00, 0.00, 0.00, 0.00, 0.00, 0.00, 0.03, 0.41, 0.94
115, 0.00, 58858.29, 0.00, 0.00, 0.00, 0.00, 0.00, 0.00, 0.03, 0.41, 0.94
116, 0.00, 58857.80, 0.00, 0.00, 0.00, 0.00, 0.00, 0.00, 0.03, 0.41, 0.94
117, 0.00, 58861.04, 0.00, 0.00, 0.00, 0.00, 0.00, 0.00, 0.03, 0.41, 0.94
118, 0.00, 58861.93, 0.00, 0.00, 0.00, 0.00, 0.00, 0.00, 0.03, 0.41, 0.94
119, 0.00, 58870.45, 0.00, 0.00, 0.00, 0.00, 0.00, 0.00, 0.03, 0.41, 0.94
120, 0.00, 58862.76, 0.00, 0.00, 0.00, 0.00, 0.00, 0.00, 0.03, 0.41, 0.94
121, 0.00, 58859.54, 0.00, 0.00, 0.00, 0.00, 0.00, 0.00, 0.03, 0.41, 0.94
122, 0.00, 58861.73, 0.00, 0.00, 0.00, 0.00, 0.00, 0.00, 0.03, 0.41, 0.94
123, 0.00, 58859.81, 0.00, 0.00, 0.00, 0.00, 0.00, 0.00, 0.02, 0.41, 0.94
124, 0.00, 58855.63, 0.00, 0.00, 0.00, 0.00, 0.00, 0.00, 0.02, 0.41, 0.94
125, 0.00, 58856.59, 0.00, 0.00, 0.00, 0.00, 0.00, 0.00, 0.02, 0.41, 0.94
126, 0.00, 58857.17, 0.00, 0.00, 0.00, 0.00, 0.00, 0.00, 0.02, 0.41, 0.94
127, 0.00, 58852.23, 0.00, 0.00, 0.00, 0.00, 0.00, 0.00, 0.02, 0.41, 0.94
128, 0.00, 58851.02, 0.00, 0.00, 0.00, 0.00, 0.00, 0.00, 0.02, 0.40, 0.95
129, 0.00, 58853.95, 0.00, 0.00, 0.00, 0.00, 0.00, 0.00, 0.02, 0.40, 0.95
130, 0.00, 58851.83, 0.00, 0.00, 0.00, 0.00, 0.00, 0.00, 0.02, 0.40, 0.95
131, 0.00, 58862.07, 0.00, 0.00, 0.00, 0.00, 0.00, 0.00, 0.02, 0.40, 0.95
132, 0.00, 58863.38, 0.00, 0.00, 0.00, 0.00, 0.00, 0.00, 0.02, 0.40, 0.95
133, 0.00, 58862.42, 0.00, 0.00, 0.00, 0.00, 0.00, 0.00, 0.02, 0.41, 0.95
134, 0.00, 58858.04, 0.00, 0.00, 0.00, 0.00, 0.00, 0.00, 0.02, 0.41, 0.95
135, 0.00, 58868.14, 0.00, 0.00, 0.00, 0.00, 0.00, 0.00, 0.02, 0.41, 0.95
136, 0.00, 58868.32, 0.00, 0.00, 0.00, 0.00, 0.00, 0.00, 0.02, 0.41, 0.95
137, 0.00, 58862.29, 0.00, 0.00, 0.00, 0.00, 0.00, 0.00, 0.02, 0.41, 0.95
138, 0.00, 58861.42, 0.00, 0.00, 0.00, 0.00, 0.00, 0.00, 0.02, 0.41, 0.94
139, 0.00, 58864.25, 0.00, 0.00, 0.00, 0.00, 0.00, 0.00, 0.02, 0.41, 0.94
140, 0.00, 58859.05, 0.00, 0.00, 0.00, 0.00, 0.00, 0.00, 0.02, 0.41, 0.94
141, 0.00, 58852.12, 0.00, 0.00, 0.00, 0.00, 0.00, 0.00, 0.02, 0.41, 0.94
142, 0.00, 58853.46, 0.00, 0.00, 0.00, 0.00, 0.00, 0.00, 0.02, 0.41, 0.94
143, 0.00, 58856.72, 0.00, 0.00, 0.00, 0.00, 0.00, 0.00, 0.02, 0.41, 0.95
144, 0.00, 58859.07, 0.00, 0.00, 0.00, 0.00, 0.00, 0.00, 0.02, 0.41, 0.95
145, 0.00, 58852.39, 0.00, 0.00, 0.00, 0.00, 0.00, 0.00, 0.02, 0.41, 0.95
146, 0.00, 58848.48, 0.00, 0.00, 0.00, 0.00, 0.00, 0.00, 0.02, 0.41, 0.95
147, 0.00, 58850.22, 0.00, 0.00, 0.00, 0.00, 0.00, 0.00, 0.02, 0.41, 0.95
148, 0.00, 58852.48, 0.00, 0.00, 0.00, 0.00, 0.00, 0.00, 0.02, 0.41, 0.95
149, 0.00, 58850.96, 0.00, 0.00, 0.00, 0.00, 0.00, 0.00, 0.02, 0.41, 0.95
150, 0.00, 58850.00, 0.00, 0.00, 0.00, 0.00, 0.00, 0.00, 0.02, 0.41, 0.95
151, 0.00, 58849.88, 0.00, 0.00, 0.00, 0.00, 0.00, 0.00, 0.02, 0.41, 0.95
152, 0.00, 58849.82, 0.00, 0.00, 0.00, 0.00, 0.00, 0.00, 0.02, 0.41, 0.95
153, 0.00, 58850.60, 0.00, 0.00, 0.00, 0.00, 0.00, 0.00, 0.02, 0.40, 0.95
154, 0.00, 58846.75, 0.00, 0.00, 0.00, 0.00, 0.00, 0.00, 0.02, 0.40, 0.95
155, 0.00, 58846.24, 0.00, 0.00, 0.00, 0.00, 0.00, 0.00, 0.02, 0.40, 0.95
156, 0.00, 58845.50, 0.00, 0.00, 0.00, 0.00, 0.00, 0.00, 0.02, 0.40, 0.95
157, 0.00, 58851.18, 0.00, 0.00, 0.00, 0.00, 0.00, 0.00, 0.02, 0.40, 0.95
158, 0.00, 58852.14, 0.00, 0.00, 0.00, 0.00, 0.00, 0.00, 0.02, 0.40, 0.95
159, 0.00, 58867.25, 0.00, 0.00, 0.00, 0.00, 0.00, 0.00, 0.02, 0.40, 0.95
160, 0.00, 58859.59, 0.00, 0.00, 0.00, 0.00, 0.00, 0.00, 0.02, 0.40, 0.95
161, 0.00, 58840.50, 0.00, 0.00, 0.00, 0.00, 0.00, 0.00, 0.02, 0.40, 0.95
162, 0.00, 58827.18, 0.00, 0.00, 0.00, 0.00, 0.00, 0.00, 0.02, 0.40, 0.95
163, 0.00, 58822.66, 0.00, 0.00, 0.00, 0.00, 0.00, 0.00, 0.02, 0.41, 0.96
164, 0.00, 58800.87, 0.00, 0.00, 0.00, 0.00, 0.00, 0.00, 0.02, 0.41, 0.96
165, 0.00, 58777.00, 0.00, 0.00, 0.00, 0.00, 0.00, 0.00, 0.02, 0.41, 0.96
166, 0.00, 58735.11, 0.00, 0.00, 0.00, 0.00, 0.00, 0.00, 0.02, 0.41, 0.96
167, 0.00, 58686.16, 0.00, 0.00, 0.00, 0.00, 0.00, 0.00, 0.02, 0.41, 0.96
168, 0.00, 58624.94, 0.00, 0.00, 0.00, 0.00, 0.00, 0.00, 0.03, 0.41, 0.95
169, 0.00, 58576.90, 0.00, 0.00, 0.00, 0.00, 0.00, 0.00, 0.03, 0.41, 0.95
170, 0.00, 58528.78, 0.00, 0.00, 0.00, 0.00, 0.00, 0.00, 0.03, 0.41, 0.95
171, 0.00, 58485.21, 0.00, 0.00, 0.00, 0.00, 0.00, 0.00, 0.03, 0.41, 0.95
172, 0.00, 58441.34, 0.00, 0.00, 0.00, 0.00, 0.00, 0.00, 0.03, 0.41, 0.95
173, 0.00, 58406.54, 0.00, 0.00, 0.00, 0.00, 0.00, 0.00, 0.02, 0.41, 0.95
174, 0.00, 58395.34, 0.00, 0.00, 0.00, 0.00, 0.00, 0.00, 0.02, 0.41, 0.95
175, 0.00, 58357.16, 0.00, 0.00, 0.00, 0.00, 0.00, 0.00, 0.02, 0.41, 0.95
176, 0.00, 58335.28, 0.00, 0.00, 0.00, 0.00, 0.00, 0.00, 0.02, 0.41, 0.95
177, 0.00, 58332.11, 0.00, 0.00, 0.00, 0.00, 0.00, 0.00, 0.02, 0.41, 0.95
178, 0.00, 58327.34, 0.00, 0.00, 0.00, 0.00, 0.00, 0.00, 0.02, 0.41, 0.95
179, 0.00, 58297.93, 0.00, 0.00, 0.00, 0.00, 0.00, 0.00, 0.02, 0.41, 0.95
180, 0.00, 58300.57, 0.00, 0.00, 0.00, 0.00, 0.00, 0.00, 0.02, 0.41, 0.95
181, 0.00, 58300.23, 0.00, 0.00, 0.00, 0.00, 0.00, 0.00, 0.02, 0.41, 0.95
182, 0.00, 58290.49, 0.00, 0.00, 0.00, 0.00, 0.00, 0.00, 0.02, 0.41, 0.95
183, 0.00, 58282.95, 0.00, 0.00, 0.00, 0.00, 0.00, 0.00, 0.03, 0.40, 0.95
184, 0.00, 58285.82, 0.00, 0.00, 0.00, 0.00, 0.00, 0.00, 0.03, 0.40, 0.95
185, 0.00, 58296.70, 0.00, 0.00, 0.00, 0.00, 0.00, 0.00, 0.03, 0.40, 0.95
186, 0.00, 58299.16, 0.00, 0.00, 0.00, 0.00, 0.00, 0.00, 0.03, 0.40, 0.95
187, 0.00, 58299.23, 0.00, 0.00, 0.00, 0.00, 0.00, 0.00, 0.03, 0.40, 0.95
188, 0.00, 58314.09, 0.00, 0.00, 0.00, 0.00, 0.00, 0.00, 0.02, 0.40, 0.95
189, 0.00, 58325.38, 0.00, 0.00, 0.00, 0.00, 0.00, 0.00, 0.02, 0.40, 0.95
190, 0.00, 58343.95, 0.00, 0.00, 0.00, 0.00, 0.00, 0.00, 0.02, 0.40, 0.95
191, 0.00, 58360.65, 0.00, 0.00, 0.00, 0.00, 0.00, 0.00, 0.02, 0.40, 0.95
192, 0.00, 58379.78, 0.00, 0.00, 0.00, 0.00, 0.00, 0.00, 0.02, 0.40, 0.95
193, 0.00, 58397.37, 0.00, 0.00, 0.00, 0.00, 0.00, 0.00, 0.03, 0.41, 0.95
194, 0.00, 58413.60, 0.00, 0.00, 0.00, 0.00, 0.00, 0.00, 0.03, 0.41, 0.95
195, 0.00, 58442.68, 0.00, 0.00, 0.00, 0.00, 0.00, 0.00, 0.03, 0.41, 0.95
196, 0.00, 58461.41, 0.00, 0.00, 0.00, 0.00, 0.00, 0.00, 0.03, 0.41, 0.95
197, 0.00, 58470.39, 0.00, 0.00, 0.00, 0.00, 0.00, 0.00, 0.03, 0.41, 0.95
198, 0.00, 58496.01, 0.00, 0.00, 0.00, 0.00, 0.00, 0.00, 0.02, 0.40, 0.95
199, 0.00, 58530.59, 0.00, 0.00, 0.00, 0.00, 0.00, 0.00, 0.02, 0.40, 0.95
200, 0.00, 58548.67, 0.00, 0.00, 0.00, 0.00, 0.00, 0.00, 0.02, 0.40, 0.95
201, 0.00, 58570.46, 0.00, 0.00, 0.00, 0.00, 0.00, 0.00, 0.02, 0.40, 0.95
202, 0.00, 58590.27, 0.00, 0.00, 0.00, 0.00, 0.00, 0.00, 0.02, 0.40, 0.95
203, 0.00, 58614.52, 0.00, 0.00, 0.00, 0.00, 0.00, 0.00, 0.02, 0.41, 0.94
204, 0.00, 58638.19, 0.00, 0.00, 0.00, 0.00, 0.00, 0.00, 0.02, 0.41, 0.94
205, 0.00, 58652.05, 0.00, 0.00, 0.00, 0.00, 0.00, 0.00, 0.02, 0.41, 0.94
206, 0.00, 58668.32, 0.00, 0.00, 0.00, 0.00, 0.00, 0.00, 0.02, 0.41, 0.94
207, 0.00, 58690.76, 0.00, 0.00, 0.00, 0.00, 0.00, 0.00, 0.02, 0.41, 0.94
208, 0.00, 58702.12, 0.00, 0.00, 0.00, 0.00, 0.00, 0.00, 0.02, 0.41, 0.95
209, 0.00, 58708.84, 0.00, 0.00, 0.00, 0.00, 0.00, 0.00, 0.02, 0.41, 0.95
210, 0.00, 58725.21, 0.00, 0.00, 0.00, 0.00, 0.00, 0.00, 0.02, 0.41, 0.95
211, 0.00, 58744.09, 0.00, 0.00, 0.00, 0.00, 0.00, 0.00, 0.02, 0.41, 0.95
212, 0.00, 58752.43, 0.00, 0.00, 0.00, 0.00, 0.00, 0.00, 0.02, 0.41, 0.95
213, 0.00, 58768.14, 0.00, 0.00, 0.00, 0.00, 0.00, 0.00, 0.02, 0.40, 0.95
214, 0.00, 58775.43, 0.00, 0.00, 0.00, 0.00, 0.00, 0.00, 0.02, 0.40, 0.95
215, 0.00, 58784.39, 0.00, 0.00, 0.00, 0.00, 0.00, 0.00, 0.02, 0.40, 0.95
216, 0.00, 58789.85, 0.00, 0.00, 0.00, 0.00, 0.00, 0.00, 0.02, 0.40, 0.95
217, 0.00, 58798.30, 0.00, 0.00, 0.00, 0.00, 0.00, 0.00, 0.02, 0.40, 0.95
218, 0.00, 58805.47, 0.00, 0.00, 0.00, 0.00, 0.00, 0.00, 0.03, 0.41, 0.95
219, 0.00, 58811.33, 0.00, 0.00, 0.00, 0.00, 0.00, 0.00, 0.03, 0.41, 0.95
220, 0.00, 58819.91, 0.00, 0.00, 0.00, 0.00, 0.00, 0.00, 0.03, 0.41, 0.95
221, 0.00, 58822.59, 0.00, 0.00, 0.00, 0.00, 0.00, 0.00, 0.03, 0.41, 0.95
222, 0.00, 58822.14, 0.00, 0.00, 0.00, 0.00, 0.00, 0.00, 0.03, 0.41, 0.95
223, 0.00, 58832.05, 0.00, 0.00, 0.00, 0.00, 0.00, 0.00, 0.04, 0.41, 0.95
224, 0.00, 58841.43, 0.00, 0.00, 0.00, 0.00, 0.00, 0.00, 0.04, 0.41, 0.95
225, 0.00, 58845.86, 0.00, 0.00, 0.00, 0.00, 0.00, 0.00, 0.04, 0.41, 0.95
226, 0.00, 58840.07, 0.00, 0.00, 0.00, 0.00, 0.00, 0.00, 0.04, 0.41, 0.95
227, 0.00, 58847.27, 0.00, 0.00, 0.00, 0.00, 0.00, 0.00, 0.04, 0.41, 0.95
228, 0.00, 58849.26, 0.00, 0.00, 0.00, 0.00, 0.00, 0.00, 0.04, 0.41, 0.94
229, 0.00, 58855.07, 0.00, 0.00, 0.00, 0.00, 0.00, 0.00, 0.04, 0.41, 0.94
230, 0.00, 58853.19, 0.00, 0.00, 0.00, 0.00, 0.00, 0.00, 0.04, 0.41, 0.94
231, 0.00, 58856.14, 0.00, 0.00, 0.00, 0.00, 0.00, 0.00, 0.04, 0.41, 0.94
232, 0.00, 58864.30, 0.00, 0.00, 0.00, 0.00, 0.00, 0.00, 0.04, 0.41, 0.94
233, 0.00, 58865.64, 0.00, 0.00, 0.00, 0.00, 0.00, 0.00, 0.03, 0.41, 0.95
234, 0.00, 58869.78, 0.00, 0.00, 0.00, 0.00, 0.00, 0.00, 0.03, 0.41, 0.95
235, 0.00, 58864.90, 0.00, 0.00, 0.00, 0.00, 0.00, 0.00, 0.03, 0.41, 0.95
236, 0.00, 58866.71, 0.00, 0.00, 0.00, 0.00, 0.00, 0.00, 0.03, 0.41, 0.95
237, 0.00, 58866.29, 0.00, 0.00, 0.00, 0.00, 0.00, 0.00, 0.03, 0.41, 0.95
238, 0.00, 58860.39, 0.00, 0.00, 0.00, 0.00, 0.00, 0.00, 0.03, 0.41, 0.95
239, 0.00, 58858.31, 0.00, 0.00, 0.00, 0.00, 0.00, 0.00, 0.03, 0.41, 0.95
240, 0.00, 58865.80, 0.00, 0.00, 0.00, 0.00, 0.00, 0.00, 0.03, 0.41, 0.95
241, 0.00, 58861.71, 0.00, 0.00, 0.00, 0.00, 0.00, 0.00, 0.03, 0.41, 0.95
242, 0.00, 58866.82, 0.00, 0.00, 0.00, 0.00, 0.00, 0.00, 0.03, 0.41, 0.95
243, 0.00, 58865.06, 0.00, 0.00, 0.00, 0.00, 0.00, 0.00, 0.02, 0.41, 0.95
244, 0.00, 58868.61, 0.00, 0.00, 0.00, 0.00, 0.00, 0.00, 0.02, 0.41, 0.95
245, 0.00, 58860.48, 0.00, 0.00, 0.00, 0.00, 0.00, 0.00, 0.02, 0.41, 0.95
246, 0.00, 58866.51, 0.00, 0.00, 0.00, 0.00, 0.00, 0.00, 0.02, 0.41, 0.95
247, 0.00, 58868.77, 0.00, 0.00, 0.00, 0.00, 0.00, 0.00, 0.02, 0.41, 0.95
248, 0.00, 58865.48, 0.00, 0.00, 0.00, 0.00, 0.00, 0.00, 0.03, 0.41, 0.94
249, 0.00, 58865.69, 0.00, 0.00, 0.00, 0.00, 0.00, 0.00, 0.03, 0.41, 0.94
250, 0.00, 58863.07, 0.00, 0.00, 0.00, 0.00, 0.00, 0.00, 0.03, 0.41, 0.94
251, 0.00, 58861.26, 0.00, 0.00, 0.00, 0.00, 0.00, 0.00, 0.03, 0.41, 0.94
252, 0.00, 58864.37, 0.00, 0.00, 0.00, 0.00, 0.00, 0.00, 0.03, 0.41, 0.94
253, 0.00, 58867.59, 0.00, 0.00, 0.00, 0.00, 0.00, 0.00, 0.02, 0.41, 0.94
254, 0.00, 58864.90, 0.00, 0.00, 0.00, 0.00, 0.00, 0.00, 0.02, 0.41, 0.94
255, 0.00, 58865.08, 0.00, 0.00, 0.00, 0.00, 0.00, 0.00, 0.02, 0.41, 0.94
0, 0.00, 58865.20, 0.00, 0.00, 0.00, 0.00, 0.00, 0.00, 0.02, 0.41, 0.94
1, 0.00, 58868.41, 0.00, 0.00, 0.00, 0.00, 0.00, 0.00, 0.02, 0.41, 0.94
2, 0.00, 58866.85, 0.00, 0.00, 0.00, 0.00, 0.00, 0.00, 0.02, 0.41, 0.95
3, 0.00, 58864.19, 0.00, 0.00, 0.00, 0.00, 0.00, 0.00, 0.02, 0.41, 0.95
4, 0.00, 58859.81, 0.00, 0.00, 0.00, 0.00, 0.00, 0.00, 0.02, 0.41, 0.95
5, 0.00, 58867.65, 0.00, 0.00, 0.00, 0.00, 0.00, 0.00, 0.02, 0.41, 0.95
6, 0.00, 58865.62, 0.00, 0.00, 0.00, 0.00, 0.00, 0.00, 0.02, 0.41, 0.95
7, 0.00, 58866.85, 0.00, 0.00, 0.00, 0.00, 0.00, 0.00, 0.02, 0.40, 0.95
8, 0.00, 58871.07, 0.00, 0.00, 0.00, 0.00, 0.00, 0.00, 0.02, 0.40, 0.95
9, 0.00, 58878.16, 0.00, 0.00, 0.00, 0.00, 0.00, 0.00, 0.02, 0.40, 0.95
10, 0.00, 58874.36, 0.00, 0.00, 0.00, 0.00, 0.00, 0.00, 0.02, 0.40, 0.95
11, 0.00, 58864.12, 0.00, 0.00, 0.00, 0.00, 0.00, 0.00, 0.02, 0.40, 0.95
12, 0.00, 58859.43, 0.00, 0.00, 0.00, 0.00, 0.00, 0.00, 0.02, 0.40, 0.95
13, 0.00, 58865.30, 0.00, 0.00, 0.00, 0.00, 0.00, 0.00, 0.02, 0.40, 0.95
14, 0.00, 58866.38, 0.00, 0.00, 0.00, 0.00, 0.00, 0.00, 0.02, 0.40, 0.95
15, 0.00, 58872.19, 0.00, 0.00, 0.00, 0.00, 0.00, 0.00, 0.02, 0.40, 0.95
16, 0.00, 58864.39, 0.00, 0.00, 0.00, 0.00, 0.00, 0.00, 0.02, 0.40, 0.95
17, 0.00, 58851.76, 0.00, 0.00, 0.00, 0.00, 0.00, 0.00, 0.02, 0.41, 0.95
18, 0.00, 58863.03, 0.00, 0.00, 0.00, 0.00, 0.00, 0.00, 0.02, 0.41, 0.95
19, 0.00, 58867.36, 0.00, 0.00, 0.00, 0.00, 0.00, 0.00, 0.02, 0.41, 0.95
20, 0.00, 58855.85, 0.00, 0.00, 0.00, 0.00, 0.00, 0.00, 0.02, 0.41, 0.95
21, 0.00, 58864.95, 0.00, 0.00, 0.00, 0.00, 0.00, 0.00, 0.02, 0.41, 0.95
22, 0.00, 58866.91, 0.00, 0.00, 0.00, 0.00, 0.00, 0.00, 0.02, 0.41, 0.94
23, 0.00, 58863.07, 0.00, 0.00, 0.00, 0.00, 0.00, 0.00, 0.02, 0.41, 0.94
24, 0.00, 58867.41, 0.00, 0.00, 0.00, 0.00, 0.00, 0.00, 0.02, 0.41, 0.94
25, 0.00, 58861.46, 0.00, 0.00, 0.00, 0.00, 0.00, 0.00, 0.02, 0.41, 0.94
26, 0.00, 58864.34, 0.00, 0.00, 0.00, 0.00, 0.00, 0.00, 0.02, 0.41, 0.94
27, 0.00, 58867.61, 0.00, 0.00, 0.00, 0.00, 0.00, 0.00, 0.02, 0.41, 0.95
28, 0.00, 58868.52, 0.00, 0.00, 0.00, 0.00, 0.00, 0.00, 0.02, 0.41, 0.95
29, 0.00, 58865.60, 0.00, 0.00, 0.00, 0.00, 0.00, 0.00, 0.02, 0.41, 0.95
30, 0.00, 58872.57, 0.00, 0.00, 0.00, 0.00, 0.00, 0.00, 0.02, 0.41, 0.95
31, 0.00, 58871.97, 0.00, 0.00, 0.00, 0.00, 0.00, 0.00, 0.02, 0.41, 0.95
32, 0.00, 58863.83, 0.00, 0.00, 0.00, 0.00, 0.00, 0.00, 0.03, 0.41, 0.95
33, 0.00, 58864.23, 0.00, 0.00, 0.00, 0.00, 0.00, 0.00, 0.03, 0.41, 0.95
34, 0.00, 58874.63, 0.00, 0.00, 0.00, 0.00, 0.00, 0.00, 0.03, 0.41, 0.95
35, 0.00, 58873.75, 0.00, 0.00, 0.00, 0.00, 0.00, 0.00, 0.03, 0.41, 0.95
36, 0.00, 58865.04, 0.00, 0.00, 0.00, 0.00, 0.00, 0.00, 0.03, 0.41, 0.95
37, 0.00, 58874.00, 0.00, 0.00, 0.00, 0.00, 0.00, 0.00, 0.03, 0.41, 0.95
38, 0.00, 58878.43, 0.00, 0.00, 0.00, 0.00, 0.00, 0.00, 0.03, 0.41, 0.95
39, 0.00, 58872.32, 0.00, 0.00, 0.00, 0.00, 0.00, 0.00, 0.03, 0.41, 0.95
40, 0.00, 58861.84, 0.00, 0.00, 0.00, 0.00, 0.00, 0.00, 0.03, 0.41, 0.95
41, 0.00, 58866.45, 0.00, 0.00, 0.00, 0.00, 0.00, 0.00, 0.03, 0.41, 0.95
42, 0.00, 58865.20, 0.00, 0.00, 0.00, 0.00, 0.00, 0.00, 0.03, 0.41, 0.96
43, 0.00, 58863.32, 0.00, 0.00, 0.00, 0.00, 0.00, 0.00, 0.03, 0.41, 0.96
44, 0.00, 58863.99, 0.00, 0.00, 0.00, 0.00, 0.00, 0.00, 0.03, 0.41, 0.96
45, 0.00, 58860.81, 0.00, 0.00, 0.00, 0.00, 0.00, 0.00, 0.03, 0.41, 0.96
46, 0.00, 58865.80, 0.00, 0.00, 0.00, 0.00, 0.00, 0.00, 0.03, 0.41, 0.96
47, 0.00, 58867.25, 0.00, 0.00, 0.00, 0.00, 0.00, 0.00, 0.02, 0.41, 0.95
48, 0.00, 58860.52, 0.00, 0.00, 0.00, 0.00, 0.00, 0.00, 0.02, 0.41, 0.95
49, 0.00, 58862.51, 0.00, 0.00, 0.00, 0.00, 0.00, 0.00, 0.02, 0.41, 0.95
50, 0.00, 58864.48, 0.00, 0.00, 0.00, 0.00, 0.00, 0.00, 0.02, 0.41, 0.95
51, 0.00, 58871.27, 0.00, 0.00, 0.00, 0.00, 0.00, 0.00, 0.02, 0.41, 0.95
52, 0.00, 58860.99, 0.00, 0.00, 0.00, 0.00, 0.00, 0.00, 0.03, 0.40, 0.95
53, 0.00, 58863.52, 0.00, 0.00, 0.00, 0.00, 0.00, 0.00, 0.03, 0.40, 0.95
54, 0.00, 58864.30, 0.00, 0.00, 0.00, 0.00, 0.00, 0.00, 0.03, 0.40, 0.95
55, 0.00, 58865.62, 0.00, 0.00, 0.00, 0.00, 0.00, 0.00, 0.03, 0.40, 0.95
56, 0.00, 58866.60, 0.00, 0.00, 0.00, 0.00, 0.00, 0.00, 0.03, 0.40, 0.95
57, 0.00, 58865.42, 0.00, 0.00, 0.00, 0.00, 0.00, 0.00, 0.03, 0.40, 0.95
58, 0.00, 58862.00, 0.00, 0.00, 0.00, 0.00, 0.00, 0.00, 0.03, 0.40, 0.95
59, 0.00, 58866.36, 0.00, 0.00, 0.00, 0.00, 0.00, 0.00, 0.03, 0.40, 0.95
60, 0.00, 58868.46, 0.00, 0.00, 0.00, 0.00, 0.00, 0.00, 0.03, 0.40, 0.95
61, 0.00, 58869.02, 0.00, 0.00, 0.00, 0.00, 0.00, 0.00, 0.03, 0.40, 0.95
62, 0.00, 58867.79, 0.00, 0.00, 0.00, 0.00, 0.00, 0.00, 0.03, 0.40, 0.95
63, 0.00, 58870.11, 0.00, 0.00, 0.00, 0.00, 0.00, 0.00, 0.02, 0.40, 0.95
64, 0.00, 58867.03, 0.00, 0.00, 0.00, 0.00, 0.00, 0.00, 0.02, 0.40, 0.95
65, 0.00, 58865.57, 0.00, 0.00, 0.00, 0.00, 0.00, 0.00, 0.02, 0.40, 0.95
66, 0.00, 58868.21, 0.00, 0.00, 0.00, 0.00, 0.00, 0.00, 0.02, 0.40, 0.95
67, 0.00, 58869.48, 0.00, 0.00, 0.00, 0.00, 0.00, 0.00, 0.02, 0.40, 0.95
68, 0.00, 58870.45, 0.00, 0.00, 0.00, 0.00, 0.00, 0.00, 0.02, 0.40, 0.95
69, 0.00, 58866.71, 0.00, 0.00, 0.00, 0.00, 0.00, 0.00, 0.02, 0.40, 0.95
70, 0.00, 58863.07, 0.00, 0.00, 0.00, 0.00, 0.00, 0.00, 0.02, 0.40, 0.95
71, 0.00, 58858.09, 0.00, 0.00, 0.00, 0.00, 0.00, 0.00, 0.02, 0.40, 0.95
72, 0.00, 58862.67, 0.00, 0.00, 0.00, 0.00, 0.00, 0.00, 0.02, 0.40, 0.95
73, 0.00, 58860.93, 0.00, 0.00, 0.00, 0.00, 0.00, 0.00, 0.02, 0.40, 0.95
74, 0.00, 58857.80, 0.00, 0.00, 0.00, 0.00, 0.00, 0.00, 0.02, 0.40, 0.95
75, 0.00, 58849.84, 0.00, 0.00, 0.00, 0.00, 0.00, 0.00, 0.02, 0.40, 0.95
76, 0.00, 58847.71, 0.00, 0.00, 0.00, 0.00, 0.00, 0.00, 0.02, 0.40, 0.95
77, 0.00, 58842.15, 0.00, 0.00, 0.00, 0.00, 0.00, 0.00, 0.02, 0.40, 0.95
78, 0.00, 58843.69, 0.00, 0.00, 0.00, 0.00, 0.00, 0.00, 0.03, 0.40, 0.95
79, 0.00, 58841.55, 0.00, 0.00, 0.00, 0.00, 0.00, 0.00, 0.03, 0.40, 0.95
80, 0.00, 58849.32, 0.00, 0.00, 0.00, 0.00, 0.00, 0.00, 0.03, 0.40, 0.95
81, 0.00, 58848.65, 0.00, 0.00, 0.00, 0.00, 0.00, 0.00, 0.03, 0.40, 0.95
82, 0.00, 58845.82, 0.00, 0.00, 0.00, 0.00, 0.00, 0.00, 0.03, 0.40, 0.95
83, 0.00, 58855.52, 0.00, 0.00, 0.00, 0.00, 0.00, 0.00, 0.03, 0.40, 0.95
84, 0.00, 58853.64, 0.00, 0.00, 0.00, 0.00, 0.00, 0.00, 0.03, 0.40, 0.95
85, 0.00, 58855.36, 0.00, 0.00, 0.00, 0.00, 0.00, 0.00, 0.03, 0.40, 0.95
86, 0.00, 58855.16, 0.00, 0.00, 0.00, 0.00, 0.00, 0.00, 0.03, 0.40, 0.95
87, 0.00, 58852.79, 0.00, 0.00, 0.00, 0.00, 0.00, 0.00, 0.03, 0.40, 0.95
88, 0.00, 58857.35, 0.00, 0.00, 0.00, 0.00, 0.00, 0.00, 0.03, 0.40, 0.95
89, 0.00, 58856.32, 0.00, 0.00, 0.00, 0.00, 0.00, 0.00, 0.03, 0.40, 0.95
90, 0.00, 58850.04, 0.00, 0.00, 0.00, 0.00, 0.00, 0.00, 0.03, 0.40, 0.95
91, 0.00, 58854.76, 0.00, 0.00, 0.00, 0.00, 0.00, 0.00, 0.03, 0.40, 0.95
92, 0.00, 58853.32, 0.00, 0.00, 0.00, 0.00, 0.00, 0.00, 0.03, 0.40, 0.95
93, 0.00, 58854.60, 0.00, 0.00, 0.00, 0.00, 0.00, 0.00, 0.03, 0.41, 0.95
94, 0.00, 58853.46, 0.00, 0.00, 0.00, 0.00, 0.00, 0.00, 0.03, 0.41, 0.95
95, 0.00, 58850.98, 0.00, 0.00, 0.00, 0.00, 0.00, 0.00, 0.03, 0.41, 0.95
96, 0.00, 58857.15, 0.00, 0.00, 0.00, 0.00, 0.00, 0.00, 0.03, 0.41, 0.95
97, 0.00, 58857.02, 0.00, 0.00, 0.00, 0.00, 0.00, 0.00, 0.03, 0.41, 0.95
98, 0.00, 58855.23, 0.00, 0.00, 0.00, 0.00, 0.00, 0.00, 0.02, 0.41, 0.95
99, 0.00, 58853.06, 0.00, 0.00, 0.00, 0.00, 0.00, 0.00, 0.02, 0.41, 0.95
100, 0.00, 58846.84, 0.00, 0.00, 0.00, 0.00, 0.00, 0.00, 0.02, 0.41, 0.95
101, 0.00, 58852.57, 0.00, 0.00, 0.00, 0.00, 0.00, 0.00, 0.02, 0.41, 0.95
102, 0.00, 58849.05, 0.00, 0.00, 0.00, 0.00, 0.00, 0.00, 0.02, 0.41, 0.95
103, 0.00, 58848.41, 0.00, 0.00, 0.00, 0.00, 0.00, 0.00, 0.02, 0.41, 0.95
104, 0.00, 58848.07, 0.00, 0.00, 0.00, 0.00, 0.00, 0.00, 0.02, 0.41, 0.95
105, 0.00, 58851.47, 0.00, 0.00, 0.00, 0.00, 0.00, 0.00, 0.02, 0.41, 0.95
106, 0.00, 58850.44, 0.00, 0.00, 0.00, 0.00, 0.00, 0.00, 0.02, 0.41, 0.95
107, 0.00, 58849.93, 0.00, 0.00, 0.00, 0.00, 0.00, 0.00, 0.02, 0.41, 0.95
108, 0.00, 58848.32, 0.00, 0.00, 0.00, 0.00, 0.00, 0.00, 0.03, 0.41, 0.95
109, 0.00, 58853.73, 0.00, 0.00, 0.00, 0.00, 0.00, 0.00, 0.03, 0.41, 0.95
110, 0.00, 58856.52, 0.00, 0.00, 0.00, 0.00, 0.00, 0.00, 0.03, 0.41, 0.95
111, 0.00, 58857.48, 0.00, 0.00, 0.00, 0.00, 0.00, 0.00, 0.03, 0.41, 0.95
112, 0.00, 58855.79, 0.00, 0.00, 0.00, 0.00, 0.00, 0.00, 0.03, 0.41, 0.95
113, 0.00, 58857.55, 0.00, 0.00, 0.00, 0.00, 0.00, 0.00, 0.03, 0.40, 0.95
114, 0.00, 58858.27, 0.00, 0.00, 0.00, 0.00, 0.00, 0.00, 0.03, 0.40, 0.95
115, 0.00, 58853.44, 0.00, 0.00, 0.00, 0.00, 0.00, 0.00, 0.03, 0.40, 0.95
116, 0.00, 58847.31, 0.00, 0.00, 0.00, 0.00, 0.00, 0.00, 0.03, 0.40, 0.95
117, 0.00, 58850.18, 0.00, 0.00, 0.00, 0.00, 0.00, 0.00, 0.03, 0.40, 0.95
118, 0.00, 58850.53, 0.00, 0.00, 0.00, 0.00, 0.00, 0.00, 0.03, 0.40, 0.95
119, 0.00, 58852.27, 0.00, 0.00, 0.00, 0.00, 0.00, 0.00, 0.03, 0.40, 0.95
120, 0.00, 58854.89, 0.00, 0.00, 0.00, 0.00, 0.00, 0.00, 0.03, 0.40, 0.95
121, 0.00, 58858.31, 0.00, 0.00, 0.00, 0.00, 0.00, 0.00, 0.03, 0.40, 0.95
122, 0.00, 58854.98, 0.00, 0.00, 0.00, 0.00, 0.00, 0.00, 0.03, 0.40, 0.95
123, 0.00, 58848.27, 0.00, 0.00, 0.00, 0.00, 0.00, 0.00, 0.03, 0.41, 0.95
124, 0.00, 58847.94, 0.00, 0.00, 0.00, 0.00, 0.00, 0.00, 0.03, 0.41, 0.95
125, 0.00, 58847.18, 0.00, 0.00, 0.00, 0.00, 0.00, 0.00, 0.03, 0.41, 0.95
126, 0.00, 58845.39, 0.00, 0.00, 0.00, 0.00, 0.00, 0.00, 0.03, 0.41, 0.95
127, 0.00, 58844.68, 0.00, 0.00, 0.00, 0.00, 0.00, 0.00, 0.03, 0.41, 0.95
128, 0.00, 58843.29, 0.00, 0.00, 0.00, 0.00, 0.00, 0.00, 0.02, 0.41, 0.94
129, 0.00, 58834.37, 0.00, 0.00, 0.00, 0.00, 0.00, 0.00, 0.02, 0.41, 0.94
130, 0.00, 58836.65, 0.00, 0.00, 0.00, 0.00, 0.00, 0.00, 0.02, 0.41, 0.94
131, 0.00, 58843.80, 0.00, 0.00, 0.00, 0.00, 0.00, 0.00, 0.02, 0.41, 0.94
132, 0.00, 58837.79, 0.00, 0.00, 0.00, 0.00, 0.00, 0.00, 0.02, 0.41, 0.94
133, 0.00, 58838.82, 0.00, 0.00, 0.00, 0.00, 0.00, 0.00, 0.02, 0.41, 0.94
134, 0.00, 58842.66, 0.00, 0.00, 0.00, 0.00, 0.00, 0.00, 0.02, 0.41, 0.94
135, 0.00, 58845.05, 0.00, 0.00, 0.00, 0.00, 0.00, 0.00, 0.02, 0.41, 0.94
136, 0.00, 58845.82, 0.00, 0.00, 0.00, 0.00, 0.00, 0.00, 0.02, 0.41, 0.94
137, 0.00, 58836.56, 0.00, 0.00, 0.00, 0.00, 0.00, 0.00, 0.02, 0.41, 0.94
138, 0.00, 58835.82, 0.00, 0.00, 0.00, 0.00, 0.00, 0.00, 0.02, 0.41, 0.94
139, 0.00, 58843.07, 0.00, 0.00, 0.00, 0.00, 0.00, 0.00, 0.02, 0.41, 0.94
140, 0.00, 58841.86, 0.00, 0.00, 0.00, 0.00, 0.00, 0.00, 0.02, 0.41, 0.94
141, 0.00, 58841.82, 0.00, 0.00, 0.00, 0.00, 0.00, 0.00, 0.02, 0.41, 0.94
142, 0.00, 58839.38, 0.00, 0.00, 0.00, 0.00, 0.00, 0.00, 0.02, 0.41, 0.94
143, 0.00, 58839.36, 0.00, 0.00, 0.00, 0.00, 0.00, 0.00, 0.02, 0.41, 0.94
144, 0.00, 58838.84, 0.00, 0.00, 0.00, 0.00, 0.00, 0.00, 0.02, 0.41, 0.94
145, 0.00, 58837.07, 0.00, 0.00, 0.00, 0.00, 0.00, 0.00, 0.02, 0.41, 0.94
146, 0.00, 58839.64, 0.00, 0.00, 0.00, 0.00, 0.00, 0.00, 0.02, 0.41, 0.94
147, 0.00, 58840.94, 0.00, 0.00, 0.00, 0.00, 0.00, 0.00, 0.02, 0.41, 0.94
148, 0.00, 58837.28, 0.00, 0.00, 0.00, 0.00, 0.00, 0.00, 0.03, 0.40, 0.95
149, 0.00, 58838.80, 0.00, 0.00, 0.00, 0.00, 0.00, 0.00, 0.03, 0.40, 0.95
150, 0.00, 58830.39, 0.00, 0.00, 0.00, 0.00, 0.00, 0.00, 0.03, 0.40, 0.95
151, 0.00, 58843.94, 0.00, 0.00, 0.00, 0.00, 0.00, 0.00, 0.03, 0.40, 0.95
152, 0.00, 58837.37, 0.00, 0.00, 0.00, 0.00, 0.00, 0.00, 0.03, 0.40, 0.95
153, 0.00, 58830.97, 0.00, 0.00, 0.00, 0.00, 0.00, 0.00, 0.02, 0.40, 0.94
154, 0.00, 58831.29, 0.00, 0.00, 0.00, 0.00, 0.00, 0.00, 0.02, 0.40, 0.94
155, 0.00, 58830.91, 0.00, 0.00, 0.00, 0.00, 0.00, 0.00, 0.02, 0.40, 0.94
156, 0.00, 58836.81, 0.00, 0.00, 0.00, 0.00, 0.00, 0.00, 0.02, 0.40, 0.94
157, 0.00, 58831.20, 0.00, 0.00, 0.00, 0.00, 0.00, 0.00, 0.02, 0.40, 0.94
158, 0.00, 58828.61, 0.00, 0.00, 0.00, 0.00, 0.00, 0.00, 0.02, 0.41, 0.94
159, 0.00, 58834.44, 0.00, 0.00, 0.00, 0.00, 0.00, 0.00, 0.02, 0.41, 0.94
160, 0.00, 58843.47, 0.00, 0.00, 0.00, 0.00, 0.00, 0.00, 0.02, 0.41, 0.94
161, 0.00, 58837.84, 0.00, 0.00, 0.00, 0.00, 0.00, 0.00, 0.02, 0.41, 0.94
162, 0.00, 58831.53, 0.00, 0.00, 0.00, 0.00, 0.00, 0.00, 0.02, 0.41, 0.94
163, 0.00, 58837.95, 0.00, 0.00, 0.00, 0.00, 0.00, 0.00, 0.02, 0.41, 0.95
164, 0.00, 58847.13, 0.00, 0.00, 0.00, 0.00, 0.00, 0.00, 0.02, 0.41, 0.95
165, 0.00, 58840.56, 0.00, 0.00, 0.00, 0.00, 0.00, 0.00, 0.02, 0.41, 0.95
166, 0.00, 58841.03, 0.00, 0.00, 0.00, 0.00, 0.00, 0.00, 0.02, 0.41, 0.95
167, 0.00, 58845.17, 0.00, 0.00, 0.00, 0.00, 0.00, 0.00, 0.02, 0.41, 0.95
168, 0.00, 58841.48, 0.00, 0.00, 0.00, 0.00, 0.00, 0.00, 0.03, 0.41, 0.94
169, 0.00, 58839.82, 0.00, 0.00, 0.00, 0.00, 0.00, 0.00, 0.03, 0.41, 0.94
170, 0.00, 58833.70, 0.00, 0.00, 0.00, 0.00, 0.00, 0.00, 0.03, 0.41, 0.94
171, 0.00, 58837.19, 0.00, 0.00, 0.00, 0.00, 0.00, 0.00, 0.03, 0.41, 0.94
172, 0.00, 58841.10, 0.00, 0.00, 0.00, 0.00, 0.00, 0.00, 0.03, 0.41, 0.94
173, 0.00, 58843.83, 0.00, 0.00, 0.00, 0.00, 0.00, 0.00, 0.02, 0.41, 0.95
174, 0.00, 58840.88, 0.00, 0.00, 0.00, 0.00, 0.00, 0.00, 0.02, 0.41, 0.95
175, 0.00, 58844.68, 0.00, 0.00, 0.00, 0.00, 0.00, 0.00, 0.02, 0.41, 0.95
176, 0.00, 58839.07, 0.00, 0.00, 0.00, 0.00, 0.00, 0.00, 0.02, 0.41, 0.95
177, 0.00, 58840.14, 0.00, 0.00, 0.00, 0.00, 0.00, 0.00, 0.02, 0.41, 0.95
178, 0.00, 58845.28, 0.00, 0.00, 0.00, 0.00, 0.00, 0.00, 0.02, 0.40, 0.95
179, 0.00, 58848.12, 0.00, 0.00, 0.00, 0.00, 0.00, 0.00, 0.02, 0.40, 0.95
180, 0.00, 58847.13, 0.00, 0.00, 0.00, 0.00, 0.00, 0.00, 0.02, 0.40, 0.95
181, 0.00, 58840.29, 0.00, 0.00, 0.00, 0.00, 0.00, 0.00, 0.02, 0.40, 0.95
182, 0.00, 58842.38, 0.00, 0.00, 0.00, 0.00, 0.00, 0.00, 0.02, 0.40, 0.95
183, 0.00, 58842.84, 0.00, 0.00, 0.00, 0.00, 0.00, 0.00, 0.03, 0.40, 0.94
184, 0.00, 58840.21, 0.00, 0.00, 0.00, 0.00, 0.00, 0.00, 0.03, 0.40, 0.94
185, 0.00, 58847.87, 0.00, 0.00, 0.00, 0.00, 0.00, 0.00, 0.03, 0.40, 0.94
186, 0.00, 58848.90, 0.00, 0.00, 0.00, 0.00, 0.00, 0.00, 0.03, 0.40, 0.94
187, 0.00, 58845.57, 0.00, 0.00, 0.00, 0.00, 0.00, 0.00, 0.03, 0.40, 0.94
188, 0.00, 58842.30, 0.00, 0.00, 0.00, 0.00, 0.00, 0.00, 0.03, 0.40, 0.94
189, 0.00, 58843.36, 0.00, 0.00, 0.00, 0.00, 0.00, 0.00, 0.03, 0.40, 0.94
190, 0.00, 58844.07, 0.00, 0.00, 0.00, 0.00, 0.00, 0.00, 0.03, 0.40, 0.94
191, 0.00, 58839.13, 0.00, 0.00, 0.00, 0.00, 0.00, 0.00, 0.03, 0.40, 0.94
192, 0.00, 58843.11, 0.00, 0.00, 0.00, 0.00, 0.00, 0.00, 0.03, 0.40, 0.94
193, 0.00, 58849.10, 0.00, 0.00, 0.00, 0.00, 0.00, 0.00, 0.02, 0.40, 0.95
194, 0.00, 58842.53, 0.00, 0.00, 0.00, 0.00, 0.00, 0.00, 0.02, 0.40, 0.95
195, 0.00, 58846.31, 0.00, 0.00, 0.00, 0.00, 0.00, 0.00, 0.02, 0.40, 0.95
196, 0.00, 58851.23, 0.00, 0.00, 0.00, 0.00, 0.00, 0.00, 0.02, 0.40, 0.95
197, 0.00, 58854.13, 0.00, 0.00, 0.00, 0.00, 0.00, 0.00, 0.02, 0.40, 0.95
198, 0.00, 58851.00, 0.00, 0.00, 0.00, 0.00, 0.00, 0.00, 0.02, 0.40, 0.95
199, 0.00, 58848.86, 0.00, 0.00, 0.00, 0.00, 0.00, 0.00, 0.02, 0.40, 0.95
200, 0.00, 58844.16, 0.00, 0.00, 0.00, 0.00, 0.00, 0.00, 0.02, 0.40, 0.95
201, 0.00, 58843.47, 0.00, 0.00, 0.00, 0.00, 0.00, 0.00, 0.02, 0.40, 0.95
202, 0.00, 58843.38, 0.00, 0.00, 0.00, 0.00, 0.00, 0.00, 0.02, 0.40, 0.95
203, 0.00, 58837.61, 0.00, 0.00, 0.00, 0.00, 0.00, 0.00, 0.02, 0.41, 0.94
204, 0.00, 58837.41, 0.00, 0.00, 0.00, 0.00, 0.00, 0.00, 0.02, 0.41, 0.94
205, 0.00, 58836.92, 0.00, 0.00, 0.00, 0.00, 0.00, 0.00, 0.02, 0.41, 0.94
206, 0.00, 58837.57, 0.00, 0.00, 0.00, 0.00, 0.00, 0.00, 0.02, 0.41, 0.94
207, 0.00, 58838.48, 0.00, 0.00, 0.00, 0.00, 0.00, 0.00, 0.02, 0.41, 0.94
208, 0.00, 58840.05, 0.00, 0.00, 0.00, 0.00, 0.00, 0.00, 0.03, 0.41, 0.94
209, 0.00, 58834.64, 0.00, 0.00, 0.00, 0.00, 0.00, 0.00, 0.03, 0.41, 0.94
210, 0.00, 58842.82, 0.00, 0.00, 0.00, 0.00, 0.00, 0.00, 0.03, 0.41, 0.94
211, 0.00, 58839.49, 0.00, 0.00, 0.00, 0.00, 0.00, 0.00, 0.03, 0.41, 0.94
212, 0.00, 58839.18, 0.00, 0.00, 0.00, 0.00, 0.00, 0.00, 0.03, 0.41, 0.94
213, 0.00, 58842.66, 0.00, 0.00, 0.00, 0.00, 0.00, 0.00, 0.03, 0.41, 0.95
214, 0.00, 58844.79, 0.00, 0.00, 0.00, 0.00, 0.00, 0.00, 0.03, 0.41, 0.95
215, 0.00, 58847.89, 0.00, 0.00, 0.00, 0.00, 0.00, 0.00, 0.03, 0.41, 0.95
216, 0.00, 58848.16, 0.00, 0.00, 0.00, 0.00, 0.00, 0.00, 0.03, 0.41, 0.95
217, 0.00, 58846.08, 0.00, 0.00, 0.00, 0.00, 0.00, 0.00, 0.03, 0.41, 0.95
218, 0.00, 58850.87, 0.00, 0.00, 0.00, 0.00, 0.00, 0.00, 0.02, 0.41, 0.94
219, 0.00, 58848.03, 0.00, 0.00, 0.00, 0.00, 0.00, 0.00, 0.02, 0.41, 0.94
220, 0.00, 58840.61, 0.00, 0.00, 0.00, 0.00, 0.00, 0.00, 0.02, 0.41, 0.94
221, 0.00, 58837.07, 0.00, 0.00, 0.00, 0.00, 0.00, 0.00, 0.02, 0.41, 0.94
222, 0.00, 58833.79, 0.00, 0.00, 0.00, 0.00, 0.00, 0.00, 0.02, 0.41, 0.94
223, 0.00, 58838.62, 0.00, 0.00, 0.00, 0.00, 0.00, 0.00, 0.02, 0.41, 0.95
224, 0.00, 58834.35, 0.00, 0.00, 0.00, 0.00, 0.00, 0.00, 0.02, 0.41, 0.95
225, 0.00, 58835.80, 0.00, 0.00, 0.00, 0.00, 0.00, 0.00, 0.02, 0.41, 0.95
226, 0.00, 58844.05, 0.00, 0.00, 0.00, 0.00, 0.00, 0.00, 0.02, 0.41, 0.95
227, 0.00, 58836.74, 0.00, 0.00, 0.00, 0.00, 0.00, 0.00, 0.02, 0.41, 0.95
228, 0.00, 58832.52, 0.00, 0.00, 0.00, 0.00, 0.00, 0.00, 0.02, 0.41, 0.94
229, 0.00, 58833.43, 0.00, 0.00, 0.00, 0.00, 0.00, 0.00, 0.02, 0.41, 0.94
230, 0.00, 58836.59, 0.00, 0.00, 0.00, 0.00, 0.00, 0.00, 0.02, 0.41, 0.94
231, 0.00, 58831.36, 0.00, 0.00, 0.00, 0.00, 0.00, 0.00, 0.02, 0.41, 0.94
232, 0.00, 58827.18, 0.00, 0.00, 0.00, 0.00, 0.00, 0.00, 0.02, 0.41, 0.94
233, 0.00, 58832.63, 0.00, 0.00, 0.00, 0.00, 0.00, 0.00, 0.02, 0.41, 0.95
234, 0.00, 58835.67, 0.00, 0.00, 0.00, 0.00, 0.00, 0.00, 0.02, 0.41, 0.95
235, 0.00, 58832.32, 0.00, 0.00, 0.00, 0.00, 0.00, 0.00, 0.02, 0.41, 0.95
236, 0.00, 58830.75, 0.00, 0.00, 0.00, 0.00, 0.00, 0.00, 0.02, 0.41, 0.95
237, 0.00, 58825.25, 0.00, 0.00, 0.00, 0.00, 0.00, 0.00, 0.02, 0.41, 0.95
238, 0.00, 58824.00, 0.00, 0.00, 0.00, 0.00, 0.00, 0.00, 0.02, 0.41, 0.95
239, 0.00, 58824.20, 0.00, 0.00, 0.00, 0.00, 0.00, 0.00, 0.02, 0.41, 0.95
240, 0.00, 58824.16, 0.00, 0.00, 0.00, 0.00, 0.00, 0.00, 0.02, 0.41, 0.95
241, 0.00, 58819.02, 0.00, 0.00, 0.00, 0.00, 0.00, 0.00, 0.02, 0.41, 0.95
242, 0.00, 58820.74, 0.00, 0.00, 0.00, 0.00, 0.00, 0.00, 0.02, 0.41, 0.95
243, 0.00, 58820.60, 0.00, 0.00, 0.00, 0.00, 0.00, 0.00, 0.02, 0.41, 0.95
244, 0.00, 58819.69, 0.00, 0.00, 0.00, 0.00, 0.00, 0.00, 0.02, 0.41, 0.95
245, 0.00, 58820.91, 0.00, 0.00, 0.00, 0.00, 0.00, 0.00, 0.02, 0.41, 0.95
246, 0.00, 58825.32, 0.00, 0.00, 0.00, 0.00, 0.00, 0.00, 0.02, 0.41, 0.95
247, 0.00, 58826.35, 0.00, 0.00, 0.00, 0.00, 0.00, 0.00, 0.02, 0.41, 0.95
248, 0.00, 58824.04, 0.00, 0.00, 0.00, 0.00, 0.00, 0.00, 0.02, 0.41, 0.95
249, 0.00, 58830.24, 0.00, 0.00, 0.00, 0.00, 0.00, 0.00, 0.02, 0.41, 0.95
250, 0.00, 58828.52, 0.00, 0.00, 0.00, 0.00, 0.00, 0.00, 0.02, 0.41, 0.95
251, 0.00, 58820.36, 0.00, 0.00, 0.00, 0.00, 0.00, 0.00, 0.02, 0.41, 0.95
252, 0.00, 58826.64, 0.00, 0.00, 0.00, 0.00, 0.00, 0.00, 0.02, 0.41, 0.95
253, 0.00, 58825.57, 0.00, 0.00, 0.00, 0.00, 0.00, 0.00, 0.02, 0.40, 0.94
254, 0.00, 58820.67, 0.00, 0.00, 0.00, 0.00, 0.00, 0.00, 0.02, 0.40, 0.94
255, 0.00, 58817.05, 0.00, 0.00, 0.00, 0.00, 0.00, 0.00, 0.02, 0.40, 0.94
0, 0.00, 58817.41, 0.00, 0.00, 0.00, 0.00, 0.00, 0.00, 0.02, 0.40, 0.94
1, 0.00, 58812.33, 0.00, 0.00, 0.00, 0.00, 0.00, 0.00, 0.02, 0.40, 0.94
2, 0.00, 58812.55, 0.00, 0.00, 0.00, 0.00, 0.00, 0.00, 0.02, 0.40, 0.95
3, 0.00, 58810.07, 0.00, 0.00, 0.00, 0.00, 0.00, 0.00, 0.02, 0.40, 0.95
4, 0.00, 58817.81, 0.00, 0.00, 0.00, 0.00, 0.00, 0.00, 0.02, 0.40, 0.95
5, 0.00, 58815.42, 0.00, 0.00, 0.00, 0.00, 0.00, 0.00, 0.02, 0.40, 0.95
6, 0.00, 58815.64, 0.00, 0.00, 0.00, 0.00, 0.00, 0.00, 0.02, 0.40, 0.95
7, 0.00, 58815.06, 0.00, 0.00, 0.00, 0.00, 0.00, 0.00, 0.02, 0.40, 0.95
8, 0.00, 58820.31, 0.00, 0.00, 0.00, 0.00, 0.00, 0.00, 0.02, 0.40, 0.95
9, 0.00, 58818.43, 0.00, 0.00, 0.00, 0.00, 0.00, 0.00, 0.02, 0.40, 0.95
10, 0.00, 58817.43, 0.00, 0.00, 0.00, 0.00, 0.00, 0.00, 0.02, 0.40, 0.95
11, 0.00, 58820.40, 0.00, 0.00, 0.00, 0.00, 0.00, 0.00, 0.02, 0.40, 0.95
12, 0.00, 58824.56, 0.00, 0.00, 0.00, 0.00, 0.00, 0.00, 0.02, 0.40, 0.95
13, 0.00, 58818.99, 0.00, 0.00, 0.00, 0.00, 0.00, 0.00, 0.02, 0.40, 0.95
14, 0.00, 58811.53, 0.00, 0.00, 0.00, 0.00, 0.00, 0.00, 0.02, 0.40, 0.95
15, 0.00, 58814.77, 0.00, 0.00, 0.00, 0.00, 0.00, 0.00, 0.02, 0.40, 0.95
16, 0.00, 58815.51, 0.00, 0.00, 0.00, 0.00, 0.00, 0.00, 0.02, 0.40, 0.95
17, 0.00, 58814.75, 0.00, 0.00, 0.00, 0.00, 0.00, 0.00, 0.02, 0.41, 0.95
18, 0.00, 58809.38, 0.00, 0.00, 0.00, 0.00, 0.00, 0.00, 0.02, 0.41, 0.95
19, 0.00, 58807.19, 0.00, 0.00, 0.00, 0.00, 0.00, 0.00, 0.02, 0.41, 0.95
20, 0.00, 58811.48, 0.00, 0.00, 0.00, 0.00, 0.00, 0.00, 0.02, 0.41, 0.95
21, 0.00, 58815.66, 0.00, 0.00, 0.00, 0.00, 0.00, 0.00, 0.02, 0.41, 0.95
22, 0.00, 58808.89, 0.00, 0.00, 0.00, 0.00, 0.00, 0.00, 0.02, 0.41, 0.94
23, 0.00, 58807.08, 0.00, 0.00, 0.00, 0.00, 0.00, 0.00, 0.02, 0.41, 0.94
24, 0.00, 58807.39, 0.00, 0.00, 0.00, 0.00, 0.00, 0.00, 0.02, 0.41, 0.94
25, 0.00, 58809.81, 0.00, 0.00, 0.00, 0.00, 0.00, 0.00, 0.02, 0.41, 0.94
26, 0.00, 58808.42, 0.00, 0.00, 0.00, 0.00, 0.00, 0.00, 0.02, 0.41, 0.94
27, 0.00, 58802.14, 0.00, 0.00, 0.00, 0.00, 0.00, 0.00, 0.02, 0.41, 0.94
28, 0.00, 58801.83, 0.00, 0.00, 0.00, 0.00, 0.00, 0.00, 0.02, 0.40, 0.95
29, 0.00, 58810.54, 0.00, 0.00, 0.00, 0.00, 0.00, 0.00, 0.02, 0.40, 0.95
30, 0.00, 58805.05, 0.00, 0.00, 0.00, 0.00, 0.00, 0.00, 0.02, 0.40, 0.95
31, 0.00, 58795.59, 0.00, 0.00, 0.00, 0.00, 0.00, 0.00, 0.02, 0.40, 0.95
32, 0.00, 58796.62, 0.00, 0.00, 0.00, 0.00, 0.00, 0.00, 0.02, 0.40, 0.95
33, 0.00, 58805.89, 0.00, 0.00, 0.00, 0.00, 0.00, 0.00, 0.02, 0.41, 0.95
34, 0.00, 58808.51, 0.00, 0.00, 0.00, 0.00, 0.00, 0.00, 0.02, 0.41, 0.95
35, 0.00, 58807.35, 0.00, 0.00, 0.00, 0.00, 0.00, 0.00, 0.02, 0.41, 0.95
36, 0.00, 58800.80, 0.00, 0.00, 0.00, 0.00, 0.00, 0.00, 0.02, 0.41, 0.95
37, 0.00, 58805.70, 0.00, 0.00, 0.00, 0.00, 0.00, 0.00, 0.02, 0.41, 0.95
38, 0.00, 58800.48, 0.00, 0.00, 0.00, 0.00, 0.00, 0.00, 0.03, 0.40, 0.94
39, 0.00, 58798.52, 0.00, 0.00, 0.00, 0.00, 0.00, 0.00, 0.03, 0.40, 0.94
40, 0.00, 58811.98, 0.00, 0.00, 0.00, 0.00, 0.00, 0.00, 0.03, 0.40, 0.94
41, 0.00, 58812.55, 0.00, 0.00, 0.00, 0.00, 0.00, 0.00, 0.03, 0.40, 0.94
42, 0.00, 58812.33, 0.00, 0.00, 0.00, 0.00, 0.00, 0.00, 0.03, 0.40, 0.94
43, 0.00, 58813.90, 0.00, 0.00, 0.00, 0.00, 0.00, 0.00, 0.03, 0.40, 0.94
44, 0.00, 58813.34, 0.00, 0.00, 0.00, 0.00, 0.00, 0.00, 0.03, 0.40, 0.94
45, 0.00, 58812.98, 0.00, 0.00, 0.00, 0.00, 0.00, 0.00, 0.03, 0.40, 0.94
46, 0.00, 58812.60, 0.00, 0.00, 0.00, 0.00, 0.00, 0.00, 0.03, 0.40, 0.94
47, 0.00, 58823.84, 0.00, 0.00, 0.00, 0.00, 0.00, 0.00, 0.03, 0.40, 0.94
48, 0.00, 58814.05, 0.00, 0.00, 0.00, 0.00, 0.00, 0.00, 0.02, 0.40, 0.95
49, 0.00, 58817.81, 0.00, 0.00, 0.00, 0.00, 0.00, 0.00, 0.02, 0.40, 0.95
50, 0.00, 58821.96, 0.00, 0.00, 0.00, 0.00, 0.00, 0.00, 0.02, 0.40, 0.95
51, 0.00, 58815.33, 0.00, 0.00, 0.00, 0.00, 0.00, 0.00, 0.02, 0.40, 0.95
52, 0.00, 58815.55, 0.00, 0.00, 0.00, 0.00, 0.00, 0.00, 0.02, 0.40, 0.95
53, 0.00, 58814.59, 0.00, 0.00, 0.00, 0.00, 0.00, 0.00, 0.03, 0.41, 0.95
54, 0.00, 58818.19, 0.00, 0.00, 0.00, 0.00, 0.00, 0.00, 0.03, 0.41, 0.95
55, 0.00, 58816.51, 0.00, 0.00, 0.00, 0.00, 0.00, 0.00, 0.03, 0.41, 0.95
56, 0.00, 58814.81, 0.00, 0.00, 0.00, 0.00, 0.00, 0.00, 0.03, 0.41, 0.95
57, 0.00, 58817.61, 0.00, 0.00, 0.00, 0.00, 0.00, 0.00, 0.03, 0.41, 0.95
58, 0.00, 58815.06, 0.00, 0.00, 0.00, 0.00, 0.00, 0.00, 0.02, 0.40, 0.95
59, 0.00, 58812.98, 0.00, 0.00, 0.00, 0.00, 0.00, 0.00, 0.02, 0.40, 0.95
60, 0.00, 58802.74, 0.00, 0.00, 0.00, 0.00, 0.00, 0.00, 0.02, 0.40, 0.95
61, 0.00, 58803.55, 0.00, 0.00, 0.00, 0.00, 0.00, 0.00, 0.02, 0.40, 0.95
62, 0.00, 58804.75, 0.00, 0.00, 0.00, 0.00, 0.00, 0.00, 0.02, 0.40, 0.95
63, 0.00, 58804.62, 0.00, 0.00, 0.00, 0.00, 0.00, 0.00, 0.03, 0.41, 0.95
64, 0.00, 58806.68, 0.00, 0.00, 0.00, 0.00, 0.00, 0.00, 0.03, 0.41, 0.95
65, 0.00, 58807.48, 0.00, 0.00, 0.00, 0.00, 0.00, 0.00, 0.03, 0.41, 0.95
66, 0.00, 58803.48, 0.00, 0.00, 0.00, 0.00, 0.00, 0.00, 0.03, 0.41, 0.95
67, 0.00, 58808.64, 0.00, 0.00, 0.00, 0.00, 0.00, 0.00, 0.03, 0.41, 0.95
68, 0.00, 58808.53, 0.00, 0.00, 0.00, 0.00, 0.00, 0.00, 0.02, 0.40, 0.95
69, 0.00, 58800.46, 0.00, 0.00, 0.00, 0.00, 0.00, 0.00, 0.02, 0.40, 0.95
70, 0.00, 58804.42, 0.00, 0.00, 0.00, 0.00, 0.00, 0.00, 0.02, 0.40, 0.95
71, 0.00, 58806.21, 0.00, 0.00, 0.00, 0.00, 0.00, 0.00, 0.02, 0.40, 0.95
72, 0.00, 58807.19, 0.00, 0.00, 0.00, 0.00, 0.00, 0.00, 0.02, 0.40, 0.95
73, 0.00, 58808.55, 0.00, 0.00, 0.00, 0.00, 0.00, 0.00, 0.03, 0.41, 0.95
74, 0.00, 58811.42, 0.00, 0.00, 0.00, 0.00, 0.00, 0.00, 0.03, 0.41, 0.95
75, 0.00, 58820.63, 0.00, 0.00, 0.00, 0.00, 0.00, 0.00, 0.03, 0.41, 0.95
76, 0.00, 58815.51, 0.00, 0.00, 0.00, 0.00, 0.00, 0.00, 0.03, 0.41, 0.95
77, 0.00, 58809.58, 0.00, 0.00, 0.00, 0.00, 0.00, 0.00, 0.03, 0.41, 0.95
78, 0.00, 58811.93, 0.00, 0.00, 0.00, 0.00, 0.00, 0.00, 0.03, 0.41, 0.95
79, 0.00, 58811.71, 0.00, 0.00, 0.00, 0.00, 0.00, 0.00, 0.03, 0.41, 0.95
80, 0.00, 58809.25, 0.00, 0.00, 0.00, 0.00, 0.00, 0.00, 0.03, 0.41, 0.95
81, 0.00, 58812.31, 0.00, 0.00, 0.00, 0.00, 0.00, 0.00, 0.03, 0.41, 0.95
82, 0.00, 58809.92, 0.00, 0.00, 0.00, 0.00, 0.00, 0.00, 0.03, 0.41, 0.95
83, 0.00, 58814.72, 0.00, 0.00, 0.00, 0.00, 0.00, 0.00, 0.03, 0.41, 0.95
84, 0.00, 58807.95, 0.00, 0.00, 0.00, 0.00, 0.00, 0.00, 0.03, 0.41, 0.95
85, 0.00, 58805.00, 0.00, 0.00, 0.00, 0.00, 0.00, 0.00, 0.03, 0.41, 0.95
86, 0.00, 58802.25, 0.00, 0.00, 0.00, 0.00, 0.00, 0.00, 0.03, 0.41, 0.95
87, 0.00, 58801.18, 0.00, 0.00, 0.00, 0.00, 0.00, 0.00, 0.03, 0.41, 0.95
88, 0.00, 58797.60, 0.00, 0.00, 0.00, 0.00, 0.00, 0.00, 0.02, 0.41, 0.94
89, 0.00, 58800.64, 0.00, 0.00, 0.00, 0.00, 0.00, 0.00, 0.02, 0.41, 0.94
90, 0.00, 58801.31, 0.00, 0.00, 0.00, 0.00, 0.00, 0.00, 0.02, 0.41, 0.94
91, 0.00, 58805.38, 0.00, 0.00, 0.00, 0.00, 0.00, 0.00, 0.02, 0.41, 0.94
92, 0.00, 58810.41, 0.00, 0.00, 0.00, 0.00, 0.00, 0.00, 0.02, 0.41, 0.94
93, 0.00, 58804.91, 0.00, 0.00, 0.00, 0.00, 0.00, 0.00, 0.02, 0.41, 0.95
94, 0.00, 58795.28, 0.00, 0.00, 0.00, 0.00, 0.00, 0.00, 0.02, 0.41, 0.95
95, 0.00, 58804.46, 0.00, 0.00, 0.00, 0.00, 0.00, 0.00, 0.02, 0.41, 0.95
96, 0.00, 58805.96, 0.00, 0.00, 0.00, 0.00, 0.00, 0.00, 0.02, 0.41, 0.95
97, 0.00, 58797.40, 0.00, 0.00, 0.00, 0.00, 0.00, 0.00, 0.02, 0.41, 0.95
98, 0.00, 58797.80, 0.00, 0.00, 0.00, 0.00, 0.00, 0.00, 0.02, 0.41, 0.94
99, 0.00, 58801.02, 0.00, 0.00, 0.00, 0.00, 0.00, 0.00, 0.02, 0.41, 0.94
100, 0.00, 58802.14, 0.00, 0.00, 0.00, 0.00, 0.00, 0.00, 0.02, 0.41, 0.94
101, 0.00, 58797.34, 0.00, 0.00, 0.00, 0.00, 0.00, 0.00, 0.02, 0.41, 0.94
102, 0.00, 58790.43, 0.00, 0.00, 0.00, 0.00, 0.00, 0.00, 0.02, 0.41, 0.94
103, 0.00, 58792.42, 0.00, 0.00, 0.00, 0.00, 0.00, 0.00, 0.02, 0.41, 0.94
104, 0.00, 58802.16, 0.00, 0.00, 0.00, 0.00, 0.00, 0.00, 0.02, 0.41, 0.94
105, 0.00, 58798.59, 0.00, 0.00, 0.00, 0.00, 0.00, 0.00, 0.02, 0.41, 0.94
106, 0.00, 58795.99, 0.00, 0.00, 0.00, 0.00, 0.00, 0.00, 0.02, 0.41, 0.94
107, 0.00, 58794.07, 0.00, 0.00, 0.00, 0.00, 0.00, 0.00, 0.02, 0.41, 0.94
108, 0.00, 58797.69, 0.00, 0.00, 0.00, 0.00, 0.00, 0.00, 0.03, 0.41, 0.95
109, 0.00, 58795.37, 0.00, 0.00, 0.00, 0.00, 0.00, 0.00, 0.03, 0.41, 0.95
110, 0.00, 58790.47, 0.00, 0.00, 0.00, 0.00, 0.00, 0.00, 0.03, 0.41, 0.95
111, 0.00, 58788.84, 0.00, 0.00, 0.00, 0.00, 0.00, 0.00, 0.03, 0.41, 0.95
112, 0.00, 58793.67, 0.00, 0.00, 0.00, 0.00, 0.00, 0.00, 0.03, 0.41, 0.95
113, 0.00, 58800.53, 0.00, 0.00, 0.00, 0.00, 0.00, 0.00, 0.02, 0.40, 0.94
114, 0.00, 58800.31, 0.00, 0.00, 0.00, 0.00, 0.00, 0.00, 0.02, 0.40, 0.94
115, 0.00, 58800.82, 0.00, 0.00, 0.00, 0.00, 0.00, 0.00, 0.02, 0.40, 0.94
116, 0.00, 58803.66, 0.00, 0.00, 0.00, 0.00, 0.00, 0.00, 0.02, 0.40, 0.94
117, 0.00, 58806.07, 0.00, 0.00, 0.00, 0.00, 0.00, 0.00, 0.02, 0.40, 0.94
118, 0.00, 58804.66, 0.00, 0.00, 0.00, 0.00, 0.00, 0.00, 0.02, 0.41, 0.94
119, 0.00, 58798.00, 0.00, 0.00, 0.00, 0.00, 0.00, 0.00, 0.02, 0.41, 0.94
120, 0.00, 58805.65, 0.00, 0.00, 0.00, 0.00, 0.00, 0.00, 0.02, 0.41, 0.94
121, 0.00, 58803.46, 0.00, 0.00, 0.00, 0.00, 0.00, 0.00, 0.02, 0.41, 0.94
122, 0.00, 58798.79, 0.00, 0.00, 0.00, 0.00, 0.00, 0.00, 0.02, 0.41, 0.94
123, 0.00, 58799.28, 0.00, 0.00, 0.00, 0.00, 0.00, 0.00, 0.02, 0.40, 0.94
124, 0.00, 58799.01, 0.00, 0.00, 0.00, 0.00, 0.00, 0.00, 0.02, 0.40, 0.94
125, 0.00, 58801.80, 0.00, 0.00, 0.00, 0.00, 0.00, 0.00, 0.02, 0.40, 0.94
126, 0.00, 58796.93, 0.00, 0.00, 0.00, 0.00, 0.00, 0.00, 0.02, 0.40, 0.94
127, 0.00, 58791.07, 0.00, 0.00, 0.00, 0.00, 0.00, 0.00, 0.02, 0.40, 0.94
128, 0.00, 58795.43, 0.00, 0.00, 0.00, 0.00, 0.00, 0.00, 0.02, 0.40, 0.95
129, 0.00, 58799.01, 0.00, 0.00, 0.00, 0.00, 0.00, 0.00, 0.02, 0.40, 0.95
130, 0.00, 58795.52, 0.00, 0.00, 0.00, 0.00, 0.00, 0.00, 0.02, 0.40, 0.95
131, 0.00, 58791.32, 0.00, 0.00, 0.00, 0.00, 0.00, 0.00, 0.02, 0.40, 0.95
132, 0.00, 58790.32, 0.00, 0.00, 0.00, 0.00, 0.00, 0.00, 0.02, 0.40, 0.95
133, 0.00, 58794.92, 0.00, 0.00, 0.00, 0.00, 0.00, 0.00, 0.02, 0.40, 0.94
134, 0.00, 58793.71, 0.00, 0.00, 0.00, 0.00, 0.00, 0.00, 0.02, 0.40, 0.94
135, 0.00, 58799.88, 0.00, 0.00, 0.00, 0.00, 0.00, 0.00, 0.02, 0.40, 0.94
136, 0.00, 58800.08, 0.00, 0.00, 0.00, 0.00, 0.00, 0.00, 0.02, 0.40, 0.94
137, 0.00, 58797.25, 0.00, 0.00, 0.00, 0.00, 0.00, 0.00, 0.02, 0.40, 0.94
138, 0.00, 58797.85, 0.00, 0.00, 0.00, 0.00, 0.00, 0.00, 0.03, 0.40, 0.94
139, 0.00, 58801.87, 0.00, 0.00, 0.00, 0.00, 0.00, 0.00, 0.03, 0.40, 0.94
140, 0.00, 58798.45, 0.00, 0.00, 0.00, 0.00, 0.00, 0.00, 0.03, 0.40, 0.94
141, 0.00, 58803.64, 0.00, 0.00, 0.00, 0.00, 0.00, 0.00, 0.03, 0.40, 0.94
142, 0.00, 58811.55, 0.00, 0.00, 0.00, 0.00, 0.00, 0.00, 0.03, 0.40, 0.94
143, 0.00, 58813.65, 0.00, 0.00, 0.00, 0.00, 0.00, 0.00, 0.02, 0.40, 0.94
144, 0.00, 58809.29, 0.00, 0.00, 0.00, 0.00, 0.00, 0.00, 0.02, 0.40, 0.94
145, 0.00, 58814.48, 0.00, 0.00, 0.00, 0.00, 0.00, 0.00, 0.02, 0.40, 0.94
146, 0.00, 58816.13, 0.00, 0.00, 0.00, 0.00, 0.00, 0.00, 0.02, 0.40, 0.94
147, 0.00, 58813.32, 0.00, 0.00, 0.00, 0.00, 0.00, 0.00, 0.02, 0.40, 0.94
148, 0.00, 58810.68, 0.00, 0.00, 0.00, 0.00, 0.00, 0.00, 0.02, 0.40, 0.95
149, 0.00, 58808.11, 0.00, 0.00, 0.00, 0.00, 0.00, 0.00, 0.02, 0.40, 0.95
150, 0.00, 58805.74, 0.00, 0.00, 0.00, 0.00, 0.00, 0.00, 0.02, 0.40, 0.95
151, 0.00, 58800.57, 0.00, 0.00, 0.00, 0.00, 0.00, 0.00, 0.02, 0.40, 0.95
152, 0.00, 58803.50, 0.00, 0.00, 0.00, 0.00, 0.00, 0.00, 0.02, 0.40, 0.95
153, 0.00, 58804.78, 0.00, 0.00, 0.00, 0.00, 0.00, 0.00, 0.02, 0.40, 0.95
154, 0.00, 58806.14, 0.00, 0.00, 0.00, 0.00, 0.00, 0.00, 0.02, 0.40, 0.95
155, 0.00, 58806.61, 0.00, 0.00, 0.00, 0.00, 0.00, 0.00, 0.02, 0.40, 0.95
156, 0.00, 58806.52, 0.00, 0.00, 0.00, 0.00, 0.00, 0.00, 0.02, 0.40, 0.95
157, 0.00, 58805.96, 0.00, 0.00, 0.00, 0.00, 0.00, 0.00, 0.02, 0.40, 0.95
158, 0.00, 58807.37, 0.00, 0.00, 0.00, 0.00, 0.00, 0.00, 0.02, 0.40, 0.95
159, 0.00, 58803.55, 0.00, 0.00, 0.00, 0.00, 0.00, 0.00, 0.02, 0.40, 0.95
160, 0.00, 58801.94, 0.00, 0.00, 0.00, 0.00, 0.00, 0.00, 0.02, 0.40, 0.95
161, 0.00, 58800.51, 0.00, 0.00, 0.00, 0.00, 0.00, 0.00, 0.02, 0.40, 0.95
162, 0.00, 58805.27, 0.00, 0.00, 0.00, 0.00, 0.00, 0.00, 0.02, 0.40, 0.95
163, 0.00, 58800.46, 0.00, 0.00, 0.00, 0.00, 0.00, 0.00, 0.03, 0.41, 0.95
164, 0.00, 58803.77, 0.00, 0.00, 0.00, 0.00, 0.00, 0.00, 0.03, 0.41, 0.95
165, 0.00, 58803.57, 0.00, 0.00, 0.00, 0.00, 0.00, 0.00, 0.03, 0.41, 0.95
166, 0.00, 58803.05, 0.00, 0.00, 0.00, 0.00, 0.00, 0.00, 0.03, 0.41, 0.95
167, 0.00, 58802.77, 0.00, 0.00, 0.00, 0.00, 0.00, 0.00, 0.03, 0.41, 0.95
168, 0.00, 58805.45, 0.00, 0.00, 0.00, 0.00, 0.00, 0.00, 0.03, 0.40, 0.94
169, 0.00, 58800.31, 0.00, 0.00, 0.00, 0.00, 0.00, 0.00, 0.03, 0.40, 0.94
170, 0.00, 58803.08, 0.00, 0.00, 0.00, 0.00, 0.00, 0.00, 0.03, 0.40, 0.94
171, 0.00, 58802.52, 0.00, 0.00, 0.00, 0.00, 0.00, 0.00, 0.03, 0.40, 0.94
172, 0.00, 58803.95, 0.00, 0.00, 0.00, 0.00, 0.00, 0.00, 0.03, 0.40, 0.94
173, 0.00, 58804.71, 0.00, 0.00, 0.00, 0.00, 0.00, 0.00, 0.02, 0.40, 0.95
174, 0.00, 58805.40, 0.00, 0.00, 0.00, 0.00, 0.00, 0.00, 0.02, 0.40, 0.95
175, 0.00, 58805.85, 0.00, 0.00, 0.00, 0.00, 0.00, 0.00, 0.02, 0.40, 0.95
176, 0.00, 58810.25, 0.00, 0.00, 0.00, 0.00, 0.00, 0.00, 0.02, 0.40, 0.95
177, 0.00, 58807.13, 0.00, 0.00, 0.00, 0.00, 0.00, 0.00, 0.02, 0.40, 0.95
178, 0.00, 58805.40, 0.00, 0.00, 0.00, 0.00, 0.00, 0.00, 0.02, 0.40, 0.94
179, 0.00, 58807.39, 0.00, 0.00, 0.00, 0.00, 0.00, 0.00, 0.02, 0.40, 0.94
180, 0.00, 58803.28, 0.00, 0.00, 0.00, 0.00, 0.00, 0.00, 0.02, 0.40, 0.94
181, 0.00, 58802.34, 0.00, 0.00, 0.00, 0.00, 0.00, 0.00, 0.02, 0.40, 0.94
182, 0.00, 58801.27, 0.00, 0.00, 0.00, 0.00, 0.00, 0.00, 0.02, 0.40, 0.94
183, 0.00, 58803.35, 0.00, 0.00, 0.00, 0.00, 0.00, 0.00, 0.02, 0.40, 0.94
184, 0.00, 58807.01, 0.00, 0.00, 0.00, 0.00, 0.00, 0.00, 0.02, 0.40, 0.94
185, 0.00, 58803.66, 0.00, 0.00, 0.00, 0.00, 0.00, 0.00, 0.02, 0.40, 0.94
186, 0.00, 58803.44, 0.00, 0.00, 0.00, 0.00, 0.00, 0.00, 0.02, 0.40, 0.94
187, 0.00, 58806.70, 0.00, 0.00, 0.00, 0.00, 0.00, 0.00, 0.02, 0.40, 0.94
188, 0.00, 58802.88, 0.00, 0.00, 0.00, 0.00, 0.00, 0.00, 0.02, 0.41, 0.95
189, 0.00, 58799.82, 0.00, 0.00, 0.00, 0.00, 0.00, 0.00, 0.02, 0.41, 0.95
190, 0.00, 58795.77, 0.00, 0.00, 0.00, 0.00, 0.00, 0.00, 0.02, 0.41, 0.95
191, 0.00, 58797.85, 0.00, 0.00, 0.00, 0.00, 0.00, 0.00, 0.02, 0.41, 0.95
192, 0.00, 58804.13, 0.00, 0.00, 0.00, 0.00, 0.00, 0.00, 0.02, 0.41, 0.95
193, 0.00, 58796.73, 0.00, 0.00, 0.00, 0.00, 0.00, 0.00, 0.03, 0.41, 0.95
194, 0.00, 58799.68, 0.00, 0.00, 0.00, 0.00, 0.00, 0.00, 0.03, 0.41, 0.95
195, 0.00, 58808.06, 0.00, 0.00, 0.00, 0.00, 0.00, 0.00, 0.03, 0.41, 0.95
196, 0.00, 58801.09, 0.00, 0.00, 0.00, 0.00, 0.00, 0.00, 0.03, 0.41, 0.95
197, 0.00, 58793.89, 0.00, 0.00, 0.00, 0.00, 0.00, 0.00, 0.03, 0.41, 0.95
198, 0.00, 58799.55, 0.00, 0.00, 0.00, 0.00, 0.00, 0.00, 0.02, 0.40, 0.95
199, 0.00, 58797.40, 0.00, 0.00, 0.00, 0.00, 0.00, 0.00, 0.02, 0.40, 0.95
200, 0.00, 58797.02, 0.00, 0.00, 0.00, 0.00, 0.00, 0.00, 0.02, 0.40, 0.95
201, 0.00, 58802.65, 0.00, 0.00, 0.00, 0.00, 0.00, 0.00, 0.02, 0.40, 0.95
202, 0.00, 58799.91, 0.00, 0.00, 0.00, 0.00, 0.00, 0.00, 0.02, 0.40, 0.95
203, 0.00, 58794.88, 0.00, 0.00, 0.00, 0.00, 0.00, 0.00, 0.02, 0.41, 0.94
204, 0.00, 58801.09, 0.00, 0.00, 0.00, 0.00, 0.00, 0.00, 0.02, 0.41, 0.94
205, 0.00, 58795.03, 0.00, 0.00, 0.00, 0.00, 0.00, 0.00, 0.02, 0.41, 0.94
206, 0.00, 58792.73, 0.00, 0.00, 0.00, 0.00, 0.00, 0.00, 0.02, 0.41, 0.94
207, 0.00, 58790.00, 0.00, 0.00, 0.00, 0.00, 0.00, 0.00, 0.02, 0.41, 0.94
208, 0.00, 58795.75, 0.00, 0.00, 0.00, 0.00, 0.00, 0.00, 0.03, 0.41, 0.95
209, 0.00, 58791.37, 0.00, 0.00, 0.00, 0.00, 0.00, 0.00, 0.03, 0.41, 0.95
210, 0.00, 58794.54, 0.00, 0.00, 0.00, 0.00, 0.00, 0.00, 0.03, 0.41, 0.95
211, 0.00, 58796.11, 0.00, 0.00, 0.00, 0.00, 0.00, 0.00, 0.03, 0.41, 0.95
212, 0.00, 58793.87, 0.00, 0.00, 0.00, 0.00, 0.00, 0.00, 0.03, 0.41, 0.95
213, 0.00, 58795.03, 0.00, 0.00, 0.00, 0.00, 0.00, 0.00, 0.03, 0.41, 0.95
214, 0.00, 58795.99, 0.00, 0.00, 0.00, 0.00, 0.00, 0.00, 0.03, 0.41, 0.95
215, 0.00, 58801.52, 0.00, 0.00, 0.00, 0.00, 0.00, 0.00, 0.03, 0.41, 0.95
216, 0.00, 58804.89, 0.00, 0.00, 0.00, 0.00, 0.00, 0.00, 0.03, 0.41, 0.95
217, 0.00, 58806.61, 0.00, 0.00, 0.00, 0.00, 0.00, 0.00, 0.03, 0.41, 0.95
218, 0.00, 58800.82, 0.00, 0.00, 0.00, 0.00, 0.00, 0.00, 0.02, 0.41, 0.95
219, 0.00, 58799.26, 0.00, 0.00, 0.00, 0.00, 0.00, 0.00, 0.02, 0.41, 0.95
220, 0.00, 58803.79, 0.00, 0.00, 0.00, 0.00, 0.00, 0.00, 0.02, 0.41, 0.95
221, 0.00, 58806.68, 0.00, 0.00, 0.00, 0.00, 0.00, 0.00, 0.02, 0.41, 0.95
222, 0.00, 58800.46, 0.00, 0.00, 0.00, 0.00, 0.00, 0.00, 0.02, 0.41, 0.95
223, 0.00, 58799.46, 0.00, 0.00, 0.00, 0.00, 0.00, 0.00, 0.02, 0.41, 0.94
224, 0.00, 58801.71, 0.00, 0.00, 0.00, 0.00, 0.00, 0.00, 0.02, 0.41, 0.94
225, 0.00, 58804.35, 0.00, 0.00, 0.00, 0.00, 0.00, 0.00, 0.02, 0.41, 0.94
226, 0.00, 58797.45, 0.00, 0.00, 0.00, 0.00, 0.00, 0.00, 0.02, 0.41, 0.94
227, 0.00, 58799.44, 0.00, 0.00, 0.00, 0.00, 0.00, 0.00, 0.02, 0.41, 0.94
228, 0.00, 58806.43, 0.00, 0.00, 0.00, 0.00, 0.00, 0.00, 0.02, 0.41, 0.95
229, 0.00, 58808.06, 0.00, 0.00, 0.00, 0.00, 0.00, 0.00, 0.02, 0.41, 0.95
230, 0.00, 58809.25, 0.00, 0.00, 0.00, 0.00, 0.00, 0.00, 0.02, 0.41, 0.95
231, 0.00, 58801.80, 0.00, 0.00, 0.00, 0.00, 0.00, 0.00, 0.02, 0.41, 0.95
232, 0.00, 58797.00, 0.00, 0.00, 0.00, 0.00, 0.00, 0.00, 0.02, 0.41, 0.95
233, 0.00, 58812.20, 0.00, 0.00, 0.00, 0.00, 0.00, 0.00, 0.03, 0.41, 0.95
234, 0.00, 58812.78, 0.00, 0.00, 0.00, 0.00, 0.00, 0.00, 0.03, 0.41, 0.95
235, 0.00, 58811.66, 0.00, 0.00, 0.00, 0.00, 0.00, 0.00, 0.03, 0.41, 0.95
236, 0.00, 58806.68, 0.00, 0.00, 0.00, 0.00, 0.00, 0.00, 0.03, 0.41, 0.95
237, 0.00, 58811.95, 0.00, 0.00, 0.00, 0.00, 0.00, 0.00, 0.03, 0.41, 0.95
238, 0.00, 58811.26, 0.00, 0.00, 0.00, 0.00, 0.00, 0.00, 0.02, 0.40, 0.95
239, 0.00, 58810.63, 0.00, 0.00, 0.00, 0.00, 0.00, 0.00, 0.02, 0.40, 0.95
240, 0.00, 58810.23, 0.00, 0.00, 0.00, 0.00, 0.00, 0.00, 0.02, 0.40, 0.95
241, 0.00, 58816.29, 0.00, 0.00, 0.00, 0.00, 0.00, 0.00, 0.02, 0.40, 0.95
242, 0.00, 58815.06, 0.00, 0.00, 0.00, 0.00, 0.00, 0.00, 0.02, 0.40, 0.95
243, 0.00, 58806.23, 0.00, 0.00, 0.00, 0.00, 0.00, 0.00, 0.02, 0.41, 0.95
244, 0.00, 58808.00, 0.00, 0.00, 0.00, 0.00, 0.00, 0.00, 0.02, 0.41, 0.95
245, 0.00, 58807.97, 0.00, 0.00, 0.00, 0.00, 0.00, 0.00, 0.02, 0.41, 0.95
246, 0.00, 58805.14, 0.00, 0.00, 0.00, 0.00, 0.00, 0.00, 0.02, 0.41, 0.95
247, 0.00, 58800.29, 0.00, 0.00, 0.00, 0.00, 0.00, 0.00, 0.02, 0.41, 0.95
248, 0.00, 58805.18, 0.00, 0.00, 0.00, 0.00, 0.00, 0.00, 0.02, 0.40, 0.95
249, 0.00, 58805.43, 0.00, 0.00, 0.00, 0.00, 0.00, 0.00, 0.02, 0.40, 0.95
250, 0.00, 58802.95, 0.00, 0.00, 0.00, 0.00, 0.00, 0.00, 0.02, 0.40, 0.95
251, 0.00, 58792.98, 0.00, 0.00, 0.00, 0.00, 0.00, 0.00, 0.02, 0.40, 0.95
252, 0.00, 58791.70, 0.00, 0.00, 0.00, 0.00, 0.00, 0.00, 0.02, 0.40, 0.95
253, 0.00, 58792.02, 0.00, 0.00, 0.00, 0.00, 0.00, 0.00, 0.02, 0.40, 0.95
254, 0.00, 58796.15, 0.00, 0.00, 0.00, 0.00, 0.00, 0.00, 0.02, 0.41, 0.95
255, 0.00, 58802.03, 0.00, 0.00, 0.00, 0.00, 0.00, 0.00, 0.02, 0.41, 0.95
0, 0.00, 58800.02, 0.00, 0.00, 0.00, 0.00, 0.00, 0.00, 0.02, 0.41, 0.95
1, 0.00, 58795.90, 0.00, 0.00, 0.00, 0.00, 0.00, 0.00, 0.02, 0.41, 0.95
2, 0.00, 58799.37, 0.00, 0.00, 0.00, 0.00, 0.00, 0.00, 0.02, 0.41, 0.95
3, 0.00, 58799.95, 0.00, 0.00, 0.00, 0.00, 0.00, 0.00, 0.03, 0.40, 0.95
4, 0.00, 58800.53, 0.00, 0.00, 0.00, 0.00, 0.00, 0.00, 0.03, 0.40, 0.95
5, 0.00, 58795.21, 0.00, 0.00, 0.00, 0.00, 0.00, 0.00, 0.03, 0.40, 0.95
6, 0.00, 58800.69, 0.00, 0.00, 0.00, 0.00, 0.00, 0.00, 0.03, 0.40, 0.95
7, 0.00, 58803.48, 0.00, 0.00, 0.00, 0.00, 0.00, 0.00, 0.03, 0.40, 0.95
8, 0.00, 58801.76, 0.00, 0.00, 0.00, 0.00, 0.00, 0.00, 0.03, 0.41, 0.95
9, 0.00, 58801.49, 0.00, 0.00, 0.00, 0.00, 0.00, 0.00, 0.03, 0.41, 0.95
10, 0.00, 58803.39, 0.00, 0.00, 0.00, 0.00, 0.00, 0.00, 0.03, 0.41, 0.95
11, 0.00, 58805.56, 0.00, 0.00, 0.00, 0.00, 0.00, 0.00, 0.03, 0.41, 0.95
12, 0.00, 58802.25, 0.00, 0.00, 0.00, 0.00, 0.00, 0.00, 0.03, 0.41, 0.95
13, 0.00, 58796.11, 0.00, 0.00, 0.00, 0.00, 0.00, 0.00, 0.02, 0.41, 0.94
14, 0.00, 58797.18, 0.00, 0.00, 0.00, 0.00, 0.00, 0.00, 0.02, 0.41, 0.94
15, 0.00, 58804.11, 0.00, 0.00, 0.00, 0.00, 0.00, 0.00, 0.02, 0.41, 0.94
16, 0.00, 58802.99, 0.00, 0.00, 0.00, 0.00, 0.00, 0.00, 0.02, 0.41, 0.94
17, 0.00, 58801.25, 0.00, 0.00, 0.00, 0.00, 0.00, 0.00, 0.02, 0.41, 0.94
18, 0.00, 58802.21, 0.00, 0.00, 0.00, 0.00, 0.00, 0.00, 0.02, 0.41, 0.95
19, 0.00, 58805.18, 0.00, 0.00, 0.00, 0.00, 0.00, 0.00, 0.02, 0.41, 0.95
20, 0.00, 58800.84, 0.00, 0.00, 0.00, 0.00, 0.00, 0.00, 0.02, 0.41, 0.95
21, 0.00, 58804.53, 0.00, 0.00, 0.00, 0.00, 0.00, 0.00, 0.02, 0.41, 0.95
22, 0.00, 58807.41, 0.00, 0.00, 0.00, 0.00, 0.00, 0.00, 0.02, 0.41, 0.95
23, 0.00, 58808.96, 0.00, 0.00, 0.00, 0.00, 0.00, 0.00, 0.03, 0.41, 0.96
24, 0.00, 58810.81, 0.00, 0.00, 0.00, 0.00, 0.00, 0.00, 0.03, 0.41, 0.96
25, 0.00, 58803.82, 0.00, 0.00, 0.00, 0.00, 0.00, 0.00, 0.03, 0.41, 0.96
26, 0.00, 58803.75, 0.00, 0.00, 0.00, 0.00, 0.00, 0.00, 0.03, 0.41, 0.96
27, 0.00, 58804.87, 0.00, 0.00, 0.00, 0.00, 0.00, 0.00, 0.03, 0.41, 0.96
28, 0.00, 58803.84, 0.00, 0.00, 0.00, 0.00, 0.00, 0.00, 0.03, 0.40, 0.95
29, 0.00, 58801.16, 0.00, 0.00, 0.00, 0.00, 0.00, 0.00, 0.03, 0.40, 0.95
30, 0.00, 58807.88, 0.00, 0.00, 0.00, 0.00, 0.00, 0.00, 0.03, 0.40, 0.95
31, 0.00, 58811.91, 0.00, 0.00, 0.00, 0.00, 0.00, 0.00, 0.03, 0.40, 0.95
32, 0.00, 58804.82, 0.00, 0.00, 0.00, 0.00, 0.00, 0.00, 0.03, 0.40, 0.95
33, 0.00, 58793.36, 0.00, 0.00, 0.00, 0.00, 0.00, 0.00, 0.03, 0.40, 0.95
34, 0.00, 58801.11, 0.00, 0.00, 0.00, 0.00, 0.00, 0.00, 0.03, 0.40, 0.95
35, 0.00, 58803.91, 0.00, 0.00, 0.00, 0.00, 0.00, 0.00, 0.03, 0.40, 0.95
36, 0.00, 58802.32, 0.00, 0.00, 0.00, 0.00, 0.00, 0.00, 0.03, 0.40, 0.95
37, 0.00, 58805.16, 0.00, 0.00, 0.00, 0.00, 0.00, 0.00, 0.03, 0.40, 0.95
38, 0.00, 58804.82, 0.00, 0.00, 0.00, 0.00, 0.00, 0.00, 0.02, 0.41, 0.95
39, 0.00, 58809.67, 0.00, 0.00, 0.00, 0.00, 0.00, 0.00, 0.02, 0.41, 0.95
40, 0.00, 58810.23, 0.00, 0.00, 0.00, 0.00, 0.00, 0.00, 0.02, 0.41, 0.95
41, 0.00, 58818.93, 0.00, 0.00, 0.00, 0.00, 0.00, 0.00, 0.02, 0.41, 0.95
42, 0.00, 58832.18, 0.00, 0.00, 0.00, 0.00, 0.00, 0.00, 0.02, 0.41, 0.95
43, 0.00, 58830.04, 0.00, 0.00, 0.00, 0.00, 0.00, 0.00, 0.03, 0.41, 0.95
44, 0.00, 58810.66, 0.00, 0.00, 0.00, 0.00, 0.00, 0.00, 0.03, 0.41, 0.95
45, 0.00, 58797.29, 0.00, 0.00, 0.00, 0.00, 0.00, 0.00, 0.03, 0.41, 0.95
46, 0.00, 58785.36, 0.00, 0.00, 0.00, 0.00, 0.00, 0.00, 0.03, 0.41, 0.95
47, 0.00, 58791.75, 0.00, 0.00, 0.00, 0.00, 0.00, 0.00, 0.03, 0.41, 0.95
48, 0.00, 58770.78, 0.00, 0.00, 0.00, 0.00, 0.00, 0.00, 0.03, 0.41, 0.94
49, 0.00, 58763.36, 0.00, 0.00, 0.00, 0.00, 0.00, 0.00, 0.03, 0.41, 0.94
50, 0.00, 58751.31, 0.00, 0.00, 0.00, 0.00, 0.00, 0.00, 0.03, 0.41, 0.94
51, 0.00, 58751.34, 0.00, 0.00, 0.00, 0.00, 0.00, 0.00, 0.03, 0.41, 0.94
52, 0.00, 58740.58, 0.00, 0.00, 0.00, 0.00, 0.00, 0.00, 0.03, 0.41, 0.94
53, 0.00, 58733.21, 0.00, 0.00, 0.00, 0.00, 0.00, 0.00, 0.03, 0.41, 0.94
54, 0.00, 58731.91, 0.00, 0.00, 0.00, 0.00, 0.00, 0.00, 0.03, 0.41, 0.94
55, 0.00, 58726.95, 0.00, 0.00, 0.00, 0.00, 0.00, 0.00, 0.03, 0.41, 0.94
56, 0.00, 58732.49, 0.00, 0.00, 0.00, 0.00, 0.00, 0.00, 0.03, 0.41, 0.94
57, 0.00, 58734.64, 0.00, 0.00, 0.00, 0.00, 0.00, 0.00, 0.03, 0.41, 0.94
58, 0.00, 58733.92, 0.00, 0.00, 0.00, 0.00, 0.00, 0.00, 0.02, 0.41, 0.95
59, 0.00, 58730.79, 0.00, 0.00, 0.00, 0.00, 0.00, 0.00, 0.02, 0.41, 0.95
60, 0.00, 58728.89, 0.00, 0.00, 0.00, 0.00, 0.00, 0.00, 0.02, 0.41, 0.95
61, 0.00, 58735.53, 0.00, 0.00, 0.00, 0.00, 0.00, 0.00, 0.02, 0.41, 0.95
62, 0.00, 58744.83, 0.00, 0.00, 0.00, 0.00, 0.00, 0.00, 0.02, 0.41, 0.95
63, 0.00, 58746.11, 0.00, 0.00, 0.00, 0.00, 0.00, 0.00, 0.02, 0.41, 0.95
64, 0.00, 58751.43, 0.00, 0.00, 0.00, 0.00, 0.00, 0.00, 0.02, 0.41, 0.95
65, 0.00, 58759.27, 0.00, 0.00, 0.00, 0.00, 0.00, 0.00, 0.02, 0.41, 0.95
66, 0.00, 58756.79, 0.00, 0.00, 0.00, 0.00, 0.00, 0.00, 0.02, 0.41, 0.95
67, 0.00, 58758.24, 0.00, 0.00, 0.00, 0.00, 0.00, 0.00, 0.02, 0.41, 0.95
68, 0.00, 58752.81, 0.00, 0.00, 0.00, 0.00, 0.00, 0.00, 0.03, 0.40, 0.95
69, 0.00, 58768.01, 0.00, 0.00, 0.00, 0.00, 0.00, 0.00, 0.03, 0.40, 0.95
70, 0.00, 58761.91, 0.00, 0.00, 0.00, 0.00, 0.00, 0.00, 0.03, 0.40, 0.95
71, 0.00, 58754.33, 0.00, 0.00, 0.00, 0.00, 0.00, 0.00, 0.03, 0.40, 0.95
72, 0.00, 58765.21, 0.00, 0.00, 0.00, 0.00, 0.00, 0.00, 0.03, 0.40, 0.95
73, 0.00, 58767.79, 0.00, 0.00, 0.00, 0.00, 0.00, 0.00, 0.03, 0.41, 0.95
74, 0.00, 58766.55, 0.00, 0.00, 0.00, 0.00, 0.00, 0.00, 0.03, 0.41, 0.95
75, 0.00, 58769.13, 0.00, 0.00, 0.00, 0.00, 0.00, 0.00, 0.03, 0.41, 0.95
76, 0.00, 58767.50, 0.00, 0.00, 0.00, 0.00, 0.00, 0.00, 0.03, 0.41, 0.95
77, 0.00, 58772.70, 0.00, 0.00, 0.00, 0.00, 0.00, 0.00, 0.03, 0.41, 0.95
78, 0.00, 58768.72, 0.00, 0.00, 0.00, 0.00, 0.00, 0.00, 0.03, 0.41, 0.95
79, 0.00, 58766.49, 0.00, 0.00, 0.00, 0.00, 0.00, 0.00, 0.03, 0.41, 0.95
80, 0.00, 58768.86, 0.00, 0.00, 0.00, 0.00, 0.00, 0.00, 0.03, 0.41, 0.95
81, 0.00, 58770.09, 0.00, 0.00, 0.00, 0.00, 0.00, 0.00, 0.03, 0.41, 0.95
82, 0.00, 58770.58, 0.00, 0.00, 0.00, 0.00, 0.00, 0.00, 0.03, 0.41, 0.95
83, 0.00, 58769.13, 0.00, 0.00, 0.00, 0.00, 0.00, 0.00, 0.02, 0.40, 0.95
84, 0.00, 58763.54, 0.00, 0.00, 0.00, 0.00, 0.00, 0.00, 0.02, 0.40, 0.95
85, 0.00, 58764.90, 0.00, 0.00, 0.00, 0.00, 0.00, 0.00, 0.02, 0.40, 0.95
86, 0.00, 58770.78, 0.00, 0.00, 0.00, 0.00, 0.00, 0.00, 0.02, 0.40, 0.95
87, 0.00, 58767.38, 0.00, 0.00, 0.00, 0.00, 0.00, 0.00, 0.02, 0.40, 0.95
88, 0.00, 58771.23, 0.00, 0.00, 0.00, 0.00, 0.00, 0.00, 0.02, 0.41, 0.94
89, 0.00, 58764.07, 0.00, 0.00, 0.00, 0.00, 0.00, 0.00, 0.02, 0.41, 0.94
90, 0.00, 58764.95, 0.00, 0.00, 0.00, 0.00, 0.00, 0.00, 0.02, 0.41, 0.94
91, 0.00, 58764.43, 0.00, 0.00, 0.00, 0.00, 0.00, 0.00, 0.02, 0.41, 0.94
92, 0.00, 58766.11, 0.00, 0.00, 0.00, 0.00, 0.00, 0.00, 0.02, 0.41, 0.94
