%OpenBCI Raw EEG Data
%
%Sample Rate = 250.0 Hz
%First Column = SampleIndex
%Other Columns = EEG data in microvolts followed by Accel Data (in G) interleaved with Aux Data
0, -87095.85, -65860.53, -179661.84, -21617.87, -180734.80, 5240.77, -904.55, -180782.73, 0.08, 0.49, 0.91
1, -86781.56, -64964.09, -179331.30, -22285.72, -180356.73, 5542.85, -1418.67, -180531.86, 0.08, 0.49, 0.91
2, -86517.92, -64410.93, -179165.97, -22718.58, -179844.56, 5801.98, -1394.28, -180410.11, 0.08, 0.49, 0.94
3, -86797.34, -65212.80, -179499.14, -22086.41, -180155.66, 5542.83, -860.10, -180566.48, 0.08, 0.49, 0.94
4, -87089.61, -65876.71, -179677.16, -21574.82, -180805.38, 5264.64, -830.17, -180781.22, 0.08, 0.49, 0.94
5, -86849.87, -65123.95, -179389.42, -22115.08, -180619.50, 5495.51, -1316.38, -180574.06, 0.08, 0.49, 0.94
6, -86512.85, -64372.29, -179145.67, -22710.87, -180243.02, 5817.44, -1429.68, -180404.14, 0.08, 0.49, 0.94
7, -86714.35, -65008.04, -179424.16, -22230.40, -180407.55, 5609.91, -904.58, -180525.67, 0.07, 0.48, 0.93
8, -87064.71, -65882.68, -179683.48, -21592.95, -180718.36, 5260.68, -757.88, -180773.89, 0.07, 0.48, 0.93
9, -86916.30, -65344.59, -179457.91, -21971.94, -180525.20, 5401.81, -1208.02, -180628.42, 0.07, 0.48, 0.93
10, -86534.02, -64448.95, -179158.09, -22678.55, -179947.03, 5774.15, -1458.72, -180412.53, 0.07, 0.48, 0.93
11, -86635.54, -64821.75, -179346.41, -22371.57, -179918.73, 5688.03, -979.21, -180481.75, 0.07, 0.48, 0.93
12, -87017.82, -65811.60, -179669.95, -21634.57, -180624.59, 5328.90, -710.36, -180740.72, 0.07, 0.49, 0.93
13, -86971.33, -65520.38, -179518.14, -21823.68, -180759.80, 5376.51, -1099.44, -180674.69, 0.07, 0.49, 0.93
14, -86574.77, -64536.55, -179184.92, -22589.79, -180327.55, 5760.78, -1466.36, -180424.64, 0.07, 0.49, 0.93
15, -86579.10, -64649.00, -179283.81, -22488.76, -180292.00, 5750.03, -1085.58, -180443.69, 0.07, 0.49, 0.93
16, -86972.91, -65688.82, -179649.13, -21714.14, -180647.00, 5357.56, -716.51, -180703.92, 0.07, 0.49, 0.93
17, -87027.72, -65650.58, -179578.30, -21705.76, -180662.70, 5298.66, -1008.78, -180726.50, 0.07, 0.48, 0.92
18, -86635.18, -64648.53, -179226.72, -22480.78, -180152.58, 5678.37, -1454.81, -180458.50, 0.07, 0.48, 0.92
19, -86532.01, -64509.28, -179223.30, -22574.63, -179809.66, 5787.05, -1173.69, -180430.67, 0.07, 0.48, 0.92
20, -86902.28, -65522.50, -179598.30, -21804.17, -180376.69, 5441.15, -706.92, -180656.81, 0.07, 0.48, 0.92
21, -87055.19, -65763.39, -179618.77, -21596.43, -180829.11, 5297.72, -886.31, -180756.03, 0.07, 0.48, 0.92
22, -86700.11, -64797.66, -179276.23, -22328.92, -180466.92, 5643.17, -1377.58, -180485.45, 0.07, 0.49, 0.92
23, -86502.68, -64420.68, -179178.31, -22632.39, -180228.50, 5832.06, -1245.57, -180402.94, 0.07, 0.49, 0.92
24, -86835.88, -65362.46, -179550.23, -21928.04, -180523.28, 5499.45, -739.06, -180600.88, 0.07, 0.49, 0.92
25, -87079.29, -65872.35, -179667.39, -21538.21, -180727.08, 5256.57, -810.47, -180780.75, 0.07, 0.49, 0.92
26, -86786.05, -65013.40, -179345.42, -22172.37, -180372.53, 5540.53, -1314.95, -180538.30, 0.07, 0.49, 0.92
27, -86500.29, -64397.74, -179156.25, -22652.42, -179841.28, 5821.76, -1328.32, -180404.67, 0.07, 0.49, 0.91
28, -86758.70, -65159.51, -179476.55, -22059.65, -180110.16, 5582.82, -796.97, -180551.59, 0.07, 0.49, 0.91
29, -87072.24, -65894.15, -179677.75, -21508.01, -180784.03, 5286.17, -741.16, -180779.41, 0.07, 0.49, 0.91
30, -86861.00, -65204.11, -179406.50, -22007.28, -180643.69, 5490.91, -1233.15, -180584.55, 0.07, 0.49, 0.91
31, -86517.37, -64411.15, -179152.16, -22635.19, -180258.23, 5821.47, -1394.01, -180405.89, 0.07, 0.49, 0.91
32, -86698.34, -64963.89, -179410.31, -22202.46, -180398.55, 5637.53, -887.74, -180516.34, 0.08, 0.49, 0.91
33, -87068.22, -65866.16, -179691.34, -21532.26, -180726.56, 5273.65, -713.07, -180777.64, 0.08, 0.49, 0.91
34, -86951.73, -65372.12, -179485.27, -21864.48, -180567.36, 5387.57, -1154.15, -180654.42, 0.08, 0.49, 0.91
35, -86568.17, -64451.90, -179178.08, -22592.76, -180035.94, 5760.67, -1451.01, -180429.91, 0.08, 0.49, 0.91
36, -86649.71, -64763.20, -179350.22, -22334.69, -179918.89, 5688.92, -1001.51, -180485.77, 0.08, 0.49, 0.91
37, -87036.23, -65764.28, -179685.31, -21583.60, -180598.22, 5321.30, -713.27, -180749.31, 0.08, 0.48, 0.91
38, -87018.52, -65541.17, -179547.28, -21722.79, -180774.69, 5337.48, -1089.02, -180705.84, 0.08, 0.48, 0.91
39, -86621.63, -64543.30, -179202.36, -22500.96, -180343.55, 5721.17, -1486.44, -180440.69, 0.08, 0.48, 0.91
40, -86597.47, -64585.00, -179276.39, -22451.52, -180281.19, 5735.55, -1126.75, -180450.86, 0.08, 0.48, 0.91
41, -86986.55, -65627.29, -179645.86, -21681.68, -180633.58, 5347.25, -736.80, -180706.25, 0.08, 0.48, 0.91
42, -87068.40, -65671.26, -179595.44, -21626.92, -180676.25, 5264.22, -1004.64, -180750.03, 0.07, 0.48, 0.91
43, -86684.91, -64672.25, -179240.59, -22401.63, -180202.97, 5636.62, -1466.52, -180471.75, 0.07, 0.48, 0.91
44, -86555.49, -64462.21, -179211.83, -22559.77, -179818.97, 5767.82, -1222.53, -180432.95, 0.07, 0.48, 0.91
45, -86914.62, -65464.88, -179590.47, -21804.55, -180321.11, 5430.38, -740.29, -180650.66, 0.07, 0.48, 0.91
46, -87092.48, -65778.86, -179635.78, -21547.46, -180816.67, 5264.60, -888.88, -180770.80, 0.07, 0.48, 0.91
47, -86754.31, -64853.56, -179298.78, -22260.75, -180480.56, 5593.28, -1392.78, -180505.28, 0.08, 0.48, 0.91
48, -86531.29, -64408.88, -179179.52, -22615.25, -180217.89, 5804.19, -1298.99, -180412.81, 0.08, 0.48, 0.91
49, -86849.53, -65300.89, -179538.95, -21942.80, -180496.91, 5486.57, -783.74, -180601.28, 0.08, 0.48, 0.91
50, -87113.62, -65868.82, -179675.19, -21512.55, -180721.94, 5224.45, -825.76, -180794.94, 0.08, 0.48, 0.91
51, -86839.19, -65048.11, -179365.44, -22118.71, -180388.58, 5488.98, -1335.43, -180558.86, 0.08, 0.48, 0.91
52, -86537.10, -64387.95, -179157.36, -22642.05, -179845.38, 5784.99, -1389.41, -180408.66, 0.08, 0.48, 0.91
53, -86775.75, -65098.54, -179464.03, -22080.77, -180074.31, 5565.23, -854.37, -180539.22, 0.08, 0.48, 0.91
54, -87097.91, -65873.85, -179686.86, -21495.25, -180758.38, 5259.57, -765.01, -180778.48, 0.08, 0.48, 0.91
55, -86906.51, -65241.32, -179430.08, -21953.23, -180658.80, 5445.58, -1241.35, -180599.39, 0.08, 0.48, 0.91
56, -86545.59, -64418.51, -179155.80, -22611.74, -180257.02, 5792.12, -1432.66, -180403.42, 0.08, 0.48, 0.91
57, -86701.56, -64921.82, -179392.22, -22220.92, -180372.41, 5631.61, -927.37, -180497.58, 0.07, 0.48, 0.92
58, -87075.04, -65862.56, -179683.56, -21532.22, -180704.73, 5261.00, -714.83, -180760.03, 0.07, 0.48, 0.92
59, -86979.69, -65450.18, -179490.45, -21819.15, -180567.78, 5350.18, -1130.89, -180657.50, 0.07, 0.48, 0.92
60, -86587.34, -64507.13, -179169.31, -22566.48, -180000.52, 5730.67, -1440.82, -180424.61, 0.07, 0.48, 0.92
61, -86636.55, -64752.58, -179310.20, -22365.42, -179882.97, 5693.08, -1003.50, -180470.64, 0.07, 0.48, 0.92
62, -87024.84, -65783.30, -179658.59, -21602.16, -180569.39, 5327.09, -676.77, -180727.28, 0.07, 0.49, 0.91
63, -87033.29, -65630.45, -179550.31, -21690.18, -180794.88, 5321.19, -1021.01, -180704.28, 0.07, 0.49, 0.91
64, -86637.86, -64629.06, -179206.94, -22469.65, -180368.89, 5704.23, -1434.27, -180437.31, 0.07, 0.49, 0.91
65, -86590.52, -64608.18, -179257.31, -22478.25, -180280.02, 5746.77, -1109.27, -180443.25, 0.07, 0.49, 0.91
66, -86981.09, -65646.42, -179636.72, -21707.70, -180629.52, 5360.37, -697.75, -180692.95, 0.07, 0.49, 0.91
67, -87094.02, -65755.90, -179611.27, -21599.23, -180699.00, 5248.21, -940.32, -180758.97, 0.07, 0.50, 0.91
68, -86722.40, -64774.28, -179257.52, -22362.38, -180255.66, 5608.05, -1427.20, -180485.30, 0.07, 0.50, 0.91
69, -86568.88, -64498.84, -179204.33, -22568.49, -179847.94, 5762.35, -1223.47, -180431.13, 0.07, 0.50, 0.91
70, -86919.94, -65486.05, -179580.34, -21823.59, -180285.72, 5434.63, -733.18, -180641.78, 0.07, 0.50, 0.91
71, -87119.12, -65877.00, -179648.36, -21516.66, -180820.05, 5246.78, -860.72, -180783.27, 0.07, 0.50, 0.91
72, -86792.02, -64957.03, -179311.44, -22207.13, -180509.02, 5563.37, -1368.73, -180519.61, 0.07, 0.49, 0.91
73, -86549.28, -64445.46, -179166.45, -22612.05, -180224.44, 5797.91, -1311.94, -180409.78, 0.07, 0.49, 0.91
74, -86850.83, -65305.63, -179516.63, -21966.76, -180486.89, 5497.84, -792.24, -180584.83, 0.07, 0.49, 0.91
75, -87132.82, -65937.66, -179678.16, -21493.28, -180729.81, 5217.63, -801.62, -180797.94, 0.07, 0.49, 0.91
76, -86879.69, -65156.59, -179382.25, -22065.51, -180422.14, 5462.25, -1303.64, -180577.25, 0.07, 0.49, 0.91
77, -86559.30, -64442.18, -179154.95, -22630.18, -179868.64, 5776.61, -1392.92, -180415.72, 0.07, 0.49, 0.92
78, -86773.13, -65104.44, -179441.52, -22115.51, -180044.34, 5578.86, -867.67, -180535.86, 0.07, 0.49, 0.92
79, -87110.96, -65935.12, -179685.05, -21491.22, -180741.92, 5255.65, -745.34, -180780.95, 0.07, 0.49, 0.92
80, -86943.27, -65344.85, -179442.81, -21904.11, -180677.66, 5417.64, -1213.99, -180618.61, 0.07, 0.49, 0.92
81, -86574.18, -64470.09, -179156.92, -22591.91, -180267.58, 5772.58, -1442.45, -180413.23, 0.07, 0.49, 0.92
82, -86706.62, -64901.86, -179374.00, -22252.95, -180359.11, 5636.91, -962.40, -180500.66, 0.07, 0.49, 0.91
83, -87089.37, -65865.70, -179686.53, -21540.11, -180701.44, 5259.05, -725.00, -180766.28, 0.07, 0.49, 0.91
84, -87024.16, -65512.43, -179518.45, -21775.70, -180594.02, 5322.11, -1130.35, -180682.27, 0.07, 0.49, 0.91
85, -86628.18, -64547.28, -179191.45, -22536.50, -180035.94, 5709.26, -1477.41, -180431.39, 0.07, 0.49, 0.91
86, -86653.11, -64730.76, -179311.05, -22382.79, -179871.61, 5696.32, -1065.31, -180458.23, 0.07, 0.49, 0.91
87, -87043.08, -65774.27, -179661.77, -21608.82, -180544.72, 5330.11, -717.07, -180718.75, 0.07, 0.49, 0.91
88, -87076.42, -65685.72, -179568.33, -21643.69, -180806.20, 5300.34, -1034.39, -180720.22, 0.07, 0.49, 0.91
89, -86683.57, -64679.89, -179217.33, -22424.97, -180384.55, 5680.32, -1472.51, -180449.36, 0.07, 0.49, 0.91
90, -86606.59, -64597.46, -179239.66, -22484.60, -180267.95, 5748.56, -1180.95, -180437.67, 0.07, 0.49, 0.91
91, -86990.75, -65633.23, -179623.91, -21716.64, -180611.56, 5369.05, -751.47, -180679.89, 0.07, 0.49, 0.91
92, -87128.26, -65820.90, -179626.84, -21557.41, -180708.45, 5233.24, -975.70, -180768.14, 0.07, 0.49, 0.92
93, -86766.34, -64842.12, -179279.42, -22303.40, -180277.86, 5583.71, -1468.44, -180492.23, 0.07, 0.49, 0.92
94, -86585.36, -64498.39, -179199.61, -22563.66, -179846.08, 5763.20, -1304.83, -180425.72, 0.07, 0.49, 0.92
95, -86919.47, -65447.67, -179562.75, -21841.12, -180242.56, 5450.83, -799.34, -180622.61, 0.07, 0.49, 0.92
96, -87138.43, -65894.80, -179653.69, -21485.12, -180806.97, 5242.47, -887.72, -180778.47, 0.07, 0.49, 0.92
97, -86827.56, -64999.25, -179333.53, -22147.74, -180525.52, 5541.20, -1394.55, -180524.59, 0.07, 0.49, 0.91
98, -86562.54, -64423.07, -179167.16, -22597.86, -180218.17, 5796.57, -1368.53, -180404.30, 0.07, 0.49, 0.91
99, -86846.80, -65226.61, -179505.38, -21986.09, -180459.69, 5517.62, -839.02, -180567.58, 0.07, 0.49, 0.91
100, -87150.12, -65907.78, -179690.61, -21475.53, -180720.13, 5221.14, -809.74, -180787.16, 0.07, 0.49, 0.91
101, -86918.48, -65182.82, -179406.31, -22011.26, -180431.41, 5443.68, -1306.10, -180578.11, 0.07, 0.49, 0.91
102, -86581.29, -64433.28, -179161.20, -22610.55, -179857.08, 5773.39, -1432.90, -180405.86, 0.08, 0.49, 0.92
103, -86775.41, -65049.41, -179432.58, -22128.34, -180022.28, 5597.19, -906.39, -180521.63, 0.08, 0.49, 0.92
104, -87123.79, -65917.21, -179693.42, -21477.14, -180729.83, 5266.43, -752.16, -180768.20, 0.08, 0.49, 0.92
105, -86983.94, -65386.20, -179465.69, -21848.14, -180702.31, 5402.06, -1204.76, -180626.72, 0.08, 0.49, 0.92
106, -86605.27, -64487.82, -179165.77, -22560.40, -180283.33, 5767.51, -1469.43, -180410.73, 0.08, 0.49, 0.92
107, -86708.94, -64854.46, -179358.08, -22269.02, -180348.42, 5658.01, -1002.43, -180481.19, 0.07, 0.49, 0.92
108, -87096.63, -65853.16, -179682.00, -21539.86, -180697.17, 5270.65, -736.71, -180749.41, 0.07, 0.49, 0.92
109, -87055.05, -65558.23, -179529.97, -21728.38, -180615.41, 5306.37, -1121.21, -180687.77, 0.07, 0.49, 0.92
110, -86656.73, -64580.60, -179192.86, -22500.12, -180070.88, 5693.53, -1486.01, -180432.02, 0.07, 0.49, 0.92
111, -86650.27, -64692.68, -179283.98, -22405.16, -179858.72, 5707.70, -1095.28, -180451.38, 0.07, 0.49, 0.92
112, -87033.58, -65729.03, -179645.25, -21626.25, -180503.83, 5346.27, -705.40, -180699.52, 0.07, 0.49, 0.92
113, -87092.81, -65709.12, -179579.30, -21611.28, -180814.19, 5291.69, -986.65, -180723.19, 0.07, 0.49, 0.92
114, -86705.01, -64698.38, -179228.97, -22394.95, -180401.45, 5669.48, -1430.47, -180456.75, 0.07, 0.49, 0.92
115, -86599.87, -64542.25, -179222.77, -22515.02, -180254.50, 5768.18, -1155.65, -180426.09, 0.07, 0.49, 0.92
116, -86973.63, -65561.91, -179607.64, -21760.63, -180588.56, 5398.04, -694.29, -180656.50, 0.07, 0.49, 0.92
117, -87133.69, -65835.38, -179637.08, -21550.19, -180708.97, 5237.55, -877.80, -180765.02, 0.08, 0.49, 0.91
118, -86783.93, -64882.13, -179295.16, -22283.19, -180287.16, 5575.75, -1378.86, -180496.48, 0.08, 0.49, 0.91
119, -86577.27, -64468.62, -179187.80, -22596.99, -179827.94, 5780.45, -1243.79, -180412.02, 0.08, 0.49, 0.91
120, -86893.86, -65373.24, -179542.30, -21896.88, -180211.56, 5485.97, -717.42, -180594.84, 0.08, 0.49, 0.91
121, -87136.17, -65877.72, -179659.45, -21499.11, -180803.70, 5257.80, -780.19, -180769.86, 0.08, 0.49, 0.91
122, -86846.56, -65016.46, -179347.98, -22135.58, -180549.47, 5539.81, -1288.78, -180529.13, 0.07, 0.49, 0.91
123, -86556.48, -64385.25, -179156.64, -22633.64, -180219.34, 5817.58, -1305.14, -180396.31, 0.07, 0.49, 0.91
124, -86811.87, -65125.45, -179473.70, -22060.99, -180434.03, 5561.25, -766.11, -180546.91, 0.07, 0.49, 0.91
125, -87128.35, -65840.75, -179677.23, -21508.75, -180708.84, 5248.28, -688.93, -180770.08, 0.07, 0.49, 0.91
126, -86922.66, -65150.46, -179405.94, -22003.66, -180450.45, 5446.94, -1174.25, -180585.50, 0.07, 0.49, 0.91
127, -86574.61, -64361.64, -179144.06, -22633.60, -179872.80, 5790.69, -1330.02, -180403.78, 0.07, 0.49, 0.91
128, -86736.30, -64909.29, -179383.52, -22195.88, -179968.58, 5648.58, -798.29, -180496.31, 0.07, 0.49, 0.91
129, -87099.16, -65825.46, -179663.88, -21502.27, -180677.80, 5308.36, -611.36, -180747.89, 0.07, 0.49, 0.91
130, -87021.75, -65380.32, -179498.61, -21788.46, -180746.48, 5384.29, -1079.05, -180655.73, 0.07, 0.49, 0.91
131, -86662.76, -64482.97, -179218.53, -22513.97, -180349.42, 5728.95, -1404.56, -180443.89, 0.07, 0.49, 0.91
132, -86723.07, -64818.87, -179369.66, -22298.21, -180370.19, 5660.91, -949.39, -180484.56, 0.07, 0.49, 0.92
133, -87083.09, -65843.19, -179669.22, -21559.62, -180690.20, 5302.12, -638.08, -180723.55, 0.07, 0.49, 0.92
134, -87100.07, -65633.66, -179562.33, -21643.35, -180664.47, 5284.78, -1023.51, -180708.27, 0.07, 0.49, 0.92
135, -86747.70, -64655.57, -179262.70, -22394.19, -180270.28, 5626.00, -1458.34, -180475.17, 0.07, 0.49, 0.92
136, -86711.60, -64713.82, -179324.53, -22382.79, -180194.55, 5653.94, -1106.68, -180466.81, 0.07, 0.49, 0.92
137, -87064.84, -65759.19, -179649.08, -21636.73, -180506.88, 5303.49, -682.49, -180687.83, 0.08, 0.48, 0.91
138, -87169.21, -65803.65, -179611.55, -21536.38, -180568.50, 5201.36, -956.30, -180750.06, 0.08, 0.48, 0.91
139, -86833.30, -64810.69, -179299.25, -22278.16, -180093.05, 5528.97, -1454.67, -180499.73, 0.08, 0.48, 0.91
140, -86698.97, -64616.34, -179266.02, -22467.95, -179739.33, 5669.23, -1223.02, -180449.81, 0.08, 0.48, 0.91
141, -87014.76, -65624.27, -179600.13, -21744.80, -180220.81, 5376.80, -709.13, -180630.59, 0.08, 0.48, 0.91
142, -87198.04, -65933.58, -179646.75, -21452.00, -180760.89, 5206.75, -854.22, -180762.59, 0.07, 0.48, 0.92
143, -86910.53, -65002.54, -179347.86, -22127.27, -180516.91, 5486.19, -1396.74, -180529.77, 0.07, 0.48, 0.92
144, -86700.96, -64572.46, -179236.38, -22504.65, -180265.58, 5686.19, -1325.73, -180439.39, 0.07, 0.48, 0.92
145, -86982.57, -65476.80, -179558.00, -21871.31, -180507.34, 5404.81, -789.42, -180590.00, 0.07, 0.48, 0.92
146, -87246.77, -66059.15, -179690.30, -21415.92, -180730.20, 5142.89, -825.70, -180790.98, 0.07, 0.48, 0.92
147, -87028.77, -65247.69, -179430.28, -21972.95, -180469.52, 5352.97, -1374.27, -180588.52, 0.07, 0.48, 0.92
148, -86751.50, -64584.76, -179247.19, -22516.63, -180151.34, 5619.18, -1456.35, -180452.75, 0.06, 0.48, 0.91
149, -86959.64, -65290.27, -179515.84, -22023.89, -180319.20, 5412.14, -903.35, -180554.91, 0.06, 0.48, 0.91
150, -87268.41, -66051.91, -179708.89, -21451.62, -180587.47, 5108.09, -791.03, -180786.73, 0.06, 0.48, 0.91
151, -87118.13, -65394.27, -179475.47, -21879.21, -180371.53, 5252.68, -1286.97, -180632.22, 0.06, 0.48, 0.91
152, -86778.90, -64550.25, -179216.30, -22559.23, -179782.45, 5588.96, -1495.49, -180442.39, 0.06, 0.48, 0.91
153, -86891.55, -65036.24, -179412.42, -22226.53, -179871.86, 5494.64, -958.80, -180496.00, 0.07, 0.48, 0.91
154, -87223.09, -65953.91, -179669.70, -21550.30, -180500.08, 5186.77, -704.17, -180725.84, 0.07, 0.48, 0.91
155, -87159.77, -65516.05, -179515.17, -21795.10, -180700.28, 5252.39, -1129.46, -180650.53, 0.07, 0.48, 0.91
156, -86800.31, -64561.89, -179231.61, -22553.11, -180321.95, 5599.04, -1475.35, -180441.58, 0.07, 0.48, 0.91
157, -86831.77, -64811.36, -179358.97, -22415.83, -180313.17, 5561.81, -1031.11, -180464.27, 0.07, 0.48, 0.91
158, -87187.67, -65833.41, -179669.03, -21692.19, -180630.13, 5209.39, -676.05, -180693.59, 0.07, 0.49, 0.91
159, -87221.35, -65663.48, -179574.84, -21748.96, -180623.75, 5173.67, -1026.01, -180696.70, 0.07, 0.49, 0.91
160, -86864.66, -64656.11, -179262.53, -22523.67, -180194.86, 5518.89, -1473.61, -180462.77, 0.07, 0.49, 0.91
161, -86798.50, -64633.51, -179295.77, -22578.28, -179874.63, 5587.35, -1138.80, -180448.33, 0.07, 0.49, 0.91
162, -87135.45, -65641.62, -179625.00, -21840.71, -180284.94, 5273.27, -671.80, -180647.33, 0.07, 0.49, 0.91
163, -87252.76, -65748.03, -179611.03, -21701.26, -180749.31, 5166.40, -910.10, -180721.31, 0.07, 0.48, 0.91
164, -86922.38, -64739.32, -179303.81, -22446.60, -180448.52, 5487.53, -1419.60, -180484.08, 0.07, 0.48, 0.91
165, -86764.80, -64458.88, -179247.73, -22706.38, -180250.09, 5635.88, -1219.96, -180424.75, 0.07, 0.48, 0.91
166, -87072.89, -65447.49, -179581.08, -22023.22, -180519.08, 5328.50, -695.92, -180594.78, 0.07, 0.48, 0.91
167, -87272.25, -65832.73, -179648.70, -21701.42, -180680.14, 5129.01, -809.29, -180738.92, 0.07, 0.48, 0.91
168, -86990.66, -64904.93, -179355.88, -22360.33, -180335.86, 5400.38, -1341.95, -180518.73, 0.07, 0.48, 0.92
169, -86748.91, -64392.67, -179212.66, -22796.48, -179849.11, 5638.76, -1297.65, -180418.36, 0.07, 0.48, 0.92
170, -86997.50, -65242.28, -179516.67, -22194.19, -180095.64, 5411.02, -733.16, -180545.03, 0.07, 0.48, 0.92
171, -87263.09, -65864.53, -179669.27, -21705.15, -180721.25, 5164.15, -718.65, -180732.75, 0.07, 0.48, 0.92
172, -87055.75, -65093.69, -179421.05, -22237.08, -180614.73, 5369.02, -1258.92, -180557.11, 0.07, 0.48, 0.92
173, -86756.48, -64389.05, -179215.67, -22821.71, -180274.55, 5657.81, -1381.92, -180423.03, 0.08, 0.49, 0.92
174, -86943.95, -65064.56, -179472.39, -22360.19, -180421.98, 5467.24, -843.82, -180527.56, 0.08, 0.49, 0.92
175, -87264.72, -65873.43, -179694.19, -21745.88, -180703.39, 5148.48, -703.83, -180745.05, 0.08, 0.49, 0.92
176, -87137.27, -65273.62, -179483.20, -22122.15, -180534.47, 5270.30, -1202.30, -180615.95, 0.08, 0.49, 0.92
177, -86792.85, -64403.49, -179218.98, -22817.60, -180149.80, 5601.97, -1466.99, -180432.13, 0.08, 0.49, 0.92
178, -86891.64, -64828.86, -179402.30, -22532.61, -180207.95, 5500.56, -968.95, -180482.80, 0.07, 0.49, 0.92
179, -87238.68, -65795.87, -179683.52, -21836.71, -180514.27, 5157.40, -698.94, -180713.98, 0.07, 0.49, 0.92
180, -87202.63, -65418.91, -179539.86, -22033.05, -180425.31, 5190.86, -1114.44, -180659.22, 0.07, 0.49, 0.92
181, -86836.81, -64426.31, -179239.17, -22794.98, -179830.94, 5551.70, -1483.17, -180439.95, 0.07, 0.49, 0.92
182, -86832.41, -64589.27, -179331.27, -22697.17, -179740.72, 5570.95, -1054.04, -180451.38, 0.07, 0.49, 0.92
183, -87175.49, -65609.95, -179645.09, -21954.24, -180302.28, 5253.89, -661.75, -180659.02, 0.07, 0.48, 0.92
184, -87226.36, -65507.02, -179574.89, -21951.33, -180696.50, 5215.91, -981.06, -180675.67, 0.07, 0.48, 0.92
185, -86872.20, -64499.67, -179268.67, -22715.94, -180371.03, 5561.52, -1452.10, -180450.41, 0.07, 0.48, 0.92
186, -86781.90, -64408.98, -179279.67, -22818.83, -180242.27, 5644.87, -1155.56, -180438.56, 0.07, 0.48, 0.92
187, -87118.11, -65444.05, -179617.67, -22085.13, -180540.33, 5311.42, -687.36, -180632.28, 0.07, 0.48, 0.92
188, -87262.39, -65617.32, -179630.28, -21889.20, -180643.19, 5169.24, -901.65, -180721.58, 0.07, 0.49, 0.91
189, -86941.48, -64625.26, -179327.97, -22605.75, -180226.41, 5483.20, -1424.79, -180486.33, 0.07, 0.49, 0.91
190, -86755.19, -64289.00, -179243.91, -22897.28, -179788.28, 5671.62, -1267.08, -180415.70, 0.07, 0.49, 0.91
191, -87042.02, -65245.95, -179564.86, -22208.98, -180171.97, 5406.19, -723.15, -180567.22, 0.07, 0.49, 0.91
192, -87254.52, -65696.55, -179652.78, -21824.98, -180748.94, 5208.09, -802.76, -180716.39, 0.07, 0.49, 0.91
193, -86988.02, -64804.43, -179378.38, -22443.70, -180554.06, 5466.32, -1339.94, -180518.03, 0.08, 0.48, 0.91
194, -86729.51, -64229.77, -179220.28, -22913.76, -180254.39, 5713.44, -1333.66, -180409.17, 0.08, 0.48, 0.91
195, -86968.38, -65040.09, -179509.11, -22344.57, -180451.80, 5474.97, -772.77, -180534.30, 0.08, 0.48, 0.91
196, -87252.80, -65728.70, -179674.48, -21817.29, -180696.61, 5192.78, -724.73, -180730.03, 0.08, 0.48, 0.91
197, -87060.65, -64978.89, -179435.59, -22304.63, -180463.98, 5377.81, -1246.44, -180560.89, 0.08, 0.48, 0.91
198, -86744.14, -64214.19, -179209.94, -22916.17, -179978.77, 5687.09, -1396.74, -180407.50, 0.07, 0.48, 0.91
199, -86899.83, -64834.03, -179442.84, -22484.02, -179957.59, 5546.29, -854.10, -180484.78, 0.07, 0.48, 0.91
200, -87218.83, -65685.27, -179675.09, -21825.83, -180570.47, 5249.37, -667.07, -180701.13, 0.07, 0.48, 0.91
201, -87109.98, -65164.21, -179486.25, -22141.39, -180680.63, 5355.48, -1147.47, -180596.30, 0.07, 0.48, 0.91
202, -86757.16, -64272.42, -179213.17, -22846.59, -180297.97, 5694.35, -1445.13, -180412.39, 0.07, 0.48, 0.91
203, -86833.73, -64646.63, -179376.44, -22594.95, -180333.84, 5613.84, -961.73, -180467.78, 0.07, 0.49, 0.91
204, -87185.28, -65645.82, -179666.64, -21874.27, -180645.36, 5267.03, -663.38, -180688.08, 0.07, 0.49, 0.91
205, -87169.19, -65353.86, -179540.89, -22008.38, -180590.58, 5279.77, -1055.49, -180652.69, 0.07, 0.49, 0.91
206, -86802.02, -64362.89, -179235.48, -22765.50, -180099.84, 5636.19, -1452.46, -180436.84, 0.07, 0.49, 0.91
207, -86772.13, -64474.23, -179304.95, -22714.38, -179842.16, 5671.17, -1055.27, -180435.75, 0.07, 0.49, 0.91
208, -87110.13, -65519.13, -179628.77, -21956.03, -180389.02, 5353.58, -630.81, -180636.73, 0.07, 0.48, 0.91
209, -87182.44, -65476.44, -179579.19, -21896.08, -180764.81, 5286.03, -917.43, -180674.31, 0.07, 0.48, 0.91
210, -86832.99, -64463.57, -179268.83, -22650.23, -180411.63, 5623.50, -1399.58, -180449.30, 0.07, 0.48, 0.91
211, -86718.30, -64323.02, -179254.38, -22802.64, -180257.77, 5727.77, -1139.36, -180422.66, 0.07, 0.48, 0.91
212, -87047.88, -65348.54, -179596.06, -22074.89, -180550.17, 5397.90, -649.85, -180610.56, 0.07, 0.48, 0.91
213, -87212.84, -65597.72, -179629.36, -21824.82, -180674.98, 5233.50, -830.81, -180719.23, 0.07, 0.49, 0.92
214, -86906.46, -64632.84, -179329.41, -22518.38, -180304.34, 5532.57, -1365.69, -180491.31, 0.07, 0.49, 0.92
215, -86704.70, -64244.63, -179227.23, -22852.78, -179854.61, 5733.54, -1251.27, -180411.00, 0.07, 0.49, 0.92
216, -86980.67, -65169.57, -179547.20, -22183.03, -180135.83, 5477.83, -700.46, -180555.11, 0.07, 0.49, 0.92
217, -87210.78, -65675.16, -179655.38, -21758.24, -180730.67, 5261.65, -749.23, -180720.42, 0.07, 0.49, 0.92
218, -86961.96, -64812.61, -179378.75, -22347.56, -180563.88, 5501.90, -1288.04, -180522.34, 0.08, 0.49, 0.92
219, -86688.04, -64190.00, -179201.66, -22859.71, -180248.63, 5765.36, -1326.24, -180404.19, 0.08, 0.49, 0.92
220, -86908.97, -64957.57, -179482.92, -22325.97, -180429.67, 5545.20, -767.54, -180520.53, 0.08, 0.49, 0.92
221, -87204.84, -65696.98, -179666.78, -21763.38, -180686.41, 5253.11, -682.22, -180724.00, 0.08, 0.49, 0.92
222, -87034.31, -65000.82, -179435.47, -22212.25, -180474.11, 5417.15, -1193.43, -180574.33, 0.08, 0.49, 0.92
223, -86706.37, -64196.18, -179195.97, -22849.83, -179984.56, 5735.81, -1375.93, -180416.80, 0.07, 0.49, 0.91
224, -86836.81, -64740.89, -179409.59, -22466.30, -179926.16, 5617.98, -842.68, -180492.31, 0.07, 0.49, 0.91
225, -87166.13, -65639.49, -179667.63, -21782.20, -180534.08, 5310.53, -617.49, -180704.97, 0.07, 0.49, 0.91
226, -87083.35, -65144.56, -179493.75, -22053.48, -180692.45, 5393.27, -1073.35, -180614.06, 0.07, 0.49, 0.91
227, -86728.43, -64212.52, -179211.56, -22780.25, -180311.14, 5736.87, -1398.77, -180416.55, 0.07, 0.49, 0.91
228, -86783.13, -64519.02, -179355.78, -22582.77, -180325.42, 5678.13, -941.16, -180454.95, 0.07, 0.49, 0.92
229, -87137.24, -65533.73, -179662.05, -21852.12, -180639.66, 5326.47, -618.29, -180680.98, 0.07, 0.49, 0.92
230, -87149.25, -65314.72, -179559.63, -21936.58, -180610.77, 5311.91, -996.46, -180667.63, 0.07, 0.49, 0.92
231, -86787.73, -64325.03, -179253.45, -22696.25, -180147.95, 5663.35, -1430.44, -180445.42, 0.07, 0.49, 0.92
232, -86738.35, -64371.68, -179302.05, -22686.35, -179848.44, 5716.17, -1064.66, -180443.97, 0.07, 0.49, 0.92
233, -87076.00, -65408.00, -179623.34, -21929.50, -180340.48, 5400.11, -621.71, -180641.86, 0.07, 0.49, 0.92
234, -87170.93, -65449.30, -179591.50, -21820.76, -180764.56, 5311.74, -884.46, -180696.17, 0.07, 0.49, 0.92
235, -86830.09, -64454.43, -179285.61, -22564.58, -180434.20, 5641.85, -1385.29, -180466.38, 0.07, 0.49, 0.92
236, -86694.73, -64242.80, -179253.36, -22769.05, -180256.67, 5767.49, -1160.86, -180422.69, 0.07, 0.49, 0.92
237, -87015.88, -65254.48, -179592.11, -22059.70, -180536.63, 5446.18, -656.16, -180601.44, 0.07, 0.49, 0.92
238, -87200.88, -65576.26, -179642.80, -21767.56, -180682.38, 5259.86, -807.12, -180728.56, 0.07, 0.49, 0.91
239, -86906.35, -64627.21, -179343.73, -22439.32, -180349.11, 5543.12, -1346.04, -180503.09, 0.07, 0.49, 0.91
240, -86684.51, -64167.45, -179220.42, -22825.51, -180087.94, 5753.79, -1274.32, -180416.25, 0.07, 0.49, 0.91
241, -86954.27, -65054.46, -179533.03, -22197.65, -180318.64, 5482.41, -727.39, -180558.55, 0.07, 0.49, 0.91
242, -87212.05, -65623.47, -179662.75, -21735.75, -180535.39, 5226.55, -742.68, -180742.08, 0.07, 0.49, 0.91
243, -86983.64, -64794.71, -179393.63, -22291.66, -180201.88, 5447.61, -1280.93, -180546.33, 0.07, 0.48, 0.92
244, -86690.21, -64123.55, -179194.98, -22834.23, -179661.53, 5739.84, -1358.87, -180413.78, 0.07, 0.48, 0.92
245, -86882.93, -64823.01, -179460.27, -22324.54, -179925.59, 5568.27, -791.70, -180513.84, 0.07, 0.48, 0.92
246, -87180.67, -65599.10, -179663.98, -21726.54, -180550.28, 5291.42, -665.63, -180717.67, 0.07, 0.48, 0.92
247, -87028.97, -64960.80, -179447.80, -22132.72, -180615.36, 5442.09, -1163.41, -180576.92, 0.07, 0.48, 0.92
248, -86688.84, -64127.93, -179194.63, -22802.44, -180244.59, 5769.75, -1386.79, -180404.75, 0.07, 0.49, 0.91
249, -86807.31, -64622.80, -179396.80, -22463.26, -180324.50, 5648.02, -862.20, -180473.34, 0.07, 0.49, 0.91
250, -87147.98, -65553.35, -179666.27, -21774.89, -180626.25, 5310.53, -612.75, -180697.78, 0.07, 0.49, 0.91
251, -87088.02, -65134.70, -179508.64, -22006.61, -180524.39, 5365.94, -1049.66, -180625.63, 0.07, 0.49, 0.91
252, -86725.93, -64190.39, -179218.78, -22750.28, -179987.11, 5717.93, -1403.33, -180420.61, 0.07, 0.49, 0.91
253, -86747.03, -64435.20, -179335.23, -22595.96, -179836.23, 5706.65, -956.97, -180448.58, 0.08, 0.49, 0.91
254, -87094.40, -65472.21, -179645.86, -21845.28, -180441.00, 5382.70, -595.54, -180659.28, 0.08, 0.49, 0.91
255, -87127.70, -65318.25, -179557.86, -21874.98, -180757.56, 5353.42, -947.09, -180661.92, 0.08, 0.49, 0.91
0, -86767.93, -64304.60, -179246.98, -22633.53, -180384.14, 5701.13, -1401.05, -180436.86, 0.08, 0.49, 0.91
1, -86700.78, -64281.58, -179278.39, -22681.70, -180276.52, 5761.32, -1072.24, -180427.23, 0.08, 0.49, 0.91
2, -87044.02, -65321.03, -179616.63, -21937.99, -180581.06, 5420.28, -618.36, -180628.39, 0.07, 0.49, 0.91
3, -87166.10, -65429.12, -179604.59, -21786.27, -180663.94, 5296.80, -855.22, -180705.06, 0.07, 0.49, 0.91
4, -86834.42, -64443.88, -179290.25, -22520.14, -180292.78, 5617.51, -1370.32, -180472.92, 0.07, 0.49, 0.91
5, -86674.48, -64173.51, -179229.89, -22767.46, -180093.86, 5768.52, -1177.42, -180422.78, 0.07, 0.49, 0.91
6, -86983.80, -65163.07, -179566.44, -22068.39, -180364.13, 5461.27, -651.40, -180594.88, 0.07, 0.49, 0.91
7, -87187.80, -65551.20, -179639.88, -21730.86, -180528.34, 5258.87, -763.65, -180734.48, 0.07, 0.49, 0.91
8, -86906.30, -64626.60, -179346.92, -22376.04, -180115.36, 5531.72, -1298.99, -180515.13, 0.07, 0.49, 0.91
9, -86661.33, -64105.89, -179198.11, -22800.32, -179643.67, 5779.49, -1255.99, -180409.89, 0.07, 0.49, 0.91
10, -86908.23, -64953.03, -179494.27, -22190.23, -179998.91, 5554.61, -693.04, -180534.45, 0.07, 0.49, 0.91
11, -87173.08, -65581.05, -179642.63, -21689.10, -180611.64, 5309.34, -678.00, -180723.06, 0.07, 0.49, 0.91
12, -86964.17, -64803.81, -179399.20, -22208.16, -180574.38, 5514.76, -1217.54, -180547.42, 0.07, 0.49, 0.91
13, -86661.04, -64089.07, -179190.16, -22787.31, -180236.81, 5805.44, -1340.86, -180405.73, 0.07, 0.49, 0.91
14, -86847.37, -64768.16, -179444.56, -22320.23, -180380.72, 5618.76, -795.74, -180495.89, 0.07, 0.49, 0.91
15, -87169.16, -65604.65, -179671.39, -21693.13, -180661.17, 5302.91, -649.41, -180721.05, 0.07, 0.49, 0.91
16, -87042.18, -65012.35, -179466.75, -22053.17, -180490.70, 5425.28, -1138.35, -180598.27, 0.07, 0.49, 0.91
17, -86694.21, -64136.65, -179199.55, -22743.99, -179953.27, 5766.17, -1398.26, -180413.84, 0.07, 0.49, 0.92
18, -86781.85, -64565.63, -179374.13, -22445.71, -179895.19, 5691.29, -887.74, -180458.86, 0.07, 0.49, 0.92
19, -87121.30, -65535.74, -179646.75, -21730.30, -180527.20, 5373.87, -603.81, -180681.42, 0.07, 0.49, 0.92
20, -87084.47, -65185.53, -179507.03, -21908.66, -180732.17, 5411.04, -1017.70, -180630.52, 0.07, 0.49, 0.92
21, -86721.73, -64210.23, -179210.05, -22659.88, -180344.23, 5761.05, -1395.96, -180420.19, 0.07, 0.49, 0.92
22, -86726.09, -64385.20, -179307.83, -22563.66, -180307.69, 5750.99, -981.44, -180440.03, 0.07, 0.49, 0.92
23, -87080.76, -65426.77, -179630.64, -21817.98, -180621.33, 5400.02, -596.12, -180655.83, 0.07, 0.49, 0.92
24, -87138.50, -65344.18, -179567.56, -21804.10, -180638.52, 5340.75, -919.19, -180677.73, 0.07, 0.49, 0.92
25, -86785.31, -64335.09, -179259.69, -22563.24, -180244.55, 5683.62, -1394.61, -180446.78, 0.07, 0.49, 0.92
26, -86695.80, -64253.29, -179265.86, -22665.32, -180113.75, 5766.08, -1105.18, -180419.98, 0.07, 0.49, 0.92
27, -87035.12, -65301.27, -179603.30, -21925.67, -180413.80, 5428.50, -635.73, -180617.38, 0.07, 0.49, 0.92
28, -87182.13, -65495.64, -179615.77, -21716.98, -180521.72, 5280.82, -846.62, -180717.16, 0.07, 0.49, 0.92
29, -86862.19, -64519.45, -179308.73, -22428.46, -180049.69, 5593.10, -1375.33, -180484.00, 0.07, 0.49, 0.92
30, -86673.63, -64175.79, -179221.38, -22720.26, -179660.91, 5785.26, -1219.78, -180412.81, 0.07, 0.49, 0.92
31, -86959.55, -65122.23, -179539.17, -22034.44, -180084.84, 5522.60, -674.55, -180565.00, 0.07, 0.49, 0.92
32, -87172.96, -65572.46, -179627.02, -21646.35, -180659.84, 5325.84, -748.98, -180716.66, 0.07, 0.49, 0.92
33, -86906.42, -64680.71, -179352.41, -22263.16, -180519.09, 5584.43, -1288.91, -180513.53, 0.07, 0.49, 0.92
34, -86646.84, -64111.20, -179190.94, -22736.62, -180222.02, 5831.59, -1293.23, -180403.09, 0.07, 0.49, 0.92
35, -86884.11, -64908.88, -179486.16, -22171.41, -180420.45, 5592.99, -732.91, -180526.03, 0.07, 0.49, 0.92
36, -87170.66, -65610.10, -179661.34, -21640.00, -180668.39, 5307.18, -686.62, -180729.05, 0.07, 0.49, 0.92
37, -86982.50, -64878.44, -179419.33, -22122.53, -180434.14, 5486.66, -1212.29, -180563.02, 0.07, 0.49, 0.91
38, -86662.60, -64124.94, -179191.41, -22733.53, -179907.38, 5798.06, -1371.64, -180412.25, 0.07, 0.49, 0.91
39, -86814.55, -64710.53, -179420.69, -22305.77, -179956.03, 5659.22, -820.98, -180499.25, 0.07, 0.49, 0.91
40, -87135.70, -65575.03, -179651.67, -21652.83, -180605.67, 5358.05, -633.36, -180709.38, 0.07, 0.49, 0.91
41, -87030.80, -65041.92, -179469.22, -21968.54, -180683.34, 5459.91, -1106.39, -180604.17, 0.07, 0.49, 0.91
42, -86677.07, -64146.49, -179196.36, -22679.55, -180296.08, 5799.45, -1402.75, -180416.61, 0.07, 0.49, 0.92
43, -86749.80, -64521.53, -179358.70, -22438.83, -180329.94, 5721.44, -921.16, -180466.72, 0.07, 0.49, 0.92
44, -87103.43, -65532.34, -179657.08, -21715.66, -180643.97, 5370.97, -619.64, -180692.69, 0.07, 0.49, 0.92
45, -87093.48, -65244.94, -179530.92, -21845.19, -180593.97, 5376.76, -1011.30, -180657.08, 0.07, 0.49, 0.92
46, -86729.70, -64265.53, -179222.47, -22605.68, -180190.58, 5727.43, -1419.11, -180432.38, 0.07, 0.49, 0.92
47, -86705.79, -64373.63, -179292.41, -22562.43, -180128.88, 5744.64, -1032.47, -180445.16, 0.07, 0.48, 0.91
48, -87056.47, -65431.49, -179617.55, -21813.67, -180440.58, 5396.11, -619.28, -180658.33, 0.07, 0.48, 0.91
49, -87139.55, -65420.09, -179576.92, -21748.00, -180479.42, 5312.70, -911.91, -180699.61, 0.07, 0.48, 0.91
50, -86791.71, -64407.18, -179272.23, -22496.36, -179942.02, 5652.71, -1399.06, -180457.56, 0.07, 0.48, 0.91
51, -86668.23, -64242.64, -179249.81, -22649.40, -179664.92, 5785.93, -1138.58, -180426.53, 0.07, 0.48, 0.91
52, -86988.98, -65259.67, -179581.89, -21917.40, -180163.33, 5489.57, -640.65, -180607.31, 0.07, 0.48, 0.91
53, -87150.66, -65509.90, -179614.75, -21657.79, -180690.53, 5339.65, -810.72, -180716.17, 0.07, 0.48, 0.91
54, -86842.83, -64545.55, -179318.56, -22349.53, -180456.27, 5637.27, -1345.66, -180490.59, 0.07, 0.48, 0.91
55, -86639.07, -64148.88, -179213.78, -22696.83, -180213.22, 5830.47, -1239.20, -180411.19, 0.07, 0.48, 0.91
56, -86920.37, -65073.88, -179535.67, -22043.92, -180455.44, 5550.14, -695.01, -180559.23, 0.07, 0.48, 0.91
57, -87158.81, -65591.95, -179650.52, -21620.28, -180656.05, 5311.87, -739.84, -180732.56, 0.07, 0.48, 0.91
58, -86913.05, -64727.23, -179373.80, -22209.86, -180349.33, 5547.68, -1277.54, -180530.73, 0.07, 0.48, 0.91
59, -86633.05, -64105.07, -179186.95, -22725.02, -179823.73, 5822.70, -1321.10, -180409.50, 0.07, 0.48, 0.91
60, -86842.91, -64876.83, -179462.11, -22184.60, -180019.02, 5632.66, -757.81, -180522.89, 0.07, 0.48, 0.91
61, -87134.70, -65619.71, -179652.94, -21609.13, -180665.05, 5360.64, -665.05, -180720.47, 0.07, 0.48, 0.91
62, -86968.04, -64929.58, -179431.02, -22047.94, -180645.03, 5525.26, -1177.02, -180569.45, 0.07, 0.48, 0.91
63, -86638.69, -64124.00, -179189.34, -22693.08, -180278.39, 5842.50, -1374.97, -180408.88, 0.07, 0.48, 0.91
64, -86773.70, -64672.63, -179404.02, -22318.93, -180376.02, 5702.80, -850.66, -180487.77, 0.07, 0.48, 0.91
65, -87112.68, -65600.55, -179663.52, -21642.72, -180676.05, 5368.69, -637.81, -180713.38, 0.07, 0.48, 0.91
66, -87036.05, -65129.88, -179492.19, -21910.16, -180559.42, 5443.61, -1095.82, -180624.58, 0.07, 0.48, 0.91
67, -86679.03, -64195.93, -179208.92, -22637.71, -180163.77, 5787.00, -1427.09, -180423.30, 0.07, 0.48, 0.90
68, -86727.02, -64492.07, -179346.28, -22449.91, -180173.78, 5732.13, -974.36, -180466.13, 0.07, 0.48, 0.90
69, -87082.48, -65512.25, -179651.00, -21714.29, -180490.52, 5379.37, -637.52, -180692.81, 0.07, 0.48, 0.90
70, -87096.54, -65282.56, -179543.64, -21795.14, -180456.72, 5364.24, -1002.79, -180679.45, 0.07, 0.48, 0.90
71, -86730.15, -64281.29, -179229.05, -22559.75, -179876.23, 5722.14, -1431.79, -180448.89, 0.07, 0.48, 0.90
72, -86670.88, -64319.73, -179269.20, -22563.64, -179711.23, 5791.09, -1068.28, -180437.61, 0.07, 0.48, 0.91
73, -87007.00, -65361.37, -179600.48, -21807.43, -180260.64, 5477.43, -620.02, -180637.27, 0.07, 0.48, 0.91
74, -87105.35, -65413.29, -179575.73, -21688.48, -180712.89, 5388.78, -875.12, -180697.00, 0.07, 0.48, 0.91
75, -86764.20, -64417.25, -179266.30, -22430.64, -180411.30, 5718.76, -1380.24, -180463.06, 0.07, 0.48, 0.91
76, -86623.78, -64211.13, -179226.52, -22641.40, -180233.20, 5848.24, -1167.10, -180416.33, 0.07, 0.48, 0.91
77, -86942.56, -65227.02, -179568.36, -21930.73, -180514.22, 5528.46, -662.24, -180596.36, 0.08, 0.48, 0.91
78, -87131.08, -65561.95, -179629.81, -21627.81, -180663.00, 5340.64, -806.29, -180729.06, 0.08, 0.48, 0.91
79, -86840.41, -64617.30, -179342.52, -22292.87, -180315.58, 5622.83, -1348.19, -180505.59, 0.08, 0.48, 0.91
80, -86612.49, -64143.89, -179212.39, -22687.20, -179850.22, 5847.84, -1280.91, -180412.70, 0.08, 0.48, 0.91
81, -86870.16, -65026.50, -179516.33, -22058.47, -180080.31, 5609.91, -725.31, -180545.41, 0.08, 0.48, 0.91
82, -87122.94, -65611.63, -179648.36, -21585.06, -180693.75, 5373.94, -732.29, -180726.19, 0.07, 0.48, 0.91
83, -86897.14, -64794.17, -179389.94, -22134.91, -180581.56, 5592.72, -1269.36, -180538.66, 0.07, 0.48, 0.91
84, -86606.15, -64114.05, -179190.83, -22689.46, -180251.81, 5871.20, -1356.46, -180405.75, 0.07, 0.48, 0.91
85, -86803.27, -64819.79, -179454.50, -22200.20, -180411.08, 5671.93, -803.46, -180503.83, 0.07, 0.48, 0.91
86, -87114.31, -65610.26, -179665.94, -21598.62, -180682.98, 5362.34, -674.87, -180722.39, 0.07, 0.48, 0.91
87, -86968.11, -64962.84, -179451.88, -21997.02, -180497.58, 5500.97, -1168.21, -180589.14, 0.07, 0.49, 0.92
88, -86625.66, -64123.44, -179192.19, -22668.56, -180002.75, 5833.11, -1398.35, -180416.88, 0.07, 0.49, 0.92
89, -86734.51, -64605.05, -179384.95, -22332.65, -179915.33, 5735.66, -875.38, -180478.06, 0.07, 0.49, 0.92
90, -87069.83, -65546.13, -179653.92, -21632.31, -180525.02, 5421.26, -620.75, -180697.47, 0.07, 0.49, 0.92
91, -87013.17, -65149.36, -179505.56, -21848.00, -180710.41, 5476.18, -1056.41, -180629.38, 0.07, 0.49, 0.92
92, -86653.35, -64201.27, -179218.38, -22588.72, -180325.22, 5822.47, -1422.31, -180427.13, 0.07, 0.49, 0.92
93, -86676.42, -64436.48, -179332.98, -22446.56, -180310.48, 5792.32, -990.00, -180458.36, 0.07, 0.49, 0.91
94, -87031.72, -65478.45, -179649.28, -21701.06, -180627.61, 5439.52, -630.30, -180679.41, 0.07, 0.49, 0.91
95, -87070.84, -65334.39, -179565.11, -21727.19, -180627.59, 5399.20, -974.80, -180685.39, 0.07, 0.49, 0.91
96, -86711.63, -64325.70, -179252.09, -22488.18, -180229.42, 5746.10, -1427.87, -180450.50, 0.07, 0.49, 0.91
97, -86634.38, -64289.40, -179272.41, -22556.20, -180115.05, 5813.96, -1111.53, -180438.58, 0.07, 0.49, 0.91
98, -86975.15, -65338.75, -179606.50, -21813.89, -180418.73, 5473.45, -649.90, -180639.78, 0.07, 0.49, 0.91
99, -87101.62, -65471.43, -179601.11, -21647.55, -180506.67, 5343.52, -879.65, -180721.72, 0.07, 0.49, 0.91
100, -86773.20, -64476.42, -179293.84, -22370.05, -180012.83, 5663.37, -1392.80, -180481.75, 0.07, 0.49, 0.91
101, -86600.63, -64171.50, -179221.13, -22625.22, -179659.34, 5842.19, -1204.22, -180426.61, 0.07, 0.49, 0.91
102, -86895.38, -65139.29, -179547.69, -21928.42, -180111.11, 5569.29, -665.84, -180587.81, 0.07, 0.49, 0.91
103, -87096.38, -65525.99, -179627.98, -21573.37, -180678.48, 5380.91, -760.59, -180728.00, 0.07, 0.49, 0.91
104, -86815.13, -64611.89, -179347.08, -22212.69, -180502.44, 5652.26, -1302.17, -180511.72, 0.07, 0.49, 0.91
105, -86570.13, -64085.96, -179199.25, -22652.73, -180220.23, 5883.38, -1277.09, -180409.81, 0.07, 0.49, 0.91
106, -86821.19, -64940.11, -179503.56, -22059.96, -180434.20, 5628.37, -726.72, -180541.36, 0.07, 0.49, 0.91
107, -87095.49, -65601.45, -179659.89, -21554.72, -180669.25, 5354.83, -713.83, -180739.70, 0.07, 0.49, 0.91
108, -86891.33, -64829.46, -179408.03, -22065.96, -180421.06, 5549.40, -1248.72, -180564.78, 0.07, 0.49, 0.91
109, -86579.70, -64096.96, -179189.50, -22654.56, -179904.58, 5850.52, -1374.68, -180418.95, 0.07, 0.49, 0.91
110, -86746.83, -64732.59, -179431.53, -22195.64, -179973.09, 5697.55, -818.39, -180504.50, 0.07, 0.49, 0.91
111, -87057.67, -65560.91, -179653.95, -21564.49, -180620.66, 5405.52, -653.92, -180719.19, 0.07, 0.49, 0.91
112, -86931.43, -64971.80, -179453.98, -21917.83, -180666.33, 5528.44, -1133.30, -180597.50, 0.07, 0.49, 0.91
113, -86579.66, -64086.63, -179181.80, -22615.92, -180280.27, 5866.24, -1396.85, -180413.81, 0.07, 0.49, 0.91
114, -86667.01, -64515.87, -179356.00, -22338.71, -180331.03, 5771.33, -900.15, -180471.11, 0.07, 0.49, 0.91
115, -87015.05, -65500.87, -179648.36, -21626.79, -180642.33, 5423.11, -618.00, -180697.17, 0.07, 0.49, 0.91
116, -86986.46, -65164.86, -179516.84, -21794.16, -180575.61, 5447.43, -1028.16, -180649.77, 0.07, 0.49, 0.91
117, -86619.98, -64190.81, -179214.52, -22549.02, -180093.98, 5801.19, -1417.53, -180432.97, 0.07, 0.49, 0.91
118, -86610.28, -64340.95, -179298.84, -22458.56, -179850.64, 5816.10, -1001.89, -180441.22, 0.07, 0.48, 0.92
119, -86953.31, -65371.30, -179616.84, -21705.17, -180396.31, 5494.46, -603.03, -180652.17, 0.07, 0.48, 0.92
120, -87009.75, -65297.51, -179558.59, -21675.29, -180757.83, 5441.49, -915.93, -180679.02, 0.07, 0.48, 0.92
121, -86655.77, -64298.30, -179252.98, -22429.10, -180399.56, 5783.54, -1395.11, -180454.34, 0.07, 0.48, 0.92
122, -86557.73, -64196.76, -179251.08, -22542.09, -180262.88, 5872.56, -1108.18, -180423.66, 0.07, 0.48, 0.92
123, -86892.09, -65227.89, -179587.91, -21806.92, -180560.06, 5536.84, -626.18, -180617.16, 0.08, 0.49, 0.91
124, -87041.09, -65438.91, -179605.41, -21594.40, -180670.91, 5386.44, -828.69, -180717.05, 0.08, 0.49, 0.91
125, -86722.77, -64459.23, -179303.77, -22303.89, -180315.47, 5692.72, -1356.57, -180480.66, 0.08, 0.49, 0.91
126, -86534.24, -64101.83, -179214.61, -22616.66, -180089.39, 5869.55, -1213.79, -180415.19, 0.08, 0.49, 0.91
127, -86826.02, -65067.58, -179542.86, -21946.06, -180344.78, 5576.67, -677.39, -180575.53, 0.08, 0.49, 0.91
128, -87048.69, -65548.32, -179639.75, -21553.76, -180532.00, 5350.52, -753.39, -180734.75, 0.07, 0.49, 0.91
129, -86787.38, -64669.99, -179358.70, -22162.67, -180156.19, 5601.66, -1297.63, -180525.59, 0.07, 0.49, 0.91
130, -86518.10, -64076.08, -179185.50, -22640.06, -179653.02, 5871.47, -1303.31, -180409.89, 0.07, 0.49, 0.91
131, -86741.15, -64869.36, -179471.47, -22072.41, -179974.09, 5667.82, -737.18, -180523.23, 0.07, 0.49, 0.91
132, -87023.54, -65568.93, -179645.61, -21527.30, -180601.50, 5404.52, -677.64, -180722.09, 0.07, 0.49, 0.91
133, -86837.40, -64824.57, -179408.08, -22002.27, -180599.66, 5586.26, -1198.95, -180559.73, 0.07, 0.49, 0.92
134, -86514.46, -64065.21, -179172.53, -22627.88, -180244.70, 5894.33, -1371.86, -180402.47, 0.07, 0.49, 0.92
135, -86667.91, -64664.33, -179402.30, -22217.95, -180362.91, 5734.38, -834.99, -180481.41, 0.07, 0.49, 0.92
136, -86994.59, -65530.73, -179646.02, -21564.98, -180653.41, 5406.91, -641.81, -180709.36, 0.07, 0.49, 0.92
137, -86892.78, -65014.23, -179467.05, -21871.43, -180515.19, 5499.27, -1109.74, -180607.47, 0.07, 0.49, 0.92
138, -86533.30, -64109.54, -179189.03, -22588.09, -180000.48, 5846.28, -1411.98, -180414.42, 0.08, 0.50, 0.92
139, -86592.80, -64460.75, -179337.97, -22350.27, -179871.80, 5797.13, -924.71, -180463.75, 0.08, 0.50, 0.92
140, -86936.21, -65459.09, -179630.73, -21617.49, -180482.08, 5476.22, -606.76, -180680.08, 0.08, 0.50, 0.92
141, -86926.94, -65183.81, -179520.53, -21733.20, -180738.53, 5486.66, -992.42, -180649.94, 0.08, 0.50, 0.92
142, -86560.77, -64190.34, -179219.36, -22495.15, -180355.27, 5837.87, -1405.41, -180430.83, 0.08, 0.50, 0.92
143, -86530.06, -64294.03, -179285.22, -22460.39, -180289.19, 5858.19, -1026.37, -180440.80, 0.07, 0.50, 0.92
144, -86876.91, -65363.02, -179617.97, -21707.99, -180599.97, 5511.09, -614.72, -180649.59, 0.07, 0.50, 0.92
145, -86963.08, -65377.15, -179575.19, -21629.27, -180648.83, 5422.56, -907.50, -180696.25, 0.07, 0.50, 0.92
146, -86616.34, -64364.39, -179261.91, -22375.88, -180266.77, 5754.59, -1401.50, -180458.39, 0.07, 0.50, 0.92
147, -86492.73, -64192.84, -179237.45, -22545.13, -180107.36, 5865.21, -1155.88, -180417.98, 0.07, 0.50, 0.92
148, -86819.05, -65212.46, -179579.75, -21826.39, -180397.56, 5535.74, -662.48, -180605.48, 0.08, 0.49, 0.92
149, -86987.11, -65481.04, -179621.23, -21566.39, -180530.27, 5363.28, -833.59, -180726.50, 0.08, 0.49, 0.92
150, -86679.70, -64504.61, -179322.81, -22253.89, -180088.27, 5659.42, -1362.45, -180497.64, 0.08, 0.49, 0.92
151, -86462.78, -64068.08, -179203.63, -22610.35, -179655.52, 5878.42, -1250.24, -180413.75, 0.08, 0.49, 0.92
152, -86729.21, -64964.58, -179513.69, -21962.20, -180048.89, 5633.60, -690.83, -180552.13, 0.08, 0.49, 0.92
153, -86965.72, -65487.05, -179630.25, -21527.75, -180644.11, 5413.61, -722.32, -180718.11, 0.08, 0.49, 0.91
154, -86720.45, -64651.41, -179363.83, -22107.46, -180537.67, 5650.72, -1263.95, -180524.63, 0.08, 0.49, 0.91
155, -86439.98, -64017.45, -179176.20, -22628.28, -180221.70, 5918.92, -1315.20, -180402.44, 0.08, 0.49, 0.91
156, -86657.09, -64774.70, -179456.20, -22100.89, -180401.80, 5701.01, -755.06, -180515.41, 0.08, 0.49, 0.91
157, -86957.67, -65534.44, -179652.67, -21527.66, -180666.02, 5402.82, -665.03, -180726.52, 0.08, 0.49, 0.91
158, -86792.42, -64859.71, -179426.41, -21961.15, -180460.63, 5560.38, -1176.24, -180577.39, 0.08, 0.49, 0.92
159, -86456.77, -64049.28, -179175.98, -22611.90, -179932.00, 5886.35, -1380.44, -180410.33, 0.08, 0.49, 0.92
160, -86579.91, -64578.81, -179379.20, -22237.82, -179924.66, 5775.49, -845.50, -180475.28, 0.08, 0.49, 0.92
161, -86907.60, -65492.44, -179634.84, -21555.93, -180564.47, 5467.46, -619.75, -180696.75, 0.08, 0.49, 0.92
162, -86829.38, -65037.07, -179474.53, -21812.64, -180707.45, 5542.81, -1071.79, -180613.63, 0.08, 0.49, 0.92
163, -86469.30, -64104.02, -179192.14, -22545.82, -180319.77, 5888.66, -1409.43, -180414.83, 0.08, 0.49, 0.92
164, -86512.96, -64389.05, -179325.61, -22365.20, -180325.63, 5839.50, -953.99, -180456.31, 0.08, 0.49, 0.92
165, -86864.51, -65410.07, -179633.50, -21629.54, -180640.94, 5488.11, -611.12, -180678.11, 0.08, 0.49, 0.92
166, -86881.14, -65206.12, -179539.53, -21696.53, -180620.33, 5466.74, -971.72, -180668.52, 0.08, 0.49, 0.92
167, -86516.07, -64212.58, -179233.27, -22457.56, -180218.73, 5818.29, -1409.30, -180440.42, 0.08, 0.49, 0.92
168, -86460.52, -64240.01, -179274.64, -22473.09, -180127.61, 5864.34, -1058.00, -180432.81, 0.07, 0.49, 0.91
169, -86807.18, -65295.07, -179610.88, -21725.13, -180436.48, 5519.38, -617.02, -180640.48, 0.07, 0.49, 0.91
170, -86916.97, -65367.36, -179588.70, -21599.54, -180506.47, 5407.94, -871.32, -180709.02, 0.07, 0.49, 0.91
171, -86578.74, -64375.44, -179274.55, -22336.48, -179994.66, 5737.18, -1378.70, -180472.78, 0.07, 0.49, 0.91
172, -86428.80, -64138.60, -179222.03, -22549.51, -179670.41, 5896.12, -1161.13, -180423.52, 0.07, 0.49, 0.91
173, -86735.13, -65137.07, -179552.61, -21833.09, -180141.02, 5611.49, -640.62, -180591.73, 0.08, 0.49, 0.92
174, -86918.02, -65491.21, -179612.44, -21516.66, -180692.77, 5439.79, -778.53, -180721.48, 0.08, 0.49, 0.92
175, -86625.39, -64547.54, -179324.95, -22176.86, -180497.92, 5721.73, -1319.78, -180502.00, 0.08, 0.49, 0.92
176, -86392.66, -64062.15, -179190.89, -22581.50, -180229.55, 5942.46, -1262.20, -180414.92, 0.08, 0.49, 0.92
177, -86652.95, -64941.47, -179504.02, -21964.75, -180454.50, 5679.78, -711.66, -180558.59, 0.08, 0.49, 0.92
178, -86912.01, -65532.83, -179650.47, -21488.77, -180678.08, 5420.66, -712.95, -180740.25, 0.07, 0.49, 0.92
179, -86686.81, -64715.59, -179393.33, -22035.96, -180411.55, 5636.17, -1246.47, -180552.16, 0.07, 0.49, 0.92
180, -86388.84, -64030.41, -179188.03, -22598.48, -179913.45, 5922.41, -1339.45, -180417.31, 0.07, 0.49, 0.92
181, -86573.55, -64728.50, -179444.92, -22107.01, -179986.45, 5750.86, -781.10, -180510.98, 0.07, 0.49, 0.92
182, -86878.88, -65525.50, -179655.25, -21496.03, -180626.39, 5464.80, -647.44, -180723.34, 0.07, 0.49, 0.92
183, -86735.47, -64894.73, -179444.11, -21885.71, -180656.98, 5601.97, -1143.34, -180590.78, 0.08, 0.49, 0.92
184, -86389.42, -64049.68, -179183.00, -22563.50, -180279.55, 5930.01, -1385.72, -180414.88, 0.08, 0.49, 0.92
185, -86497.16, -64542.38, -179376.03, -22243.49, -180352.58, 5813.33, -879.47, -180474.75, 0.08, 0.49, 0.92
186, -86840.21, -65503.06, -179651.72, -21546.88, -180660.84, 5468.94, -630.77, -180708.73, 0.08, 0.49, 0.92
187, -86789.38, -65110.54, -179501.63, -21758.57, -180573.13, 5511.76, -1066.09, -180646.08, 0.08, 0.49, 0.92
188, -86427.06, -64151.67, -179206.72, -22506.04, -180172.91, 5859.15, -1434.22, -180438.23, 0.07, 0.48, 0.91
189, -86440.54, -64368.77, -179312.28, -22383.01, -180151.56, 5836.96, -1009.38, -180459.91, 0.07, 0.48, 0.91
190, -86792.58, -65412.54, -179631.75, -21639.33, -180469.08, 5485.54, -640.40, -180683.05, 0.07, 0.48, 0.91
191, -86834.45, -65281.33, -179551.47, -21656.63, -180468.31, 5440.57, -977.75, -180693.50, 0.07, 0.48, 0.91
192, -86474.70, -64267.16, -179234.47, -22416.25, -179906.66, 5793.33, -1430.27, -180453.31, 0.07, 0.48, 0.91
193, -86385.45, -64207.55, -179241.89, -22488.58, -179687.80, 5892.10, -1108.69, -180440.73, 0.07, 0.48, 0.92
194, -86713.81, -65240.47, -179580.95, -21738.21, -180213.25, 5585.75, -630.30, -180632.73, 0.07, 0.48, 0.92
195, -86840.15, -65367.70, -179587.23, -21557.23, -180701.48, 5469.61, -844.72, -180713.42, 0.07, 0.48, 0.92
196, -86512.78, -64373.83, -179285.61, -22285.02, -180430.50, 5786.04, -1363.14, -180482.27, 0.07, 0.48, 0.92
197, -86342.44, -64083.79, -179213.86, -22556.29, -180224.52, 5942.66, -1190.63, -180423.86, 0.07, 0.48, 0.92
198, -86645.64, -65059.60, -179546.45, -21868.19, -180492.08, 5636.31, -662.55, -180591.97, 0.08, 0.48, 0.91
199, -86855.50, -65471.81, -179629.44, -21517.31, -180664.39, 5425.51, -767.20, -180743.83, 0.08, 0.48, 0.91
200, -86578.90, -64566.43, -179344.16, -22154.51, -180326.73, 5692.97, -1310.97, -180526.30, 0.08, 0.48, 0.91
201, -86326.14, -64041.39, -179187.16, -22598.84, -179830.00, 5940.94, -1292.02, -180422.20, 0.08, 0.48, 0.91
202, -86563.63, -64878.75, -179482.33, -22001.07, -180080.95, 5719.52, -728.71, -180547.47, 0.08, 0.48, 0.91
203, -86831.79, -65527.89, -179644.36, -21487.89, -180715.69, 5465.40, -696.26, -180738.69, 0.07, 0.48, 0.92
204, -86628.56, -64758.01, -179408.38, -21995.19, -180617.84, 5660.00, -1226.53, -180560.38, 0.07, 0.48, 0.92
205, -86316.58, -64024.94, -179187.38, -22592.23, -180270.91, 5956.81, -1362.99, -180415.77, 0.07, 0.48, 0.92
206, -86484.93, -64666.99, -179427.14, -22153.42, -180404.34, 5782.15, -821.05, -180509.59, 0.07, 0.48, 0.92
207, -86808.41, -65525.86, -179659.22, -21516.79, -180690.63, 5460.33, -654.46, -180732.22, 0.07, 0.48, 0.92
208, -86687.91, -64955.20, -179466.53, -21860.59, -180533.92, 5573.99, -1134.91, -180610.19, 0.08, 0.48, 0.92
209, -86336.76, -64067.56, -179199.06, -22561.27, -180147.16, 5909.69, -1408.16, -180423.70, 0.08, 0.48, 0.92
210, -86417.92, -64468.78, -179366.53, -22299.53, -180192.77, 5820.08, -919.80, -180483.53, 0.08, 0.48, 0.92
211, -86768.27, -65451.49, -179654.69, -21584.03, -180506.84, 5469.07, -626.32, -180712.75, 0.08, 0.48, 0.92
212, -86741.51, -65113.80, -179525.05, -21747.64, -180435.55, 5489.23, -1031.51, -180666.39, 0.08, 0.48, 0.92
213, -86373.44, -64143.60, -179221.91, -22502.19, -179849.73, 5847.53, -1424.63, -180439.84, 0.08, 0.48, 0.92
214, -86358.45, -64287.17, -179298.63, -22419.04, -179740.36, 5873.46, -1013.88, -180448.22, 0.08, 0.48, 0.92
215, -86700.18, -65318.84, -179621.30, -21665.12, -180319.09, 5552.37, -606.47, -180659.42, 0.08, 0.48, 0.92
216, -86759.77, -65270.64, -179565.19, -21627.39, -180718.97, 5498.26, -914.25, -180688.41, 0.08, 0.48, 0.92
217, -86405.05, -64269.51, -179256.31, -22380.76, -180386.13, 5838.66, -1395.15, -180456.11, 0.08, 0.48, 0.92
218, -86301.31, -64156.68, -179250.08, -22507.42, -180245.78, 5933.54, -1116.27, -180428.77, 0.07, 0.48, 0.92
219, -86632.56, -65196.15, -179590.61, -21778.51, -180541.56, 5601.39, -635.97, -180621.84, 0.07, 0.48, 0.92
220, -86786.52, -65416.49, -179612.38, -21558.90, -180658.06, 5445.31, -833.54, -180727.13, 0.07, 0.48, 0.92
221, -86470.56, -64436.93, -179306.33, -22266.83, -180280.17, 5749.00, -1360.57, -180494.55, 0.07, 0.48, 0.92
222, -86273.08, -64063.81, -179205.33, -22589.77, -179836.61, 5942.23, -1228.92, -180422.31, 0.07, 0.48, 0.92
223, -86553.22, -65002.34, -179525.52, -21919.71, -180137.27, 5681.90, -680.52, -180571.48, 0.07, 0.48, 0.91
224, -86776.69, -65483.50, -179629.70, -21511.23, -180727.39, 5469.90, -739.80, -180730.39, 0.07, 0.48, 0.91
225, -86518.46, -64602.60, -179358.84, -22114.59, -180555.39, 5715.21, -1281.16, -180525.89, 0.07, 0.48, 0.91
226, -86251.49, -64003.01, -179186.53, -22606.73, -180250.67, 5966.62, -1304.45, -180412.72, 0.07, 0.48, 0.91
227, -86477.91, -64782.57, -179471.27, -22058.85, -180440.47, 5736.69, -745.88, -180528.16, 0.07, 0.48, 0.91
228, -86770.27, -65483.34, -179654.80, -21511.29, -180695.78, 5444.68, -672.65, -180737.61, 0.07, 0.48, 0.91
229, -86588.58, -64758.41, -179424.16, -21983.32, -180476.63, 5616.79, -1190.81, -180575.95, 0.07, 0.48, 0.91
230, -86265.30, -63968.03, -179189.75, -22616.86, -180115.83, 5926.54, -1361.29, -180420.45, 0.07, 0.48, 0.91
231, -86415.33, -64550.88, -179415.59, -22220.34, -180228.70, 5772.02, -821.25, -180503.20, 0.07, 0.48, 0.91
232, -86744.19, -65461.60, -179658.98, -21561.07, -180521.05, 5444.30, -626.63, -180728.56, 0.07, 0.48, 0.91
233, -86648.13, -64966.66, -179474.80, -21856.00, -180368.63, 5533.67, -1092.49, -180628.39, 0.07, 0.49, 0.92
234, -86286.94, -64047.63, -179188.05, -22572.53, -179766.41, 5888.28, -1398.10, -180429.47, 0.07, 0.49, 0.92
235, -86340.02, -64389.09, -179329.17, -22341.10, -179785.16, 5850.35, -914.21, -180471.23, 0.07, 0.49, 0.92
236, -86684.87, -65393.65, -179628.31, -21605.06, -180399.78, 5529.93, -592.90, -180691.45, 0.07, 0.49, 0.92
237, -86679.55, -65141.00, -179519.28, -21710.29, -180702.02, 5536.62, -977.20, -180664.78, 0.07, 0.49, 0.92
238, -86315.44, -64157.59, -179215.77, -22468.58, -180336.34, 5886.02, -1398.15, -180442.20, 0.07, 0.48, 0.92
239, -86281.46, -64246.24, -179275.36, -22446.56, -180265.00, 5911.37, -1032.02, -180445.94, 0.07, 0.48, 0.92
240, -86629.30, -65300.39, -179609.47, -21696.14, -180577.77, 5563.75, -610.36, -180658.81, 0.07, 0.48, 0.92
241, -86717.19, -65317.02, -179579.83, -21611.72, -180630.08, 5471.66, -893.53, -180710.50, 0.07, 0.48, 0.92
242, -86371.30, -64304.34, -179276.27, -22357.91, -180198.95, 5805.17, -1386.41, -180473.19, 0.07, 0.48, 0.92
243, -86236.78, -64105.27, -179240.44, -22539.70, -179812.52, 5938.70, -1141.95, -180432.84, 0.07, 0.48, 0.91
244, -86551.59, -65102.00, -179570.13, -21819.32, -180238.81, 5643.93, -625.71, -180610.41, 0.07, 0.48, 0.91
245, -86722.30, -65369.30, -179610.52, -21544.26, -180766.69, 5484.16, -772.45, -180729.14, 0.07, 0.48, 0.91
246, -86418.99, -64418.53, -179311.30, -22230.35, -180504.17, 5776.67, -1309.68, -180496.52, 0.07, 0.48, 0.91
247, -86204.51, -63996.15, -179193.97, -22599.54, -180252.75, 5977.53, -1218.21, -180410.73, 0.07, 0.48, 0.91
248, -86476.93, -64906.20, -179514.36, -21959.29, -180490.78, 5700.66, -668.59, -180557.19, 0.07, 0.48, 0.91
249, -86721.28, -65458.64, -179643.53, -21519.21, -180699.83, 5456.04, -702.36, -180738.53, 0.07, 0.48, 0.91
250, -86482.65, -64621.48, -179373.72, -22091.01, -180424.73, 5686.37, -1240.07, -180540.89, 0.07, 0.48, 0.91
251, -86198.70, -63980.73, -179182.97, -22624.01, -180103.91, 5958.15, -1301.39, -180410.33, 0.07, 0.48, 0.91
252, -86412.13, -64720.48, -179460.11, -22108.65, -180280.63, 5743.44, -742.28, -180517.48, 0.07, 0.48, 0.91
253, -86713.45, -65493.31, -179659.05, -21534.03, -180546.86, 5441.51, -645.54, -180739.06, 0.07, 0.48, 0.91
254, -86551.27, -64826.81, -179436.56, -21959.27, -180319.20, 5593.59, -1152.77, -180591.14, 0.07, 0.48, 0.91
255, -86210.63, -64008.44, -179183.36, -22613.95, -179728.98, 5929.31, -1359.39, -180418.52, 0.07, 0.48, 0.91
0, -86325.95, -64532.25, -179382.89, -22251.45, -179848.28, 5829.20, -827.15, -180484.61, 0.07, 0.48, 0.91
1, -86656.08, -65459.79, -179647.25, -21560.76, -180482.17, 5519.32, -589.53, -180704.55, 0.07, 0.48, 0.91
2, -86582.61, -64994.49, -179493.20, -21807.05, -180676.34, 5592.03, -1028.94, -180626.09, 0.07, 0.49, 0.92
3, -86218.74, -64039.18, -179208.25, -22546.07, -180297.80, 5940.56, -1364.53, -180426.77, 0.07, 0.49, 0.92
4, -86254.41, -64323.16, -179335.92, -22380.26, -180298.34, 5897.08, -915.44, -180463.22, 0.07, 0.49, 0.92
5, -86607.40, -65360.12, -179649.56, -21642.57, -180615.09, 5544.37, -569.01, -180686.41, 0.07, 0.49, 0.92
6, -86630.59, -65185.98, -179554.55, -21700.39, -180601.23, 5516.81, -929.27, -180681.08, 0.07, 0.49, 0.92
7, -86267.52, -64198.50, -179242.70, -22460.98, -180136.17, 5867.35, -1376.11, -180449.61, 0.07, 0.49, 0.92
8, -86202.43, -64209.16, -179274.03, -22480.87, -179827.36, 5936.02, -1027.67, -180442.14, 0.07, 0.49, 0.92
9, -86537.70, -65251.24, -179602.45, -21725.78, -180329.67, 5622.25, -574.46, -180640.47, 0.07, 0.49, 0.92
10, -86646.98, -65344.18, -179587.61, -21586.02, -180771.77, 5519.83, -825.29, -180709.05, 0.07, 0.49, 0.92
11, -86311.08, -64341.62, -179283.77, -22320.18, -180450.00, 5842.68, -1335.20, -180475.27, 0.07, 0.49, 0.92
12, -86158.06, -64092.24, -179231.14, -22555.12, -180261.58, 5984.12, -1134.84, -180427.23, 0.07, 0.49, 0.91
13, -86469.15, -65093.29, -179563.89, -21856.32, -180538.44, 5670.21, -620.46, -180604.14, 0.07, 0.49, 0.91
14, -86664.33, -65467.48, -179628.20, -21539.01, -180697.47, 5472.78, -752.29, -180743.28, 0.07, 0.49, 0.91
15, -86377.46, -64538.74, -179339.53, -22196.60, -180373.78, 5748.94, -1291.98, -180521.27, 0.07, 0.49, 0.91
16, -86143.11, -64043.42, -179201.34, -22610.71, -180103.47, 5971.63, -1237.68, -180423.20, 0.07, 0.49, 0.91
17, -86402.50, -64913.31, -179509.41, -22003.59, -180326.97, 5710.22, -685.01, -180558.22, 0.07, 0.49, 0.92
18, -86666.12, -65525.72, -179654.00, -21523.19, -180554.77, 5447.68, -680.30, -180753.86, 0.07, 0.49, 0.92
19, -86446.58, -64725.09, -179396.70, -22060.10, -180250.16, 5658.54, -1212.25, -180564.78, 0.07, 0.49, 0.92
20, -86142.99, -64019.04, -179185.23, -22627.14, -179695.77, 5958.98, -1307.62, -180426.84, 0.07, 0.49, 0.92
21, -86322.14, -64687.62, -179435.69, -22144.65, -179921.83, 5796.54, -741.72, -180525.09, 0.07, 0.49, 0.92
22, -86628.02, -65499.80, -179648.31, -21530.70, -180550.70, 5509.73, -598.33, -180735.17, 0.08, 0.49, 0.91
23, -86490.12, -64888.21, -179443.70, -21908.20, -180645.56, 5644.62, -1087.99, -180602.80, 0.08, 0.49, 0.91
24, -86142.68, -64036.32, -179180.61, -22591.47, -180274.19, 5978.13, -1334.73, -180422.98, 0.08, 0.49, 0.91
25, -86245.81, -64493.34, -179369.45, -22283.01, -180342.36, 5868.05, -825.74, -180486.08, 0.08, 0.49, 0.91
26, -86590.25, -65474.88, -179653.73, -21582.73, -180651.02, 5523.32, -571.04, -180716.02, 0.08, 0.49, 0.91
27, -86544.92, -65105.87, -179516.83, -21779.85, -180570.39, 5561.36, -1001.72, -180656.11, 0.08, 0.49, 0.91
28, -86181.15, -64138.75, -179225.41, -22528.93, -180106.28, 5912.17, -1373.81, -180444.08, 0.07, 0.49, 0.92
29, -86185.30, -64324.68, -179322.81, -22412.52, -179865.52, 5913.53, -940.96, -180467.22, 0.07, 0.49, 0.92
30, -86528.83, -65351.38, -179634.91, -21662.66, -180391.30, 5592.09, -552.29, -180680.25, 0.07, 0.49, 0.92
31, -86571.09, -65215.86, -179561.53, -21669.70, -180750.92, 5554.27, -875.45, -180692.92, 0.07, 0.49, 0.92
32, -86210.05, -64203.55, -179251.69, -22433.33, -180394.02, 5901.17, -1336.57, -180458.14, 0.07, 0.49, 0.92
33, -86124.78, -64165.06, -179264.69, -22517.59, -180272.88, 5976.30, -1033.52, -180440.94, 0.07, 0.49, 0.92
34, -86463.34, -65210.50, -179606.78, -21778.24, -180574.95, 5636.77, -565.97, -180640.64, 0.07, 0.49, 0.92
35, -86600.20, -65368.25, -179614.97, -21592.25, -180674.75, 5497.50, -781.51, -180731.38, 0.07, 0.49, 0.92
36, -86274.58, -64391.17, -179312.33, -22313.12, -180313.66, 5809.69, -1304.60, -180496.34, 0.07, 0.49, 0.92
37, -86100.46, -64084.39, -179237.02, -22592.52, -180103.84, 5972.70, -1138.66, -180431.25, 0.07, 0.49, 0.92
38, -86403.98, -65066.33, -179564.31, -21909.40, -180369.47, 5669.83, -610.18, -180597.95, 0.07, 0.48, 0.92
39, -86619.96, -65513.27, -179647.72, -21545.09, -180548.28, 5453.67, -707.95, -180756.45, 0.07, 0.48, 0.92
40, -86348.67, -64605.61, -179364.63, -22172.66, -180161.73, 5715.41, -1246.87, -180537.72, 0.07, 0.48, 0.92
41, -86089.04, -64046.82, -179201.39, -22628.39, -179666.88, 5975.31, -1232.70, -180424.97, 0.07, 0.48, 0.92
42, -86320.89, -64873.45, -179489.86, -22043.54, -179998.92, 5764.11, -668.90, -180542.41, 0.07, 0.48, 0.92
43, -86591.51, -65543.27, -179653.86, -21517.17, -180621.67, 5510.44, -625.00, -180742.08, 0.07, 0.48, 0.92
44, -86391.52, -64786.21, -179418.75, -22015.10, -180597.55, 5704.43, -1152.84, -180569.02, 0.07, 0.48, 0.92
45, -86078.11, -64042.02, -179198.59, -22620.46, -180251.30, 6004.19, -1296.00, -180422.88, 0.07, 0.48, 0.92
46, -86243.69, -64667.11, -179438.25, -22191.44, -180381.19, 5833.43, -752.38, -180514.97, 0.07, 0.48, 0.92
47, -86569.98, -65532.43, -179673.08, -21552.00, -180670.73, 5508.12, -579.02, -180741.42, 0.07, 0.48, 0.92
48, -86456.45, -64974.08, -179479.70, -21886.40, -180518.30, 5614.51, -1055.49, -180626.77, 0.07, 0.48, 0.92
49, -86102.29, -64084.06, -179204.05, -22593.43, -179992.58, 5958.73, -1338.74, -180436.28, 0.07, 0.48, 0.92
50, -86174.04, -64477.56, -179365.67, -22328.59, -179898.77, 5896.23, -842.82, -180488.14, 0.07, 0.48, 0.92
51, -86513.30, -65465.31, -179656.77, -21604.46, -180521.38, 5576.74, -541.74, -180709.05, 0.07, 0.48, 0.92
52, -86490.61, -65156.59, -179528.41, -21752.54, -180755.67, 5600.81, -945.01, -180668.55, 0.07, 0.48, 0.92
53, -86124.45, -64177.62, -179222.19, -22510.69, -180371.67, 5953.01, -1345.40, -180449.52, 0.07, 0.48, 0.92
54, -86108.08, -64313.97, -179299.77, -22447.92, -180320.14, 5959.96, -949.52, -180461.55, 0.07, 0.48, 0.92
55, -86459.41, -65372.79, -179629.25, -21700.71, -180635.39, 5609.55, -550.01, -180678.08, 0.07, 0.48, 0.92
56, -86529.73, -65336.54, -179581.53, -21655.11, -180668.98, 5536.82, -853.48, -180713.83, 0.07, 0.48, 0.92
57, -86178.38, -64328.70, -179274.86, -22408.54, -180282.61, 5876.12, -1335.76, -180478.33, 0.07, 0.48, 0.92
58, -86068.83, -64193.63, -179262.59, -22551.54, -180136.08, 5977.33, -1066.04, -180452.88, 0.08, 0.48, 0.91
59, -86399.48, -65229.23, -179602.03, -21825.72, -180429.38, 5646.90, -579.31, -180643.95, 0.08, 0.48, 0.91
60, -86559.52, -65467.39, -179630.44, -21590.98, -180552.05, 5486.75, -765.23, -180753.98, 0.08, 0.48, 0.91
61, -86246.91, -64492.74, -179329.09, -22291.84, -180096.20, 5790.00, -1293.14, -180512.06, 0.08, 0.48, 0.91
62, -86044.69, -64103.95, -179226.34, -22618.33, -179684.38, 5996.66, -1162.87, -180438.70, 0.08, 0.48, 0.91
63, -86322.16, -65030.97, -179544.11, -21951.45, -180098.44, 5742.27, -611.23, -180587.72, 0.08, 0.48, 0.91
64, -86547.34, -65513.74, -179647.94, -21535.17, -180690.05, 5532.19, -657.54, -180749.78, 0.08, 0.48, 0.91
65, -86291.12, -64634.11, -179372.16, -22135.54, -180551.27, 5779.36, -1194.54, -180542.09, 0.08, 0.48, 0.91
66, -86019.79, -64037.84, -179196.70, -22635.99, -180244.22, 6037.50, -1223.67, -180427.66, 0.08, 0.48, 0.91
67, -86245.79, -64818.85, -179482.52, -22089.33, -180435.66, 5809.46, -662.60, -180551.59, 0.08, 0.48, 0.91
68, -86539.42, -65549.26, -179668.23, -21540.29, -180692.70, 5517.28, -595.05, -180760.16, 0.08, 0.48, 0.92
69, -86362.00, -64852.85, -179440.73, -21999.50, -180476.11, 5685.23, -1115.17, -180598.00, 0.08, 0.48, 0.92
70, -86033.54, -64069.60, -179201.17, -22632.37, -179968.78, 6002.58, -1296.62, -180435.39, 0.08, 0.48, 0.92
71, -86172.70, -64641.51, -179419.50, -22230.46, -179957.94, 5875.74, -755.20, -180506.16, 0.08, 0.48, 0.92
72, -86497.70, -65539.38, -179666.06, -21557.74, -180593.95, 5570.75, -546.25, -180731.78, 0.08, 0.48, 0.92
73, -86407.04, -65043.39, -179491.97, -21842.91, -180712.89, 5660.04, -1007.50, -180636.11, 0.08, 0.48, 0.92
74, -86049.32, -64118.79, -179211.39, -22566.81, -180326.30, 6005.20, -1323.83, -180438.94, 0.08, 0.48, 0.92
75, -86102.96, -64441.51, -179352.78, -22363.70, -180342.72, 5945.99, -860.41, -180479.13, 0.08, 0.48, 0.92
76, -86458.35, -65467.88, -179658.06, -21632.76, -180660.73, 5592.83, -533.78, -180709.91, 0.08, 0.48, 0.92
77, -86463.18, -65232.45, -179555.22, -21729.16, -180627.81, 5584.25, -911.35, -180690.78, 0.08, 0.48, 0.92
78, -86101.20, -64235.02, -179254.77, -22489.21, -180227.27, 5934.66, -1331.81, -180463.84, 0.08, 0.49, 0.91
79, -86061.08, -64295.89, -179310.14, -22482.84, -180150.00, 5968.34, -966.20, -180458.50, 0.08, 0.49, 0.91
80, -86409.54, -65346.08, -179638.39, -21737.12, -180462.33, 5623.27, -535.39, -180672.98, 0.08, 0.49, 0.91
81, -86505.36, -65363.18, -179607.19, -21641.63, -180519.00, 5526.63, -803.68, -180732.67, 0.08, 0.49, 0.91
82, -86158.73, -64358.52, -179298.02, -22391.42, -179993.25, 5865.66, -1302.82, -180495.27, 0.08, 0.49, 0.91
83, -86016.13, -64163.56, -179256.20, -22577.32, -179691.28, 6016.04, -1061.51, -180450.92, 0.07, 0.49, 0.91
84, -86328.20, -65166.98, -179590.14, -21854.48, -180181.81, 5727.37, -545.38, -180627.25, 0.07, 0.49, 0.91
85, -86501.88, -65471.68, -179636.25, -21569.83, -180723.02, 5566.57, -694.58, -180748.78, 0.07, 0.49, 0.91
86, -86202.43, -64531.92, -179340.11, -22249.22, -180498.06, 5856.13, -1233.30, -180519.77, 0.07, 0.49, 0.91
87, -85983.31, -64095.19, -179219.80, -22628.48, -180243.77, 6061.32, -1149.37, -180433.22, 0.07, 0.49, 0.91
88, -86253.32, -65002.71, -179537.28, -21993.82, -180480.63, 5786.17, -600.46, -180578.73, 0.07, 0.48, 0.91
89, -86502.41, -65567.79, -179663.72, -21547.77, -180694.25, 5534.38, -630.43, -180764.47, 0.07, 0.48, 0.91
90, -86268.32, -64732.93, -179392.13, -22115.87, -180418.11, 5756.65, -1167.88, -180566.92, 0.07, 0.48, 0.91
91, -85979.47, -64074.27, -179193.73, -22655.97, -179929.38, 6038.35, -1236.30, -180434.88, 0.07, 0.48, 0.91
92, -86176.86, -64795.96, -179460.08, -22146.26, -180019.30, 5857.45, -674.71, -180532.67, 0.07, 0.48, 0.91
93, -86477.47, -65567.14, -179667.42, -21549.14, -180661.09, 5575.71, -555.75, -180749.50, 0.08, 0.48, 0.91
94, -86321.49, -64906.25, -179452.11, -21963.36, -180668.56, 5727.77, -1058.94, -180606.25, 0.08, 0.48, 0.91
95, -85983.11, -64070.04, -179202.00, -22628.06, -180297.56, 6051.62, -1274.92, -180437.95, 0.08, 0.48, 0.91
96, -86103.07, -64571.89, -179403.64, -22285.49, -180382.13, 5925.92, -751.35, -180509.16, 0.08, 0.48, 0.91
97, -86444.16, -65511.66, -179669.78, -21602.38, -180686.47, 5588.74, -514.25, -180739.23, 0.08, 0.48, 0.91
98, -86379.97, -65087.99, -179510.92, -21843.06, -180584.30, 5649.25, -956.21, -180662.91, 0.07, 0.50, 0.91
99, -86018.23, -64158.73, -179221.78, -22582.71, -180184.16, 5998.76, -1307.78, -180452.83, 0.07, 0.50, 0.91
100, -86052.13, -64420.88, -179345.89, -22424.14, -180181.47, 5960.09, -861.01, -180482.00, 0.07, 0.50, 0.91
101, -86406.27, -65444.21, -179657.61, -21686.94, -180500.09, 5607.18, -506.92, -180713.38, 0.07, 0.50, 0.91
102, -86433.90, -65279.92, -179569.19, -21734.66, -180486.00, 5575.87, -862.51, -180713.88, 0.07, 0.50, 0.91
103, -86071.23, -64281.65, -179257.00, -22495.15, -179923.36, 5931.21, -1310.73, -180476.11, 0.07, 0.49, 0.92
104, -85996.99, -64271.48, -179278.69, -22530.56, -179722.13, 6016.11, -969.95, -180459.00, 0.07, 0.49, 0.92
105, -86330.57, -65297.69, -179614.86, -21779.14, -180258.92, 5707.20, -507.00, -180657.47, 0.07, 0.49, 0.92
106, -86443.71, -65393.51, -179603.50, -21633.07, -180732.48, 5605.17, -746.50, -180731.17, 0.07, 0.49, 0.92
107, -86108.95, -64401.05, -179293.89, -22367.66, -180447.17, 5929.36, -1260.66, -180493.86, 0.07, 0.49, 0.92
108, -85953.61, -64142.73, -179236.02, -22610.73, -180256.13, 6072.70, -1066.22, -180438.55, 0.08, 0.49, 0.92
109, -86264.59, -65139.89, -179570.27, -21914.52, -180530.47, 5760.78, -547.98, -180612.19, 0.08, 0.49, 0.92
110, -86465.06, -65519.62, -179642.89, -21583.80, -180694.16, 5561.58, -668.70, -180760.25, 0.08, 0.49, 0.92
111, -86181.38, -64592.34, -179358.11, -22235.76, -180359.84, 5837.05, -1207.40, -180536.28, 0.08, 0.49, 0.92
112, -85940.09, -64078.47, -179213.27, -22658.03, -179888.94, 6076.01, -1156.64, -180437.16, 0.08, 0.49, 0.92
113, -86187.34, -64946.61, -179517.22, -22044.56, -180098.91, 5847.84, -593.13, -180565.19, 0.07, 0.49, 0.91
114, -86447.88, -65561.27, -179668.88, -21548.02, -180720.63, 5604.90, -575.02, -180756.22, 0.07, 0.49, 0.91
115, -86233.01, -64761.96, -179415.75, -22077.78, -180622.86, 5814.02, -1105.43, -180573.08, 0.07, 0.49, 0.91
116, -85929.55, -64055.29, -179204.13, -22656.96, -180284.30, 6103.03, -1218.17, -180432.95, 0.07, 0.49, 0.91
117, -86114.54, -64746.70, -179459.09, -22187.21, -180434.55, 5913.18, -668.97, -180526.89, 0.07, 0.49, 0.91
118, -86431.33, -65574.36, -179680.45, -21572.03, -180716.89, 5597.52, -526.70, -180756.22, 0.07, 0.49, 0.91
119, -86298.80, -64992.63, -179474.20, -21942.33, -180549.11, 5722.81, -1021.39, -180629.72, 0.07, 0.49, 0.91
120, -85953.38, -64121.99, -179206.83, -22627.65, -180166.92, 6057.75, -1272.64, -180448.27, 0.07, 0.49, 0.91
121, -86054.08, -64569.92, -179388.56, -22330.00, -180232.34, 5953.39, -767.36, -180506.22, 0.07, 0.49, 0.91
122, -86401.63, -65541.80, -179672.34, -21626.25, -180544.17, 5608.10, -499.03, -180741.91, 0.07, 0.49, 0.91
123, -86362.17, -65187.54, -179533.03, -21815.77, -180455.44, 5645.11, -922.17, -180685.61, 0.07, 0.48, 0.92
124, -85996.01, -64221.34, -179235.70, -22565.67, -179865.20, 6003.32, -1297.68, -180466.17, 0.07, 0.48, 0.92
125, -85993.53, -64405.07, -179329.06, -22455.79, -179780.42, 6020.40, -871.76, -180480.55, 0.07, 0.48, 0.92
126, -86336.09, -65443.11, -179647.83, -21702.36, -180369.77, 5701.71, -481.72, -180697.84, 0.07, 0.48, 0.92
127, -86383.14, -65335.78, -179576.17, -21695.21, -180750.86, 5660.56, -802.81, -180716.58, 0.07, 0.48, 0.92
128, -86024.27, -64319.69, -179262.19, -22458.14, -180408.14, 6006.90, -1266.25, -180479.25, 0.08, 0.49, 0.92
129, -85932.11, -64242.04, -179266.33, -22559.19, -180281.75, 6088.84, -967.94, -180453.94, 0.08, 0.49, 0.92
130, -86268.56, -65276.23, -179609.27, -21823.97, -180583.22, 5753.25, -493.57, -180654.06, 0.08, 0.49, 0.92
131, -86409.65, -65446.55, -179623.55, -21631.39, -180687.56, 5612.97, -703.41, -180751.80, 0.08, 0.49, 0.92
132, -86087.31, -64475.71, -179321.16, -22351.92, -180311.97, 5924.49, -1229.86, -180514.73, 0.08, 0.49, 0.92
133, -85906.38, -64147.56, -179237.50, -22643.28, -179896.20, 6101.82, -1068.41, -180450.19, 0.07, 0.49, 0.93
134, -86196.41, -65107.07, -179560.61, -21957.30, -180177.14, 5830.81, -527.97, -180608.84, 0.07, 0.49, 0.93
135, -86410.37, -65553.57, -179651.80, -21578.33, -180753.91, 5630.61, -610.49, -180765.69, 0.07, 0.49, 0.93
136, -86140.87, -64651.77, -179375.02, -22200.00, -180561.41, 5889.48, -1149.15, -180550.77, 0.07, 0.49, 0.93
137, -85882.30, -64087.86, -179211.30, -22669.09, -180266.64, 6134.57, -1146.42, -180445.89, 0.07, 0.49, 0.93
138, -86121.65, -64912.41, -179504.31, -22098.30, -180469.97, 5893.66, -590.73, -180575.63, 0.07, 0.49, 0.92
139, -86405.72, -65609.74, -179673.08, -21574.39, -180716.53, 5614.06, -551.28, -180776.98, 0.07, 0.49, 0.92
140, -86214.77, -64867.02, -179430.83, -22065.44, -180488.92, 5798.85, -1076.80, -180602.73, 0.07, 0.49, 0.92
141, -85896.97, -64111.04, -179202.41, -22678.06, -180137.08, 6103.39, -1228.47, -180452.33, 0.07, 0.49, 0.92
142, -86058.64, -64726.71, -179439.00, -22254.87, -180264.58, 5939.93, -687.05, -180546.08, 0.07, 0.49, 0.92
143, -86385.45, -65601.30, -179680.13, -21611.21, -180555.73, 5616.52, -508.73, -180773.45, 0.07, 0.48, 0.91
144, -86274.45, -65056.20, -179491.52, -21936.38, -180388.30, 5720.55, -981.40, -180657.52, 0.07, 0.48, 0.91
145, -85916.77, -64145.86, -179214.09, -22643.48, -179790.39, 6072.07, -1265.15, -180455.80, 0.07, 0.48, 0.91
146, -85980.61, -64515.20, -179366.53, -22388.67, -179822.61, 6022.07, -770.35, -180497.33, 0.07, 0.48, 0.91
147, -86320.40, -65497.45, -179657.45, -21662.51, -180435.33, 5703.47, -459.91, -180726.34, 0.07, 0.48, 0.91
148, -86301.34, -65201.51, -179537.81, -21802.34, -180724.39, 5725.02, -857.28, -180689.95, 0.07, 0.49, 0.91
149, -85937.47, -64236.30, -179235.53, -22560.58, -180359.89, 6077.89, -1266.49, -180467.84, 0.07, 0.49, 0.91
150, -85919.77, -64366.43, -179310.00, -22507.96, -180306.17, 6089.20, -876.95, -180475.00, 0.07, 0.49, 0.91
151, -86271.63, -65416.58, -179640.77, -21759.20, -180622.42, 5738.45, -469.88, -180695.91, 0.07, 0.49, 0.91
152, -86347.34, -65389.96, -179597.63, -21702.47, -180662.14, 5662.88, -768.30, -180737.52, 0.07, 0.49, 0.91
153, -85997.80, -64378.41, -179293.38, -22455.81, -180276.05, 6002.43, -1253.46, -180495.89, 0.07, 0.49, 0.91
154, -85882.48, -64227.27, -179275.58, -22609.21, -180125.58, 6109.58, -989.11, -180466.22, 0.07, 0.49, 0.91
155, -86210.36, -65252.50, -179611.39, -21888.50, -180419.28, 5782.62, -495.74, -180659.22, 0.07, 0.49, 0.91
156, -86373.98, -65490.32, -179645.55, -21647.62, -180546.77, 5619.83, -672.09, -180774.80, 0.07, 0.49, 0.91
157, -86062.75, -64505.77, -179346.50, -22347.41, -180085.78, 5925.20, -1196.98, -180534.91, 0.07, 0.49, 0.91
158, -85853.70, -64105.34, -179233.53, -22685.59, -179676.30, 6141.68, -1070.00, -180456.63, 0.06, 0.48, 0.92
159, -86126.68, -65032.89, -179549.23, -22023.08, -180084.06, 5893.73, -516.03, -180603.52, 0.06, 0.48, 0.92
160, -86355.11, -65548.39, -179659.84, -21599.72, -180673.17, 5682.84, -562.77, -180769.08, 0.06, 0.48, 0.92
161, -86103.92, -64686.04, -179389.84, -22191.01, -180574.95, 5925.49, -1103.28, -180560.97, 0.06, 0.48, 0.92
162, -85829.38, -64076.53, -179210.33, -22701.08, -180266.41, 6187.48, -1142.26, -180442.08, 0.06, 0.48, 0.92
163, -86052.07, -64856.47, -179495.52, -22161.33, -180453.03, 5962.51, -584.81, -180560.20, 0.07, 0.49, 0.91
164, -86348.23, -65608.83, -179687.72, -21601.75, -180713.80, 5668.47, -512.93, -180776.81, 0.07, 0.49, 0.91
165, -86176.63, -64930.50, -179460.16, -22048.79, -180507.31, 5833.07, -1033.70, -180618.16, 0.07, 0.49, 0.91
166, -85848.40, -64129.79, -179218.72, -22689.48, -180143.41, 6149.19, -1223.15, -180455.31, 0.07, 0.49, 0.91
167, -85989.08, -64692.11, -179436.36, -22307.55, -180248.97, 6006.38, -693.95, -180536.36, 0.07, 0.49, 0.91
168, -86322.92, -65607.87, -179689.94, -21638.50, -180548.73, 5675.49, -485.97, -180768.30, 0.07, 0.48, 0.92
169, -86238.75, -65126.21, -179516.59, -21918.21, -180410.67, 5756.13, -943.47, -180674.55, 0.07, 0.48, 0.92
170, -85876.61, -64196.15, -179229.48, -22644.26, -179810.25, 6112.67, -1262.54, -180467.73, 0.07, 0.48, 0.92
171, -85916.39, -64493.68, -179358.70, -22446.22, -179802.70, 6088.86, -796.82, -180503.88, 0.07, 0.48, 0.92
172, -86261.05, -65508.58, -179660.98, -21706.65, -180413.47, 5766.30, -455.68, -180728.11, 0.07, 0.48, 0.92
173, -86264.81, -65274.16, -179560.41, -21792.77, -180737.19, 5765.97, -824.91, -180709.78, 0.08, 0.48, 0.91
174, -85900.30, -64277.33, -179257.14, -22557.11, -180377.59, 6117.02, -1253.62, -180478.42, 0.08, 0.48, 0.91
175, -85854.55, -64336.28, -179307.23, -22557.04, -180296.89, 6152.65, -896.89, -180479.63, 0.08, 0.48, 0.91
176, -86200.86, -65387.25, -179638.89, -21809.07, -180607.66, 5807.18, -464.22, -180692.17, 0.08, 0.48, 0.91
177, -86301.11, -65429.72, -179609.11, -21705.53, -180671.06, 5706.27, -734.14, -180753.17, 0.08, 0.48, 0.91
178, -85958.46, -64421.77, -179296.25, -22452.01, -180264.69, 6037.47, -1236.86, -180508.45, 0.07, 0.48, 0.91
179, -85817.20, -64221.75, -179252.48, -22651.23, -179875.55, 6177.55, -1010.48, -180469.00, 0.07, 0.48, 0.91
180, -86129.45, -65229.88, -179588.81, -21931.11, -180235.52, 5885.73, -496.86, -180647.17, 0.07, 0.48, 0.91
181, -86306.43, -65541.95, -179645.72, -21636.02, -180776.97, 5719.23, -640.29, -180773.86, 0.07, 0.48, 0.91
182, -86008.41, -64587.31, -179359.41, -22311.67, -180538.03, 6006.05, -1177.47, -180542.30, 0.07, 0.48, 0.91
183, -85784.41, -64125.95, -179233.58, -22702.60, -180278.61, 6216.33, -1102.08, -180456.36, 0.07, 0.49, 0.92
184, -86050.32, -65023.64, -179542.97, -22077.76, -180510.05, 5946.88, -554.64, -180599.25, 0.07, 0.49, 0.92
185, -86303.95, -65601.59, -179674.20, -21619.75, -180728.28, 5692.41, -574.86, -180786.92, 0.07, 0.49, 0.92
186, -86073.93, -64776.25, -179410.25, -22179.43, -180461.42, 5913.24, -1113.16, -180587.27, 0.07, 0.49, 0.92
187, -85785.01, -64106.01, -179211.52, -22729.85, -180135.05, 6189.65, -1193.40, -180451.55, 0.07, 0.49, 0.92
188, -85988.74, -64825.46, -179480.91, -22232.70, -180302.36, 5982.38, -642.48, -180555.13, 0.08, 0.49, 0.92
189, -86297.22, -65603.13, -179689.73, -21643.17, -180575.31, 5674.46, -529.18, -180783.23, 0.08, 0.49, 0.92
190, -86145.09, -64956.20, -179469.58, -22054.55, -180356.38, 5818.58, -1031.91, -180636.41, 0.08, 0.49, 0.92
191, -85800.32, -64130.10, -179207.94, -22720.37, -179763.11, 6156.92, -1259.54, -180453.70, 0.08, 0.49, 0.92
192, -85907.20, -64625.04, -179399.14, -22372.11, -179873.91, 6066.06, -735.42, -180509.94, 0.08, 0.49, 0.92
193, -86239.24, -65570.70, -179666.25, -21674.87, -180502.94, 5756.11, -490.42, -180740.80, 0.07, 0.49, 0.92
194, -86176.95, -65162.75, -179523.55, -21900.84, -180718.66, 5818.00, -930.48, -180670.53, 0.07, 0.49, 0.92
195, -85816.01, -64222.37, -179240.52, -22642.67, -180343.80, 6164.92, -1290.19, -180466.91, 0.07, 0.49, 0.92
196, -85844.91, -64469.61, -179358.86, -22495.62, -180334.36, 6129.32, -855.60, -180492.83, 0.07, 0.49, 0.92
197, -86197.24, -65507.30, -179669.48, -21757.54, -180652.61, 5775.74, -502.78, -180721.14, 0.07, 0.49, 0.92
198, -86228.94, -65350.66, -179586.58, -21796.32, -180648.84, 5739.99, -855.98, -180725.72, 0.07, 0.49, 0.93
199, -85869.12, -64347.92, -179280.25, -22557.22, -180253.00, 6087.97, -1307.93, -180491.17, 0.07, 0.49, 0.93
200, -85795.20, -64325.64, -179304.09, -22616.21, -180144.08, 6152.85, -987.37, -180473.25, 0.07, 0.49, 0.93
201, -86135.20, -65378.74, -179639.53, -21875.14, -180451.38, 5810.92, -533.18, -180680.39, 0.07, 0.49, 0.93
202, -86257.32, -65500.46, -179635.27, -21719.59, -180537.22, 5686.84, -773.55, -180762.91, 0.07, 0.49, 0.93
203, -85925.18, -64501.70, -179332.59, -22447.90, -180032.98, 6010.70, -1288.62, -180521.05, 0.07, 0.48, 0.92
204, -85759.86, -64222.64, -179265.59, -22693.59, -179694.81, 6182.56, -1096.11, -180464.83, 0.07, 0.48, 0.92
205, -86058.55, -65202.70, -179590.77, -21992.06, -180155.66, 5904.64, -568.56, -180630.88, 0.07, 0.48, 0.92
206, -86254.46, -65573.53, -179659.63, -21653.14, -180721.27, 5721.44, -678.69, -180772.91, 0.07, 0.48, 0.92
207, -85970.39, -64642.92, -179371.05, -22304.45, -180545.06, 5995.88, -1219.00, -180555.42, 0.07, 0.48, 0.92
208, -85726.52, -64140.77, -179225.64, -22737.33, -180265.72, 6227.51, -1185.36, -180455.19, 0.07, 0.49, 0.92
209, -85979.63, -64996.95, -179530.97, -22138.06, -180483.16, 5972.32, -629.36, -180588.70, 0.07, 0.49, 0.92
210, -86248.59, -65633.37, -179686.52, -21645.47, -180715.20, 5702.35, -616.75, -180784.30, 0.07, 0.49, 0.92
211, -86038.41, -64861.99, -179439.94, -22169.49, -180460.98, 5902.72, -1155.90, -180599.14, 0.07, 0.49, 0.92
212, -85734.18, -64150.44, -179228.38, -22751.79, -179954.80, 6198.23, -1276.51, -180456.59, 0.07, 0.49, 0.92
213, -85908.73, -64808.68, -179474.05, -22285.13, -180012.70, 6038.08, -722.54, -180545.92, 0.08, 0.49, 0.92
214, -86221.80, -65635.13, -179692.19, -21659.42, -180655.38, 5744.24, -571.60, -180765.41, 0.08, 0.49, 0.92
215, -86092.52, -65035.55, -179495.98, -22023.87, -180711.81, 5870.33, -1059.07, -180638.77, 0.08, 0.49, 0.92
216, -85743.05, -64166.02, -179231.86, -22716.12, -180331.31, 6205.49, -1320.32, -180455.73, 0.08, 0.49, 0.92
217, -85838.98, -64618.46, -179410.55, -22424.63, -180390.47, 6104.44, -824.69, -180520.19, 0.08, 0.49, 0.92
218, -86187.72, -65601.36, -179690.56, -21717.94, -180702.19, 5758.64, -557.47, -180751.64, 0.08, 0.49, 0.92
219, -86152.80, -65248.74, -179557.95, -21898.09, -180630.94, 5788.12, -976.53, -180699.23, 0.08, 0.49, 0.92
220, -85789.75, -64279.86, -179265.34, -22650.36, -180230.92, 6134.30, -1361.91, -180481.55, 0.08, 0.49, 0.92
221, -85792.05, -64457.31, -179360.89, -22553.96, -180196.56, 6122.66, -948.32, -180499.88, 0.08, 0.49, 0.92
222, -86146.21, -65500.82, -179676.39, -21811.55, -180513.95, 5769.01, -564.96, -180724.89, 0.08, 0.49, 0.92
223, -86202.18, -65397.04, -179609.16, -21802.36, -180528.27, 5709.04, -883.81, -180748.53, 0.08, 0.49, 0.92
224, -85843.26, -64391.21, -179296.09, -22562.45, -179975.22, 6058.24, -1353.85, -180503.83, 0.07, 0.49, 0.91
225, -85743.23, -64302.03, -179292.55, -22660.04, -179732.89, 6166.78, -1054.29, -180477.95, 0.07, 0.49, 0.91
226, -86071.00, -65328.60, -179628.69, -21916.71, -180253.38, 5862.84, -571.67, -180667.13, 0.07, 0.49, 0.91
227, -86211.03, -65517.14, -179645.14, -21708.97, -180757.14, 5732.71, -778.94, -180761.81, 0.07, 0.49, 0.91
228, -85890.51, -64537.39, -179346.84, -22423.96, -180494.11, 6041.30, -1307.55, -180526.00, 0.07, 0.49, 0.91
229, -85708.63, -64206.25, -179264.20, -22721.60, -180274.55, 6211.46, -1160.97, -180459.17, 0.08, 0.48, 0.92
230, -86005.40, -65169.84, -179593.52, -22043.78, -180535.55, 5911.70, -630.27, -180623.30, 0.08, 0.48, 0.92
231, -86226.37, -65616.83, -179682.98, -21668.00, -180720.75, 5689.77, -715.64, -180786.48, 0.08, 0.48, 0.92
232, -85958.73, -64730.45, -179392.50, -22289.31, -180405.89, 5945.59, -1260.88, -180567.67, 0.08, 0.48, 0.92
233, -85694.62, -64163.27, -179225.64, -22761.65, -179918.14, 6199.21, -1266.25, -180455.95, 0.08, 0.48, 0.92
234, -85923.66, -64981.95, -179515.09, -22186.43, -180092.48, 5985.39, -706.00, -180575.00, 0.08, 0.48, 0.92
235, -86201.58, -65668.59, -179688.31, -21648.51, -180728.52, 5722.56, -655.55, -180775.22, 0.08, 0.48, 0.92
236, -86010.09, -64926.59, -179455.16, -22130.77, -180666.97, 5903.90, -1181.89, -180605.11, 0.08, 0.48, 0.92
237, -85691.65, -64166.98, -179229.78, -22745.31, -180313.73, 6206.16, -1340.32, -180456.42, 0.08, 0.48, 0.92
238, -85853.59, -64782.75, -179465.14, -22326.58, -180437.84, 6040.25, -805.42, -180550.61, 0.08, 0.48, 0.92
239, -86183.09, -65666.07, -179703.58, -21678.51, -180730.17, 5710.62, -628.89, -180775.67, 0.07, 0.48, 0.92
240, -86076.32, -65132.89, -179513.27, -21996.37, -180588.28, 5807.45, -1103.48, -180669.25, 0.07, 0.48, 0.92
241, -85721.77, -64231.60, -179236.78, -22709.26, -180197.34, 6146.10, -1399.67, -180476.05, 0.07, 0.48, 0.92
242, -85794.28, -64600.72, -179395.59, -22469.20, -180232.39, 6067.56, -921.25, -180513.58, 0.07, 0.48, 0.92
243, -86145.88, -65601.79, -179690.16, -21748.25, -180548.20, 5717.60, -618.34, -180750.89, 0.07, 0.48, 0.92
244, -86135.44, -65312.06, -179573.48, -21881.46, -180490.73, 5723.72, -1014.26, -180718.77, 0.07, 0.49, 0.92
245, -85769.27, -64320.54, -179269.17, -22642.14, -179903.75, 6083.38, -1421.88, -180487.47, 0.07, 0.49, 0.92
246, -85738.43, -64420.83, -179334.05, -22591.91, -179777.02, 6125.36, -1026.37, -180491.45, 0.07, 0.49, 0.92
247, -86079.52, -65458.69, -179656.05, -21837.07, -180346.52, 5804.90, -609.17, -180699.97, 0.07, 0.49, 0.92
248, -86153.99, -65434.04, -179604.53, -21773.53, -180766.06, 5737.54, -901.80, -180739.27, 0.07, 0.49, 0.92
249, -85804.55, -64446.45, -179293.59, -22528.68, -180442.34, 6073.39, -1399.73, -180498.52, 0.07, 0.48, 0.92
250, -85689.52, -64302.86, -179277.38, -22684.92, -180288.41, 6177.33, -1147.05, -180466.03, 0.07, 0.48, 0.92
251, -86020.26, -65325.14, -179621.11, -21959.69, -180581.92, 5846.52, -655.38, -180657.98, 0.07, 0.48, 0.92
252, -86187.70, -65587.84, -179657.48, -21711.23, -180712.42, 5677.54, -837.54, -180776.70, 0.07, 0.48, 0.92
253, -85879.80, -64625.20, -179354.28, -22406.08, -180367.08, 5973.82, -1373.27, -180540.44, 0.07, 0.48, 0.92
254, -85674.84, -64232.96, -179247.63, -22755.24, -180125.95, 6165.15, -1268.89, -180468.36, 0.07, 0.49, 0.92
255, -85956.05, -65163.29, -179570.75, -22104.62, -180372.31, 5880.79, -727.50, -180623.66, 0.07, 0.49, 0.92
0, -86194.85, -65682.32, -179686.03, -21681.50, -180574.97, 5639.30, -774.17, -180799.05, 0.07, 0.49, 0.92
1, -85947.46, -64824.95, -179413.78, -22268.88, -180220.23, 5874.64, -1315.42, -180589.17, 0.07, 0.49, 0.92
2, -85666.41, -64194.92, -179225.25, -22778.80, -179697.64, 6154.75, -1355.63, -180466.69, 0.07, 0.49, 0.92
3, -85874.57, -64943.13, -179496.84, -22241.42, -179989.89, 5965.26, -790.11, -180578.44, 0.07, 0.48, 0.92
4, -86166.77, -65680.40, -179687.39, -21669.95, -180616.75, 5691.94, -700.68, -180786.11, 0.07, 0.48, 0.92
5, -85996.70, -64983.18, -179469.66, -22111.26, -180655.67, 5856.67, -1214.10, -180626.09, 0.07, 0.48, 0.92
6, -85666.68, -64177.64, -179231.02, -22758.05, -180295.44, 6169.62, -1409.26, -180460.61, 0.07, 0.48, 0.92
7, -85806.09, -64733.96, -179447.52, -22382.43, -180397.80, 6024.47, -882.25, -180539.48, 0.07, 0.48, 0.92
8, -86142.41, -65654.76, -179703.42, -21709.56, -180696.14, 5689.03, -671.94, -180770.80, 0.07, 0.48, 0.92
9, -86062.41, -65184.30, -179538.91, -21978.49, -180575.84, 5763.37, -1130.15, -180680.30, 0.07, 0.48, 0.92
10, -85703.80, -64262.18, -179256.94, -22706.04, -180065.22, 6111.12, -1460.93, -180476.16, 0.07, 0.48, 0.92
11, -85746.79, -64563.95, -179389.58, -22508.79, -179910.50, 6075.87, -996.89, -180505.16, 0.07, 0.48, 0.92
12, -86094.91, -65581.65, -179686.34, -21770.51, -180511.88, 5749.07, -660.56, -180731.27, 0.07, 0.48, 0.92
13, -86107.45, -65361.10, -179579.11, -21851.42, -180797.59, 5740.82, -1032.34, -180718.14, 0.08, 0.48, 0.92
14, -85744.28, -64361.00, -179269.34, -22613.57, -180420.56, 6089.75, -1466.88, -180491.58, 0.08, 0.48, 0.92
15, -85695.06, -64400.89, -179315.61, -22621.66, -180333.78, 6130.50, -1116.58, -180477.67, 0.08, 0.48, 0.92
16, -86042.05, -65458.73, -179653.09, -21872.21, -180642.64, 5784.72, -683.43, -180690.02, 0.08, 0.48, 0.92
17, -86145.23, -65503.33, -179625.92, -21759.00, -180707.81, 5678.37, -947.29, -180755.67, 0.08, 0.48, 0.92
18, -85805.04, -64494.82, -179308.86, -22501.63, -180328.53, 6006.79, -1451.25, -180516.13, 0.07, 0.49, 0.92
19, -85664.66, -64285.52, -179265.41, -22707.34, -180151.55, 6136.02, -1234.08, -180467.95, 0.07, 0.49, 0.92
20, -85984.63, -65292.66, -179604.84, -21994.99, -180435.25, 5815.21, -725.07, -180651.16, 0.07, 0.49, 0.92
21, -86171.88, -65619.65, -179660.20, -21698.00, -180583.81, 5627.41, -868.81, -180785.42, 0.07, 0.49, 0.92
22, -85876.74, -64676.02, -179363.84, -22368.11, -180159.02, 5913.02, -1408.25, -180555.02, 0.07, 0.49, 0.92
23, -85643.79, -64221.81, -179232.06, -22754.39, -179704.47, 6144.96, -1336.28, -180461.19, 0.08, 0.48, 0.92
24, -85898.96, -65107.34, -179543.88, -22117.07, -180079.45, 5907.74, -777.06, -180595.47, 0.08, 0.48, 0.92
25, -86147.62, -65674.41, -179683.03, -21647.26, -180685.17, 5675.76, -785.80, -180776.52, 0.08, 0.48, 0.92
26, -85917.55, -64865.12, -179426.66, -22196.76, -180605.47, 5898.27, -1324.77, -180587.22, 0.08, 0.48, 0.92
27, -85625.20, -64198.59, -179227.39, -22744.46, -180278.56, 6176.46, -1412.88, -180456.75, 0.08, 0.48, 0.92
28, -85824.57, -64899.70, -179492.69, -22248.54, -180442.25, 5971.36, -861.46, -180560.25, 0.08, 0.48, 0.91
29, -86133.61, -65699.76, -179702.00, -21651.91, -180714.66, 5660.53, -745.92, -180781.73, 0.08, 0.48, 0.91
30, -85986.09, -65066.42, -179487.20, -22052.65, -180528.42, 5796.79, -1250.02, -180641.56, 0.08, 0.48, 0.91
31, -85644.15, -64232.00, -179229.95, -22719.52, -180015.00, 6125.00, -1482.30, -180465.83, 0.08, 0.48, 0.91
32, -85750.70, -64720.08, -179422.83, -22381.11, -179958.22, 6029.18, -965.04, -180522.27, 0.08, 0.48, 0.91
33, -86083.83, -65660.10, -179697.30, -21682.24, -180594.28, 5715.07, -713.27, -180750.27, 0.07, 0.48, 0.91
34, -86026.79, -65248.03, -179547.16, -21901.51, -180756.78, 5770.24, -1144.72, -180682.02, 0.07, 0.48, 0.91
35, -85665.88, -64298.64, -179256.45, -22643.63, -180367.55, 6116.40, -1505.46, -180473.44, 0.07, 0.48, 0.91
36, -85690.26, -64540.32, -179371.53, -22505.12, -180354.09, 6083.68, -1076.53, -180492.59, 0.07, 0.48, 0.91
37, -86043.75, -65573.38, -179686.09, -21768.10, -180670.63, 5729.69, -717.92, -180722.50, 0.07, 0.48, 0.91
38, -86081.48, -65433.77, -179604.06, -21795.99, -180671.30, 5687.65, -1063.41, -180732.91, 0.07, 0.48, 0.91
39, -85724.41, -64443.92, -179295.23, -22554.50, -180276.16, 6032.60, -1523.61, -180500.83, 0.07, 0.48, 0.91
40, -85653.06, -64423.58, -179319.25, -22612.99, -180166.34, 6095.19, -1204.69, -180483.67, 0.07, 0.48, 0.91
41, -85995.34, -65475.19, -179652.86, -21873.10, -180470.97, 5752.80, -751.04, -180688.61, 0.07, 0.48, 0.91
42, -86121.31, -65610.10, -179645.20, -21713.06, -180558.22, 5623.10, -988.53, -180773.58, 0.07, 0.48, 0.91
43, -85790.51, -64616.88, -179335.34, -22439.50, -180064.53, 5942.68, -1504.07, -180534.50, 0.07, 0.49, 0.91
44, -85620.74, -64323.96, -179263.84, -22695.25, -179713.67, 6117.00, -1317.88, -180472.98, 0.07, 0.49, 0.91
45, -85918.36, -65300.04, -179591.83, -21996.66, -180171.45, 5842.25, -783.65, -180635.28, 0.07, 0.49, 0.91
46, -86120.58, -65695.04, -179667.94, -21645.67, -180739.48, 5654.97, -885.67, -180781.06, 0.07, 0.49, 0.91
47, -85842.03, -64776.16, -179380.09, -22287.13, -180555.27, 5924.55, -1426.18, -180567.08, 0.07, 0.49, 0.91
48, -85598.04, -64253.53, -179229.80, -22722.36, -180273.67, 6157.99, -1396.40, -180467.47, 0.07, 0.48, 0.92
49, -85848.66, -65101.82, -179535.19, -22127.20, -180487.92, 5905.76, -841.41, -180599.78, 0.07, 0.48, 0.92
50, -86120.84, -65733.33, -179697.20, -21625.56, -180723.45, 5635.14, -818.59, -180797.80, 0.07, 0.48, 0.92
51, -85913.95, -64949.61, -179451.33, -22143.69, -180469.75, 5834.52, -1346.85, -180611.00, 0.07, 0.48, 0.92
52, -85605.03, -64236.81, -179235.66, -22731.03, -179948.09, 6133.16, -1470.72, -180466.91, 0.07, 0.48, 0.92
53, -85774.80, -64892.01, -179481.86, -22267.95, -180030.47, 5976.14, -915.17, -180561.16, 0.07, 0.49, 0.91
54, -86086.60, -65725.34, -179706.25, -21636.46, -180683.50, 5680.20, -757.97, -180778.36, 0.07, 0.49, 0.91
55, -85962.10, -65153.77, -179502.09, -21990.67, -180732.58, 5799.25, -1247.61, -180656.78, 0.07, 0.49, 0.91
56, -85613.02, -64283.37, -179231.45, -22682.44, -180350.23, 6133.16, -1514.80, -180470.69, 0.07, 0.49, 0.91
57, -85704.07, -64715.70, -179408.64, -22398.32, -180405.42, 6033.88, -1020.07, -180519.75, 0.07, 0.49, 0.91
58, -86051.82, -65696.05, -179694.41, -21687.72, -180717.16, 5685.79, -744.22, -180758.02, 0.07, 0.49, 0.91
59, -86020.38, -65358.55, -179558.39, -21861.19, -180647.70, 5711.41, -1160.21, -180708.91, 0.07, 0.49, 0.91
60, -85658.81, -64387.48, -179260.78, -22614.85, -180248.42, 6058.08, -1547.70, -180491.47, 0.07, 0.49, 0.91
61, -85653.87, -64554.38, -179350.95, -22530.13, -180207.69, 6053.08, -1143.76, -180503.66, 0.07, 0.49, 0.91
62, -86007.63, -65608.23, -179673.52, -21783.67, -180524.55, 5700.99, -753.23, -180728.88, 0.07, 0.49, 0.91
63, -86069.66, -65532.45, -179613.14, -21760.70, -180545.06, 5637.31, -1068.17, -180758.27, 0.07, 0.48, 0.91
64, -85712.73, -64518.35, -179302.48, -22513.53, -180001.25, 5983.67, -1535.14, -180515.25, 0.07, 0.48, 0.91
65, -85607.45, -64412.16, -179295.09, -22620.81, -179743.05, 6095.88, -1240.52, -180484.45, 0.07, 0.48, 0.91
66, -85932.59, -65433.54, -179626.33, -21879.27, -180263.84, 5793.44, -750.46, -180672.77, 0.07, 0.48, 0.91
67, -86076.84, -65616.25, -179644.67, -21664.96, -180766.83, 5659.93, -945.12, -180770.63, 0.07, 0.48, 0.91
68, -85759.17, -64640.30, -179346.80, -22376.98, -180496.52, 5967.78, -1474.37, -180536.08, 0.07, 0.48, 0.91
69, -85574.81, -64294.01, -179260.67, -22684.43, -180274.33, 6141.39, -1331.65, -180466.30, 0.07, 0.48, 0.91
70, -85868.67, -65255.13, -179591.36, -22015.62, -180532.50, 5845.79, -798.43, -180626.81, 0.07, 0.48, 0.91
71, -86092.68, -65736.45, -179689.33, -21629.47, -180720.31, 5622.49, -880.30, -180792.69, 0.07, 0.48, 0.91
72, -85831.48, -64852.78, -179407.34, -22241.48, -180406.38, 5875.11, -1422.84, -180577.92, 0.07, 0.48, 0.91
73, -85566.77, -64271.81, -179237.14, -22719.56, -179911.28, 6134.19, -1432.99, -180463.64, 0.07, 0.48, 0.91
74, -85792.79, -65073.12, -179523.28, -22150.40, -180091.69, 5926.23, -870.18, -180578.44, 0.07, 0.48, 0.91
75, -86072.23, -65767.13, -179696.89, -21606.94, -180727.19, 5663.02, -810.09, -180782.06, 0.07, 0.48, 0.91
76, -85885.73, -65033.76, -179461.28, -22083.75, -180679.63, 5841.67, -1329.86, -180616.58, 0.07, 0.48, 0.91
77, -85566.97, -64262.36, -179231.19, -22707.70, -180323.88, 6146.98, -1493.97, -180464.72, 0.07, 0.48, 0.91
78, -85721.22, -64854.37, -179462.03, -22303.04, -180441.77, 5987.00, -958.93, -180552.78, 0.07, 0.48, 0.92
79, -86052.05, -65731.83, -179707.38, -21649.27, -180734.92, 5656.20, -765.79, -180779.41, 0.07, 0.48, 0.92
80, -85949.59, -65212.40, -179519.75, -21958.26, -180596.13, 5749.14, -1235.25, -180672.67, 0.07, 0.48, 0.92
81, -85593.56, -64313.43, -179239.13, -22672.07, -180204.55, 6089.80, -1535.99, -180477.08, 0.07, 0.48, 0.92
82, -85662.55, -64673.00, -179393.38, -22437.84, -180236.89, 6015.39, -1055.85, -180522.36, 0.07, 0.48, 0.92
83, -86016.46, -65669.36, -179693.92, -21714.52, -180553.16, 5663.80, -744.56, -180757.34, 0.07, 0.49, 0.92
84, -86010.94, -65392.80, -179574.52, -21839.91, -180501.17, 5665.25, -1136.34, -180728.47, 0.07, 0.49, 0.92
85, -85645.06, -64407.58, -179265.30, -22599.63, -179921.91, 6023.93, -1549.22, -180498.83, 0.07, 0.49, 0.92
86, -85609.48, -64493.18, -179325.89, -22556.51, -179780.75, 6070.26, -1159.27, -180499.98, 0.07, 0.49, 0.92
87, -85949.14, -65522.01, -179658.02, -21800.57, -180339.48, 5753.03, -733.11, -180707.25, 0.07, 0.49, 0.92
88, -86026.66, -65516.20, -179622.50, -21726.05, -180765.45, 5684.67, -1015.91, -180750.80, 0.07, 0.49, 0.92
89, -85678.28, -64523.65, -179317.58, -22477.18, -180450.64, 6019.68, -1511.11, -180517.67, 0.07, 0.49, 0.92
90, -85558.02, -64367.68, -179294.44, -22642.07, -180292.66, 6129.47, -1261.00, -180482.75, 0.07, 0.49, 0.92
91, -85885.39, -65384.48, -179630.97, -21923.73, -180583.06, 5800.97, -765.35, -180671.30, 0.07, 0.49, 0.92
92, -86056.83, -65659.23, -179667.05, -21668.47, -180717.31, 5627.30, -938.97, -180792.02, 0.07, 0.49, 0.92
93, -85752.82, -64702.98, -179365.23, -22358.54, -180353.58, 5920.57, -1474.81, -180558.19, 0.07, 0.48, 0.92
94, -85542.54, -64298.99, -179251.34, -22712.32, -179899.66, 6126.37, -1372.55, -180478.14, 0.07, 0.48, 0.92
95, -85815.74, -65217.09, -179567.36, -22057.19, -180179.44, 5874.04, -821.38, -180622.19, 0.07, 0.48, 0.92
96, -86051.95, -65746.78, -179685.84, -21619.03, -180781.95, 5651.77, -860.59, -180794.81, 0.07, 0.48, 0.92
97, -85808.26, -64893.80, -179422.75, -22197.61, -180624.47, 5886.15, -1400.54, -180593.47, 0.07, 0.48, 0.92
98, -85527.96, -64259.05, -179237.22, -22720.14, -180307.81, 6153.84, -1455.90, -180468.14, 0.07, 0.49, 0.92
99, -85742.98, -65018.79, -179516.52, -22195.91, -180486.78, 5937.76, -903.26, -180578.00, 0.07, 0.49, 0.92
100, -86045.77, -65779.48, -179714.44, -21626.25, -180752.09, 5637.09, -815.35, -180798.09, 0.07, 0.49, 0.92
101, -85882.64, -65098.94, -179488.22, -22063.50, -180550.13, 5793.37, -1325.26, -180645.61, 0.07, 0.49, 0.92
102, -85551.55, -64283.66, -179241.78, -22715.99, -180181.89, 6111.84, -1525.15, -180479.73, 0.07, 0.49, 0.92
103, -85684.98, -64813.89, -179453.08, -22353.17, -180278.69, 5973.19, -996.98, -180552.17, 0.07, 0.49, 0.92
104, -86022.38, -65742.55, -179710.13, -21679.94, -180578.22, 5636.86, -775.96, -180785.31, 0.07, 0.49, 0.92
105, -85947.51, -65282.07, -179542.55, -21942.30, -180448.72, 5707.41, -1224.47, -180698.02, 0.07, 0.49, 0.92
106, -85586.50, -64343.38, -179252.45, -22671.66, -179851.78, 6062.60, -1552.24, -180487.45, 0.07, 0.49, 0.92
107, -85622.69, -64624.66, -179378.42, -22481.72, -179828.77, 6040.25, -1087.21, -180517.39, 0.07, 0.49, 0.92
108, -85968.16, -65633.95, -179686.58, -21739.84, -180436.39, 5716.19, -741.65, -180740.22, 0.07, 0.49, 0.92
109, -85981.70, -65429.16, -179591.52, -21809.20, -180765.95, 5705.46, -1104.73, -180730.75, 0.07, 0.49, 0.92
110, -85619.16, -64447.70, -179287.50, -22573.16, -180406.38, 6054.89, -1545.58, -180505.78, 0.07, 0.49, 0.92
111, -85565.76, -64480.11, -179332.23, -22590.06, -180317.11, 6098.52, -1196.62, -180502.63, 0.07, 0.49, 0.92
112, -85910.11, -65532.94, -179668.84, -21843.15, -180625.98, 5753.07, -757.61, -180711.48, 0.07, 0.49, 0.92
113, -86017.24, -65604.76, -179647.09, -21719.23, -180696.64, 5642.27, -1018.95, -180778.41, 0.08, 0.48, 0.92
114, -85677.01, -64599.96, -179334.92, -22459.14, -180276.94, 5967.96, -1525.71, -180536.98, 0.08, 0.48, 0.92
115, -85526.91, -64370.81, -179282.95, -22676.00, -179873.78, 6117.43, -1310.75, -180487.16, 0.08, 0.48, 0.92
116, -85836.55, -65367.09, -179617.77, -21963.45, -180285.44, 5828.04, -790.45, -180660.38, 0.08, 0.48, 0.92
117, -86023.99, -65709.50, -179678.89, -21652.51, -180829.16, 5651.19, -924.20, -180795.09, 0.08, 0.48, 0.92
118, -85734.80, -64771.20, -179386.25, -22317.46, -180579.41, 5930.90, -1464.75, -180570.39, 0.08, 0.49, 0.91
119, -85506.46, -64292.24, -179254.48, -22720.62, -180313.64, 6146.26, -1402.24, -180479.20, 0.08, 0.49, 0.91
120, -85769.16, -65162.91, -179566.22, -22103.88, -180539.44, 5880.34, -848.56, -180617.78, 0.08, 0.49, 0.91
121, -86030.16, -65764.69, -179707.50, -21634.07, -180762.66, 5619.92, -855.89, -180810.39, 0.08, 0.49, 0.91
122, -85806.69, -64947.73, -179446.23, -22181.71, -180500.81, 5833.67, -1389.29, -180616.81, 0.08, 0.49, 0.91
123, -85510.66, -64258.92, -179242.16, -22743.50, -180167.09, 6115.91, -1479.46, -180480.86, 0.08, 0.48, 0.91
124, -85708.16, -64965.37, -179504.08, -22257.46, -180327.25, 5916.60, -926.37, -180584.75, 0.08, 0.48, 0.91
125, -86021.40, -65778.74, -179716.47, -21655.29, -180603.16, 5604.16, -803.86, -180808.34, 0.08, 0.48, 0.91
126, -85880.14, -65156.68, -179508.33, -22044.81, -180396.92, 5735.95, -1302.35, -180670.50, 0.08, 0.48, 0.91
127, -85535.38, -64313.90, -179247.39, -22718.29, -179801.98, 6074.04, -1539.79, -180487.45, 0.08, 0.48, 0.91
128, -85636.93, -64781.07, -179433.41, -22388.42, -179892.67, 5989.04, -1017.97, -180545.03, 0.07, 0.49, 0.91
129, -85972.09, -65732.90, -179708.00, -21686.02, -180523.17, 5675.06, -760.54, -180769.91, 0.07, 0.49, 0.91
130, -85918.36, -65334.66, -179562.11, -21896.91, -180746.89, 5729.44, -1191.26, -180702.50, 0.07, 0.49, 0.91
131, -85555.79, -64374.45, -179272.58, -22643.32, -180370.34, 6077.48, -1556.31, -180490.78, 0.07, 0.49, 0.91
132, -85572.49, -64595.64, -179382.75, -22521.93, -180350.50, 6053.39, -1134.44, -180514.02, 0.07, 0.49, 0.91
133, -85926.48, -65638.42, -179698.55, -21780.03, -180668.30, 5700.79, -767.38, -180741.70, 0.07, 0.49, 0.91
134, -85968.36, -65496.82, -179617.47, -21800.19, -180673.09, 5654.34, -1106.79, -180753.48, 0.07, 0.49, 0.91
135, -85609.80, -64496.40, -179303.72, -22561.29, -180236.97, 5999.01, -1566.12, -180514.36, 0.07, 0.49, 0.91
136, -85527.96, -64459.23, -179319.81, -22626.07, -179902.02, 6081.66, -1246.98, -180496.97, 0.07, 0.49, 0.91
137, -85862.34, -65492.40, -179656.13, -21875.14, -180331.66, 5772.02, -774.62, -180692.23, 0.07, 0.49, 0.91
138, -85989.75, -65629.32, -179655.84, -21700.06, -180807.88, 5654.79, -999.48, -180775.63, 0.07, 0.49, 0.92
139, -85661.18, -64630.22, -179349.11, -22427.45, -180512.06, 5970.89, -1518.62, -180536.98, 0.07, 0.49, 0.92
140, -85490.97, -64336.84, -179281.56, -22701.59, -180305.69, 6126.52, -1347.85, -180476.94, 0.07, 0.49, 0.92
141, -85795.24, -65332.92, -179618.77, -22015.84, -180573.97, 5819.54, -826.77, -180646.95, 0.07, 0.49, 0.92
142, -86006.41, -65752.03, -179699.66, -21663.02, -180747.53, 5607.16, -933.59, -180801.80, 0.07, 0.49, 0.92
143, -85730.91, -64838.81, -179405.98, -22300.02, -180434.27, 5869.23, -1474.43, -180585.19, 0.07, 0.49, 0.91
144, -85479.48, -64299.89, -179253.81, -22746.47, -180147.55, 6104.17, -1451.50, -180483.56, 0.07, 0.49, 0.91
145, -85725.84, -65142.04, -179555.05, -22159.96, -180357.45, 5852.94, -897.06, -180615.50, 0.07, 0.49, 0.91
146, -86004.01, -65803.96, -179716.31, -21650.68, -180596.05, 5577.36, -869.62, -180813.33, 0.07, 0.49, 0.91
147, -85802.73, -65036.51, -179470.63, -22159.41, -180306.36, 5772.07, -1399.60, -180635.23, 0.07, 0.49, 0.91
148, -85489.63, -64299.62, -179249.97, -22752.78, -179740.45, 6081.86, -1528.28, -180484.45, 0.07, 0.49, 0.92
149, -85653.34, -64932.13, -179486.95, -22304.38, -179947.94, 5935.57, -973.60, -180562.84, 0.07, 0.49, 0.92
150, -85970.22, -65771.62, -179713.42, -21664.47, -180579.16, 5638.83, -798.52, -180786.47, 0.07, 0.49, 0.92
151, -85848.06, -65182.36, -179514.55, -22011.86, -180701.69, 5756.49, -1274.03, -180668.61, 0.07, 0.49, 0.92
152, -85494.37, -64300.65, -179243.81, -22715.47, -180327.09, 6093.80, -1548.57, -180482.39, 0.07, 0.49, 0.92
153, -85579.35, -64719.30, -179418.09, -22444.59, -180376.66, 6001.53, -1056.63, -180538.14, 0.07, 0.49, 0.92
154, -85928.91, -65699.98, -179709.63, -21733.03, -180687.72, 5653.45, -771.36, -180768.08, 0.07, 0.49, 0.92
155, -85904.81, -65369.55, -179581.38, -21898.00, -180622.56, 5674.57, -1179.59, -180723.33, 0.07, 0.49, 0.92
156, -85541.60, -64409.99, -179283.30, -22654.41, -180122.36, 6025.38, -1575.84, -180503.25, 0.07, 0.49, 0.92
157, -85529.82, -64571.39, -179366.11, -22568.69, -179894.67, 6041.70, -1169.89, -180506.41, 0.07, 0.49, 0.92
158, -85876.72, -65613.27, -179687.59, -21812.31, -180462.53, 5716.10, -768.21, -180723.22, 0.08, 0.48, 0.92
159, -85941.90, -65549.84, -179627.83, -21779.56, -180831.78, 5656.06, -1079.30, -180755.02, 0.08, 0.48, 0.92
160, -85588.89, -64535.61, -179316.23, -22536.64, -180475.33, 5995.25, -1557.78, -180520.53, 0.08, 0.48, 0.92
161, -85485.30, -64420.68, -179311.52, -22666.28, -180333.22, 6088.57, -1283.93, -180492.28, 0.08, 0.48, 0.92
162, -85819.38, -65459.88, -179655.88, -21937.21, -180628.75, 5753.76, -803.97, -180685.84, 0.08, 0.48, 0.92
163, -85974.17, -65678.01, -179678.97, -21718.07, -180744.11, 5596.90, -1003.06, -180791.31, 0.08, 0.48, 0.92
164, -85661.85, -64703.02, -179376.25, -22425.57, -180392.70, 5897.31, -1531.83, -180554.86, 0.08, 0.49, 0.92
165, -85472.48, -64336.57, -179284.88, -22746.50, -180164.38, 6075.72, -1399.69, -180487.11, 0.08, 0.49, 0.92
166, -85764.91, -65279.00, -179608.53, -22084.53, -180418.83, 5782.46, -861.35, -180647.44, 0.08, 0.49, 0.92
167, -85994.91, -65753.53, -179709.73, -21686.11, -180612.69, 5551.41, -924.92, -180816.02, 0.08, 0.49, 0.92
168, -85735.39, -64870.28, -179432.11, -22293.70, -180243.81, 5801.22, -1463.61, -180598.61, 0.08, 0.49, 0.92
169, -85465.11, -64285.76, -179258.25, -22779.71, -179728.30, 6072.10, -1479.84, -180482.22, 0.07, 0.49, 0.92
170, -85688.13, -65072.61, -179540.92, -22217.66, -180035.38, 5871.49, -911.97, -180598.67, 0.07, 0.49, 0.92
171, -85973.03, -65778.90, -179716.47, -21668.63, -180664.42, 5606.98, -841.81, -180801.41, 0.07, 0.49, 0.92
172, -85793.55, -65071.98, -179479.27, -22138.22, -180668.72, 5783.16, -1366.12, -180635.73, 0.07, 0.49, 0.92
173, -85472.04, -64299.71, -179246.02, -22765.88, -180314.63, 6092.19, -1540.75, -180477.34, 0.07, 0.49, 0.92
174, -85624.77, -64890.93, -179476.50, -22363.14, -180428.91, 5934.75, -1008.94, -180559.48, 0.07, 0.48, 0.91
175, -85957.36, -65789.74, -179724.42, -21708.04, -180723.61, 5602.93, -819.33, -180791.88, 0.07, 0.48, 0.91
176, -85862.52, -65280.75, -179540.41, -22007.57, -180590.84, 5691.45, -1284.42, -180688.75, 0.07, 0.48, 0.91
177, -85505.95, -64367.23, -179258.91, -22726.96, -180097.16, 6036.92, -1593.10, -180487.63, 0.07, 0.48, 0.91
178, -85558.16, -64701.39, -179402.73, -22505.59, -179935.50, 5991.09, -1120.22, -180527.25, 0.07, 0.48, 0.91
179, -85902.98, -65710.57, -179699.92, -21770.20, -180522.83, 5665.56, -793.51, -180751.78, 0.07, 0.48, 0.92
180, -85901.73, -65448.18, -179591.67, -21881.22, -180796.03, 5669.34, -1179.10, -180725.16, 0.07, 0.48, 0.92
181, -85541.98, -64456.80, -179292.14, -22640.57, -180419.41, 6016.71, -1595.56, -180498.72, 0.07, 0.48, 0.92
182, -85508.34, -64533.60, -179355.22, -22622.09, -180347.61, 6041.27, -1224.67, -180500.14, 0.07, 0.48, 0.92
183, -85857.36, -65576.30, -179686.89, -21877.35, -180660.31, 5691.40, -800.53, -180715.84, 0.07, 0.48, 0.92
184, -85946.23, -65577.69, -179645.70, -21797.24, -180710.70, 5599.69, -1079.28, -180767.64, 0.07, 0.48, 0.91
185, -85601.77, -64576.18, -179332.23, -22547.41, -180325.91, 5932.33, -1577.85, -180529.77, 0.07, 0.48, 0.91
186, -85478.08, -64398.55, -179305.08, -22722.47, -180162.03, 6048.56, -1334.78, -180496.48, 0.07, 0.48, 0.91
187, -85804.25, -65426.62, -179641.77, -22002.97, -180450.48, 5722.74, -838.46, -180683.56, 0.07, 0.48, 0.91
188, -85981.70, -65731.13, -179684.77, -21733.27, -180588.75, 5543.86, -1007.71, -180806.36, 0.07, 0.48, 0.91
189, -85681.45, -64773.50, -179388.91, -22417.37, -180142.81, 5834.43, -1543.50, -180573.91, 0.07, 0.48, 0.91
190, -85464.69, -64341.08, -179270.73, -22781.05, -179715.33, 6054.77, -1445.08, -180485.77, 0.07, 0.48, 0.91
191, -85733.33, -65246.13, -179584.39, -22133.90, -180113.84, 5807.85, -889.02, -180625.20, 0.07, 0.48, 0.91
192, -85972.07, -65784.63, -179703.53, -21689.21, -180714.81, 5585.23, -916.09, -180800.11, 0.07, 0.48, 0.91
193, -85732.23, -64945.09, -179433.63, -22264.39, -180613.41, 5817.71, -1457.47, -180601.83, 0.07, 0.48, 0.91
194, -85450.74, -64299.20, -179246.48, -22798.02, -180293.81, 6088.48, -1521.75, -180478.94, 0.07, 0.48, 0.92
195, -85659.57, -65041.54, -179520.17, -22288.00, -180465.23, 5878.04, -970.40, -180590.16, 0.07, 0.48, 0.92
196, -85968.13, -65816.25, -179723.27, -21706.78, -180734.61, 5573.05, -868.45, -180807.86, 0.07, 0.48, 0.92
197, -85810.91, -65143.73, -179498.16, -22134.02, -180537.52, 5722.43, -1375.33, -180655.44, 0.07, 0.48, 0.92
198, -85478.19, -64311.80, -179250.25, -22789.23, -180045.06, 6042.08, -1578.84, -180485.92, 0.07, 0.48, 0.92
199, -85597.79, -64816.39, -179453.52, -22434.31, -179979.19, 5931.48, -1049.46, -180552.78, 0.07, 0.48, 0.92
200, -85928.17, -65724.54, -179712.09, -21748.74, -180595.67, 5620.52, -804.39, -180773.97, 0.07, 0.48, 0.92
201, -85854.99, -65286.58, -179550.48, -21999.57, -180754.89, 5691.87, -1250.89, -180691.52, 0.07, 0.48, 0.92
202, -85493.50, -64363.37, -179264.94, -22734.38, -180368.72, 6038.08, -1593.77, -180486.39, 0.07, 0.48, 0.92
203, -85532.75, -64645.02, -179396.81, -22560.84, -180370.22, 5991.47, -1142.78, -180510.78, 0.07, 0.48, 0.92
204, -85891.41, -65668.91, -179710.36, -21824.94, -180688.59, 5637.58, -801.06, -180745.03, 0.07, 0.49, 0.92
205, -85918.13, -65490.56, -179619.97, -21885.38, -180673.08, 5609.91, -1165.06, -180742.77, 0.07, 0.49, 0.92
206, -85558.83, -64495.98, -179315.61, -22647.14, -180224.13, 5957.34, -1611.02, -180512.61, 0.07, 0.49, 0.92
207, -85497.63, -64501.14, -179351.75, -22672.42, -179909.61, 6020.51, -1265.38, -180508.17, 0.07, 0.49, 0.92
208, -85833.42, -65542.84, -179675.72, -21921.65, -180376.09, 5705.10, -813.49, -180705.38, 0.07, 0.49, 0.92
209, -85942.05, -65634.04, -179649.92, -21787.61, -180823.23, 5602.96, -1065.87, -180771.42, 0.07, 0.49, 0.93
210, -85606.66, -64643.50, -179337.36, -22523.00, -180506.30, 5924.69, -1578.52, -180530.77, 0.07, 0.49, 0.93
211, -85456.66, -64394.08, -179288.00, -22755.80, -180316.56, 6064.05, -1377.67, -180477.86, 0.07, 0.49, 0.93
212, -85772.56, -65389.38, -179626.55, -22056.30, -180594.22, 5746.19, -861.15, -180655.42, 0.07, 0.49, 0.93
213, -85968.70, -65744.55, -179691.30, -21737.76, -180753.20, 5547.46, -988.10, -180799.13, 0.07, 0.49, 0.93
214, -85681.30, -64798.11, -179398.69, -22398.35, -180428.59, 5823.66, -1522.31, -180576.81, 0.07, 0.48, 0.92
215, -85447.84, -64309.12, -179265.25, -22814.04, -180158.23, 6044.96, -1467.19, -180478.80, 0.07, 0.48, 0.92
216, -85708.92, -65182.09, -179574.28, -22204.20, -180380.56, 5782.55, -913.74, -180613.52, 0.07, 0.48, 0.92
217, -85975.06, -65787.40, -179715.44, -21727.17, -180606.16, 5518.62, -913.25, -180808.89, 0.07, 0.48, 0.92
218, -85756.17, -64977.61, -179452.94, -22268.60, -180293.88, 5727.48, -1446.45, -180619.25, 0.07, 0.48, 0.92
219, -85453.38, -64294.59, -179243.55, -22832.71, -179737.61, 6027.17, -1547.17, -180476.50, 0.07, 0.49, 0.91
220, -85639.07, -64983.71, -179499.48, -22344.95, -179976.84, 5861.43, -990.41, -180568.92, 0.07, 0.49, 0.91
221, -85947.39, -65787.82, -179714.30, -21730.63, -180612.19, 5573.68, -851.02, -180787.92, 0.07, 0.49, 0.91
222, -85810.96, -65186.22, -179511.02, -22111.08, -180694.38, 5709.10, -1347.94, -180656.00, 0.07, 0.49, 0.91
223, -85469.49, -64329.46, -179254.17, -22793.28, -180322.61, 6037.79, -1596.76, -180478.73, 0.07, 0.49, 0.91
224, -85574.48, -64792.39, -179443.38, -22485.47, -180388.94, 5927.21, -1089.60, -180542.08, 0.07, 0.50, 0.91
225, -85920.75, -65760.73, -179721.78, -21786.51, -180696.92, 5582.48, -830.34, -180772.98, 0.07, 0.50, 0.91
226, -85876.52, -65386.61, -179572.50, -21989.44, -180612.19, 5622.45, -1258.34, -180711.66, 0.07, 0.50, 0.91
227, -85513.68, -64431.00, -179275.63, -22735.43, -180097.36, 5973.30, -1627.81, -180497.95, 0.07, 0.50, 0.91
228, -85521.73, -64633.66, -179377.09, -22614.22, -179905.83, 5974.67, -1199.93, -180522.09, 0.07, 0.50, 0.91
229, -85868.78, -65668.41, -179693.92, -21863.29, -180500.50, 5650.77, -813.07, -180736.52, 0.07, 0.49, 0.91
230, -85914.76, -65547.09, -179623.81, -21870.15, -180831.73, 5609.73, -1143.45, -180749.19, 0.07, 0.49, 0.91
231, -85559.03, -64534.54, -179319.08, -22629.64, -180462.91, 5952.34, -1604.92, -180517.16, 0.07, 0.49, 0.91
232, -85474.99, -64467.55, -179334.80, -22711.92, -180340.39, 6026.50, -1292.09, -180499.52, 0.07, 0.49, 0.91
233, -85813.57, -65505.68, -179672.13, -21975.68, -180641.16, 5686.48, -825.25, -180698.73, 0.07, 0.49, 0.91
234, -85948.94, -65659.99, -179674.72, -21796.95, -180738.75, 5547.37, -1044.99, -180788.77, 0.07, 0.48, 0.91
235, -85625.13, -64685.77, -179367.31, -22522.06, -180375.23, 5861.21, -1571.80, -180552.80, 0.07, 0.48, 0.91
236, -85455.70, -64377.16, -179297.22, -22802.38, -180166.14, 6020.98, -1406.53, -180489.44, 0.07, 0.48, 0.91
237, -85759.73, -65358.89, -179627.70, -22119.84, -180431.86, 5715.54, -879.59, -180657.55, 0.07, 0.48, 0.91
238, -85976.88, -65793.90, -179709.78, -21760.18, -180609.63, 5498.33, -979.59, -180816.20, 0.07, 0.48, 0.91
239, -85706.87, -64881.43, -179420.84, -22394.41, -180222.28, 5759.28, -1518.29, -180596.41, 0.07, 0.49, 0.91
240, -85447.66, -64332.48, -179257.66, -22849.72, -179725.14, 6019.21, -1501.39, -180487.84, 0.07, 0.49, 0.91
241, -85681.84, -65158.46, -179548.52, -22261.22, -180056.50, 5806.63, -936.67, -180611.86, 0.07, 0.49, 0.91
242, -85955.69, -65829.10, -179710.45, -21737.76, -180678.58, 5551.08, -896.26, -180801.94, 0.07, 0.49, 0.91
243, -85758.66, -65068.86, -179464.19, -22236.86, -180653.75, 5741.92, -1424.01, -180628.70, 0.07, 0.49, 0.91
244, -85448.26, -64321.72, -179245.25, -22840.96, -180308.63, 6039.26, -1568.20, -180483.92, 0.07, 0.49, 0.91
245, -85616.27, -64950.64, -179488.02, -22408.99, -180439.02, 5866.68, -1027.71, -180575.77, 0.07, 0.49, 0.91
246, -85943.66, -65815.54, -179724.88, -21771.18, -180727.08, 5542.38, -858.91, -180800.91, 0.07, 0.49, 0.91
247, -85830.67, -65254.66, -179534.84, -22108.18, -180573.84, 5649.27, -1337.13, -180684.55, 0.07, 0.49, 0.91
248, -85476.80, -64357.06, -179262.06, -22812.37, -180060.80, 5991.76, -1611.69, -180491.69, 0.07, 0.49, 0.91
249, -85553.04, -64754.66, -179425.63, -22546.96, -179947.39, 5926.92, -1116.69, -180533.53, 0.07, 0.49, 0.91
250, -85897.39, -65742.02, -179708.78, -21824.62, -180563.27, 5605.12, -820.24, -180760.92, 0.07, 0.49, 0.91
251, -85877.48, -65424.27, -179583.94, -21973.93, -180794.31, 5628.71, -1221.57, -180719.84, 0.07, 0.49, 0.91
252, -85518.38, -64455.81, -179289.02, -22731.59, -180410.89, 5976.77, -1624.46, -180503.16, 0.07, 0.49, 0.91
253, -85508.02, -64596.90, -179371.83, -22663.35, -180361.31, 5979.94, -1228.47, -180519.08, 0.07, 0.49, 0.91
254, -85862.59, -65649.89, -179692.42, -21916.00, -180676.56, 5626.45, -830.28, -180737.41, 0.07, 0.49, 0.91
255, -85935.48, -65605.25, -179633.75, -21874.45, -180709.28, 5550.97, -1135.25, -180771.56, 0.07, 0.49, 0.91
0, -85583.53, -64591.33, -179319.70, -22629.38, -180319.83, 5889.93, -1613.51, -180526.77, 0.07, 0.49, 0.91
1, -85475.05, -64464.60, -179310.56, -22769.19, -180172.84, 5989.84, -1344.55, -180499.31, 0.07, 0.49, 0.91
2, -85807.02, -65500.53, -179654.31, -22042.53, -180466.19, 5658.21, -860.59, -180692.41, 0.07, 0.49, 0.91
3, -85967.13, -65723.56, -179681.13, -21811.26, -180587.16, 5496.65, -1048.27, -180802.77, 0.07, 0.49, 0.91
4, -85655.44, -64748.02, -179375.47, -22517.59, -180129.48, 5799.32, -1580.40, -180560.72, 0.07, 0.49, 0.91
5, -85455.66, -64376.82, -179275.16, -22842.39, -179717.11, 6003.88, -1450.99, -180479.52, 0.07, 0.49, 0.91
6, -85736.35, -65310.27, -179597.98, -22171.48, -180126.36, 5745.02, -901.18, -180629.05, 0.07, 0.49, 0.91
7, -85962.82, -65798.26, -179704.08, -21759.29, -180713.52, 5531.92, -955.47, -180796.69, 0.07, 0.49, 0.91
8, -85706.58, -64911.27, -179427.89, -22358.18, -180596.19, 5777.99, -1489.16, -180592.83, 0.06, 0.49, 0.91
9, -85435.45, -64300.42, -179250.17, -22857.88, -180288.66, 6035.48, -1514.31, -180474.61, 0.06, 0.49, 0.91
10, -85663.48, -65099.97, -179537.39, -22310.44, -180478.28, 5807.03, -958.53, -180591.78, 0.06, 0.49, 0.91
11, -85957.81, -65845.80, -179723.64, -21759.74, -180733.70, 5514.49, -894.23, -180802.52, 0.06, 0.49, 0.91
12, -85782.86, -65146.88, -179494.72, -22216.70, -180515.59, 5680.99, -1415.49, -180642.52, 0.06, 0.49, 0.91
13, -85456.44, -64356.97, -179257.66, -22849.09, -179993.61, 5997.60, -1595.13, -180483.06, 0.07, 0.48, 0.92
14, -85596.54, -64923.90, -179477.06, -22450.47, -180001.44, 5871.42, -1055.32, -180562.19, 0.07, 0.48, 0.92
15, -85922.41, -65822.63, -179725.92, -21781.04, -180644.17, 5565.07, -847.69, -180779.72, 0.07, 0.48, 0.92
16, -85832.06, -65324.78, -179541.41, -22068.81, -180761.66, 5654.57, -1308.18, -180678.73, 0.07, 0.48, 0.92
17, -85474.95, -64401.23, -179259.47, -22792.21, -180375.69, 5996.21, -1621.75, -180479.09, 0.07, 0.48, 0.92
18, -85529.22, -64727.61, -179404.34, -22589.66, -180391.83, 5934.19, -1159.32, -180530.52, 0.08, 0.48, 0.92
19, -85885.93, -65741.46, -179709.31, -21858.15, -180708.22, 5580.52, -832.80, -180757.50, 0.08, 0.48, 0.92
20, -85893.33, -65482.70, -179599.36, -21959.16, -180674.55, 5569.47, -1208.92, -180735.81, 0.08, 0.48, 0.92
21, -85530.45, -64482.46, -179293.27, -22722.69, -180272.00, 5919.66, -1627.97, -180507.19, 0.08, 0.48, 0.92
22, -85492.20, -64551.97, -179351.11, -22713.44, -180195.42, 5950.73, -1259.77, -180503.55, 0.08, 0.48, 0.92
23, -85843.55, -65607.98, -179681.27, -21968.63, -180506.69, 5602.84, -834.48, -180718.66, 0.08, 0.48, 0.92
24, -85940.58, -65635.25, -179646.38, -21875.47, -180560.78, 5506.55, -1107.01, -180774.58, 0.08, 0.48, 0.92
25, -85597.95, -64640.37, -179335.59, -22620.61, -180041.94, 5841.27, -1607.63, -180530.78, 0.08, 0.48, 0.92
26, -85462.54, -64450.34, -179300.03, -22800.43, -179730.61, 5984.01, -1365.92, -180484.27, 0.08, 0.48, 0.92
27, -85778.30, -65461.69, -179637.97, -22073.40, -180219.50, 5692.30, -852.70, -180660.36, 0.08, 0.48, 0.92
28, -85953.09, -65755.32, -179688.81, -21787.34, -180762.91, 5529.58, -1004.33, -180784.84, 0.08, 0.49, 0.92
29, -85656.06, -64813.29, -179397.53, -22466.45, -180538.36, 5818.11, -1546.20, -180555.59, 0.08, 0.49, 0.92
30, -85442.89, -64381.05, -179280.75, -22843.75, -180282.70, 6023.84, -1466.74, -180476.58, 0.08, 0.49, 0.92
31, -85719.81, -65284.35, -179594.66, -22207.93, -180519.86, 5747.80, -917.05, -180627.77, 0.08, 0.49, 0.92
32, -85972.79, -65849.16, -179718.13, -21758.55, -180732.47, 5498.01, -943.38, -180806.00, 0.08, 0.49, 0.92
33, -85741.34, -65014.45, -179449.81, -22325.03, -180449.05, 5723.63, -1481.99, -180606.06, 0.07, 0.49, 0.92
34, -85453.38, -64352.26, -179255.75, -22863.11, -179938.38, 6004.21, -1550.52, -180478.66, 0.07, 0.49, 0.92
35, -85651.30, -65071.09, -179517.84, -22352.46, -180061.52, 5823.10, -988.22, -180583.36, 0.07, 0.49, 0.92
36, -85956.89, -65852.30, -179718.70, -21757.05, -180714.00, 5538.02, -870.98, -180793.23, 0.07, 0.49, 0.92
37, -85805.28, -65191.90, -179497.84, -22171.05, -180709.78, 5686.46, -1374.57, -180648.98, 0.07, 0.49, 0.92
38, -85469.52, -64355.27, -179246.88, -22835.10, -180335.91, 6009.04, -1590.39, -180475.58, 0.07, 0.48, 0.91
39, -85596.07, -64868.31, -179453.20, -22490.12, -180421.84, 5879.81, -1070.67, -180537.25, 0.07, 0.48, 0.91
40, -85940.13, -65807.83, -179720.30, -21806.07, -180724.33, 5541.22, -836.89, -180772.67, 0.07, 0.48, 0.91
41, -85878.51, -65385.09, -179558.31, -22045.14, -180621.33, 5599.80, -1281.47, -180698.97, 0.07, 0.48, 0.91
42, -85517.81, -64437.46, -179268.14, -22784.56, -180221.38, 5945.41, -1629.62, -180495.05, 0.07, 0.48, 0.91
43, -85551.30, -64698.84, -179393.75, -22626.42, -180216.59, 5902.51, -1184.66, -180525.75, 0.07, 0.48, 0.92
44, -85908.86, -65735.12, -179702.14, -21891.05, -180535.33, 5545.71, -836.72, -180753.41, 0.07, 0.48, 0.92
45, -85939.80, -65571.95, -179612.31, -21941.97, -180519.77, 5511.34, -1195.13, -180752.31, 0.07, 0.48, 0.92
46, -85580.49, -64562.79, -179303.41, -22703.36, -179948.53, 5863.89, -1638.43, -180515.13, 0.07, 0.48, 0.92
47, -85509.26, -64553.33, -179329.58, -22738.21, -179756.92, 5945.74, -1296.45, -180497.69, 0.07, 0.48, 0.92
48, -85843.46, -65586.99, -179662.16, -21985.22, -180295.92, 5636.98, -835.62, -180693.63, 0.07, 0.48, 0.92
49, -85957.61, -65689.34, -179651.41, -21838.32, -180767.72, 5534.98, -1078.56, -180766.70, 0.07, 0.48, 0.92
50, -85624.86, -64703.67, -179345.23, -22570.37, -180480.97, 5857.41, -1594.33, -180534.52, 0.07, 0.48, 0.92
51, -85472.51, -64449.40, -179289.89, -22805.39, -180290.08, 5998.11, -1399.46, -180482.86, 0.07, 0.48, 0.92
52, -85788.02, -65442.82, -179625.36, -22106.54, -180566.64, 5682.77, -883.74, -180659.67, 0.07, 0.48, 0.92
53, -85990.06, -65818.62, -179694.88, -21782.60, -180728.23, 5483.17, -1009.38, -180802.05, 0.07, 0.49, 0.91
54, -85707.90, -64892.48, -179407.41, -22436.52, -180380.83, 5756.94, -1551.75, -180575.31, 0.07, 0.49, 0.91
55, -85469.65, -64388.27, -179267.47, -22856.49, -179892.94, 5992.88, -1503.09, -180475.36, 0.07, 0.49, 0.91
56, -85720.10, -65239.80, -179562.78, -22246.53, -180156.11, 5762.53, -938.39, -180602.06, 0.07, 0.49, 0.91
57, -85983.34, -65854.07, -179702.03, -21758.60, -180781.39, 5515.99, -928.04, -180791.45, 0.07, 0.49, 0.91
58, -85768.76, -65061.61, -179451.47, -22289.00, -180659.73, 5723.21, -1461.42, -180604.38, 0.08, 0.49, 0.91
59, -85470.70, -64353.38, -179245.38, -22865.05, -180320.02, 6009.74, -1572.36, -180467.42, 0.08, 0.49, 0.91
60, -85660.27, -65019.14, -179504.75, -22400.16, -180467.69, 5818.83, -1023.64, -180570.97, 0.08, 0.49, 0.91
61, -85977.13, -65827.80, -179728.16, -21788.88, -180745.39, 5503.76, -880.88, -180789.55, 0.08, 0.49, 0.91
62, -85844.60, -65222.48, -179524.48, -22166.16, -180573.64, 5628.30, -1372.67, -180660.69, 0.08, 0.49, 0.91
63, -85499.91, -64379.59, -179263.22, -22853.67, -180188.94, 5959.73, -1631.36, -180480.61, 0.07, 0.49, 0.91
64, -85602.80, -64834.94, -179448.88, -22547.97, -180253.33, 5851.62, -1125.50, -180540.33, 0.07, 0.49, 0.91
65, -85951.57, -65819.05, -179723.58, -21845.70, -180562.23, 5505.37, -867.02, -180770.89, 0.07, 0.49, 0.91
66, -85913.95, -65455.45, -179579.09, -22034.28, -180470.03, 5540.84, -1289.47, -180712.66, 0.07, 0.49, 0.91
67, -85549.49, -64485.21, -179278.23, -22781.93, -179873.56, 5900.10, -1665.20, -180491.69, 0.07, 0.49, 0.91
68, -85551.95, -64672.11, -179371.94, -22667.62, -179801.88, 5913.18, -1239.36, -180506.22, 0.07, 0.48, 0.91
69, -85898.47, -65701.05, -179686.58, -21917.20, -180382.23, 5591.87, -850.89, -180720.20, 0.07, 0.48, 0.91
70, -85948.29, -65592.35, -179619.86, -21916.64, -180765.84, 5550.25, -1175.12, -180737.08, 0.07, 0.48, 0.91
71, -85594.48, -64591.53, -179318.00, -22676.07, -180428.06, 5892.46, -1643.55, -180504.44, 0.07, 0.48, 0.91
72, -85506.84, -64511.40, -179329.02, -22771.11, -180299.84, 5971.40, -1342.31, -180479.31, 0.07, 0.48, 0.91
73, -85846.63, -65556.73, -179666.89, -22036.40, -180599.19, 5632.82, -873.93, -180676.13, 0.07, 0.48, 0.91
