%OpenBCI Raw EEG Data
%
%Sample Rate = 250.0 Hz
%First Column = SampleIndex
%Other Columns = EEG data in microvolts followed by Accel Data (in G) interleaved with Aux Data
0, -74649.02, -62091.02, -180495.42, -8534.21, -181511.48, 9235.47, 3466.06, -181561.58, 0.09, 0.53, 0.88
1, -74679.66, -62006.40, -180399.45, -8591.76, -181493.91, 9205.99, 3153.07, -181554.25, 0.09, 0.53, 0.88
2, -74290.24, -60995.50, -180050.94, -9383.08, -180972.69, 9586.77, 2737.89, -181286.75, 0.06, 0.49, 0.92
3, -74224.73, -60916.30, -180074.19, -9437.00, -180672.39, 9658.10, 3047.44, -181271.33, 0.06, 0.49, 0.92
4, -74613.79, -61952.42, -180451.30, -8670.13, -181276.64, 9292.31, 3465.77, -181514.84, 0.06, 0.49, 0.92
5, -74740.84, -62103.11, -180441.89, -8529.74, -181680.78, 9173.67, 3258.95, -181591.63, 0.06, 0.49, 0.92
6, -74374.69, -61087.36, -180091.55, -9298.68, -181293.03, 9531.68, 2798.68, -181317.44, 0.06, 0.49, 0.92
7, -74212.51, -60751.64, -180017.13, -9568.04, -181083.25, 9686.51, 2976.11, -181258.50, 0.06, 0.49, 0.91
8, -74568.91, -61705.90, -180392.14, -8860.83, -181393.55, 9333.55, 3456.70, -181470.47, 0.06, 0.49, 0.91
9, -74788.51, -62136.48, -180479.56, -8538.19, -181566.83, 9116.29, 3356.65, -181621.23, 0.06, 0.49, 0.91
10, -74474.38, -61243.46, -180157.72, -9222.96, -181178.36, 9420.37, 2867.39, -181369.72, 0.06, 0.49, 0.91
11, -74220.46, -60696.79, -179992.47, -9667.44, -180667.42, 9672.90, 2905.66, -181252.91, 0.06, 0.49, 0.91
12, -74515.04, -61522.53, -180330.72, -9043.31, -180994.16, 9402.15, 3424.11, -181420.55, 0.07, 0.49, 0.91
13, -74810.55, -62195.07, -180501.34, -8549.12, -181642.61, 9125.61, 3438.26, -181628.34, 0.07, 0.49, 0.91
14, -74573.51, -61447.65, -180215.78, -9105.38, -181459.41, 9359.08, 2958.36, -181416.56, 0.07, 0.49, 0.91
15, -74248.76, -60685.32, -179974.97, -9709.51, -181087.81, 9672.09, 2852.80, -181250.77, 0.07, 0.49, 0.91
16, -74465.98, -61316.64, -180255.95, -9236.48, -181259.31, 9454.07, 3354.84, -181379.30, 0.07, 0.49, 0.91
17, -74822.59, -62190.35, -180513.98, -8611.37, -181569.72, 9099.93, 3481.31, -181627.19, 0.07, 0.49, 0.92
18, -74671.25, -61642.18, -180279.83, -9008.31, -181368.50, 9245.75, 3038.52, -181473.27, 0.07, 0.49, 0.92
19, -74294.96, -60733.78, -179976.22, -9719.92, -180789.55, 9613.69, 2807.18, -181259.25, 0.07, 0.49, 0.92
20, -74408.64, -61128.53, -180168.16, -9414.84, -180769.38, 9515.07, 3269.01, -181338.48, 0.07, 0.49, 0.92
21, -74792.82, -62117.11, -180488.70, -8682.58, -181473.84, 9154.00, 3525.16, -181594.47, 0.07, 0.49, 0.92
22, -74737.62, -61787.95, -180337.67, -8886.96, -181594.31, 9211.22, 3157.36, -181515.58, 0.07, 0.49, 0.91
23, -74337.14, -60779.49, -180001.78, -9665.36, -181151.22, 9599.98, 2817.46, -181260.92, 0.07, 0.49, 0.91
24, -74352.78, -60913.62, -180101.39, -9558.75, -181121.41, 9579.82, 3200.30, -181288.11, 0.07, 0.49, 0.91
25, -74753.71, -61978.32, -180465.61, -8790.40, -181476.28, 9185.36, 3541.54, -181545.63, 0.07, 0.49, 0.91
26, -74804.34, -61943.25, -180391.73, -8794.99, -181480.20, 9136.45, 3248.83, -181557.05, 0.07, 0.49, 0.91
27, -74411.95, -60929.31, -180038.89, -9577.63, -180942.55, 9522.45, 2820.05, -181288.88, 0.07, 0.49, 0.91
28, -74320.13, -60795.94, -180035.83, -9670.46, -180626.25, 9622.16, 3095.63, -181258.17, 0.07, 0.49, 0.91
29, -74696.55, -61825.84, -180417.59, -8898.25, -181209.25, 9270.54, 3528.65, -181486.53, 0.07, 0.49, 0.91
30, -74840.21, -62049.58, -180434.61, -8703.93, -181658.83, 9137.04, 3337.29, -181577.41, 0.07, 0.49, 0.91
31, -74478.13, -61061.10, -180089.34, -9444.01, -181290.67, 9490.75, 2863.10, -181315.44, 0.07, 0.49, 0.91
32, -74287.14, -60678.08, -179987.91, -9744.49, -181053.84, 9673.99, 2998.06, -181231.09, 0.07, 0.49, 0.92
33, -74628.49, -61612.76, -180358.52, -9042.38, -181348.30, 9337.24, 3486.11, -181428.02, 0.07, 0.49, 0.92
34, -74864.69, -62092.61, -180468.05, -8666.15, -181537.94, 9104.13, 3411.41, -181592.00, 0.07, 0.49, 0.92
35, -74561.04, -61209.29, -180147.16, -9314.13, -181148.05, 9400.32, 2922.67, -181350.56, 0.07, 0.49, 0.92
36, -74285.08, -60600.43, -179955.86, -9784.43, -180611.13, 9676.83, 2926.54, -181217.28, 0.07, 0.49, 0.92
37, -74554.35, -61383.03, -180282.08, -9175.26, -180937.28, 9429.04, 3444.11, -181369.52, 0.07, 0.49, 0.92
38, -74857.53, -62101.19, -180483.05, -8630.12, -181599.78, 9143.12, 3489.13, -181580.47, 0.07, 0.49, 0.92
39, -74631.65, -61385.18, -180211.02, -9138.71, -181450.20, 9363.68, 3016.88, -181387.23, 0.07, 0.49, 0.92
40, -74290.49, -60601.21, -179949.23, -9757.56, -181063.16, 9692.63, 2876.65, -181211.58, 0.07, 0.49, 0.92
41, -74488.28, -61199.27, -180212.52, -9304.70, -181215.47, 9493.79, 3368.16, -181337.14, 0.07, 0.49, 0.92
42, -74854.78, -62111.29, -180490.06, -8640.71, -181534.77, 9134.51, 3516.82, -181583.98, 0.07, 0.49, 0.92
43, -74722.48, -61603.06, -180283.27, -8985.42, -181349.69, 9263.21, 3086.22, -181448.03, 0.07, 0.49, 0.92
44, -74338.23, -60670.28, -179971.08, -9710.11, -180749.36, 9640.93, 2821.08, -181226.50, 0.07, 0.49, 0.92
45, -74429.56, -61003.83, -180141.20, -9440.10, -180726.23, 9567.40, 3266.46, -181292.63, 0.07, 0.49, 0.92
46, -74820.05, -62014.89, -180477.33, -8687.76, -181433.78, 9202.53, 3541.21, -181545.53, 0.07, 0.49, 0.92
47, -74788.95, -61758.34, -180341.22, -8845.99, -181589.13, 9236.72, 3178.95, -181491.33, 0.07, 0.49, 0.91
48, -74391.43, -60758.41, -179999.03, -9622.67, -181151.34, 9624.19, 2812.61, -181245.23, 0.07, 0.49, 0.91
49, -74385.46, -60835.68, -180076.06, -9565.76, -181099.13, 9624.93, 3163.69, -181264.19, 0.07, 0.49, 0.91
50, -74786.74, -61884.56, -180453.03, -8793.42, -181454.97, 9228.23, 3535.89, -181516.98, 0.07, 0.49, 0.91
51, -74861.17, -61901.16, -180401.50, -8754.28, -181483.23, 9155.23, 3265.72, -181546.42, 0.07, 0.49, 0.91
52, -74476.48, -60891.54, -180051.45, -9534.90, -180967.89, 9531.88, 2822.71, -181279.81, 0.08, 0.49, 0.92
53, -74363.91, -60695.07, -180026.11, -9676.34, -180616.22, 9650.79, 3074.46, -181237.81, 0.08, 0.49, 0.92
54, -74733.03, -61693.56, -180404.59, -8920.47, -181172.91, 9306.08, 3529.99, -181460.38, 0.08, 0.49, 0.92
55, -74898.70, -61976.22, -180439.23, -8689.84, -181653.67, 9151.63, 3364.90, -181570.61, 0.08, 0.49, 0.92
56, -74550.53, -61017.33, -180096.06, -9421.35, -181304.30, 9490.57, 2879.15, -181309.75, 0.08, 0.49, 0.92
57, -74346.84, -60612.81, -179981.25, -9765.66, -181055.05, 9685.03, 2977.83, -181227.17, 0.08, 0.49, 0.91
58, -74684.80, -61557.20, -180352.02, -9082.83, -181346.94, 9348.71, 3462.17, -181429.13, 0.08, 0.49, 0.91
59, -74943.77, -62108.43, -180482.11, -8676.52, -181559.95, 9092.96, 3401.73, -181608.47, 0.08, 0.49, 0.91
60, -74662.52, -61255.87, -180169.63, -9307.85, -181209.63, 9367.48, 2912.75, -181370.25, 0.08, 0.49, 0.91
61, -74372.88, -60604.23, -179963.92, -9826.09, -180669.59, 9652.58, 2884.00, -181231.56, 0.08, 0.49, 0.91
62, -74626.17, -61346.19, -180274.23, -9261.29, -180925.09, 9420.12, 3398.34, -181377.73, 0.07, 0.48, 0.92
63, -74945.84, -62110.45, -180488.03, -8696.06, -181603.02, 9119.15, 3468.36, -181601.41, 0.07, 0.48, 0.92
64, -74741.99, -61431.67, -180224.20, -9185.27, -181474.09, 9320.72, 3003.45, -181412.20, 0.07, 0.48, 0.92
65, -74391.84, -60603.38, -179953.23, -9844.49, -181076.86, 9661.00, 2836.57, -181223.16, 0.07, 0.48, 0.92
66, -74565.39, -61130.81, -180198.02, -9450.09, -181204.78, 9487.00, 3319.95, -181324.59, 0.07, 0.48, 0.92
67, -74941.02, -62057.25, -180490.80, -8770.80, -181535.31, 9118.04, 3514.95, -181586.03, 0.07, 0.49, 0.91
68, -74835.02, -61610.82, -180289.77, -9084.29, -181379.19, 9223.98, 3101.22, -181468.16, 0.07, 0.49, 0.91
69, -74444.27, -60651.21, -179965.05, -9832.31, -180800.59, 9608.23, 2821.13, -181234.47, 0.07, 0.49, 0.91
70, -74511.98, -60926.14, -180115.06, -9611.27, -180708.84, 9554.21, 3259.40, -181285.97, 0.07, 0.49, 0.91
71, -74900.20, -61964.11, -180458.36, -8854.93, -181396.56, 9188.82, 3556.79, -181541.00, 0.07, 0.49, 0.91
72, -74890.34, -61788.96, -180340.95, -8964.52, -181601.13, 9202.21, 3213.91, -181503.44, 0.08, 0.49, 0.91
73, -74490.94, -60778.59, -179995.81, -9748.89, -181166.50, 9590.84, 2825.35, -181243.89, 0.08, 0.49, 0.91
74, -74458.93, -60784.47, -180052.02, -9734.47, -181090.31, 9615.47, 3163.02, -181246.06, 0.08, 0.49, 0.91
75, -74852.70, -61843.39, -180435.05, -8959.74, -181440.95, 9223.98, 3549.37, -181496.25, 0.08, 0.49, 0.91
76, -74945.46, -61930.58, -180403.42, -8875.83, -181488.27, 9130.67, 3298.98, -181545.94, 0.08, 0.49, 0.91
77, -74562.29, -60929.45, -180050.63, -9643.46, -180982.20, 9503.58, 2845.80, -181276.39, 0.08, 0.49, 0.91
78, -74420.91, -60680.45, -179998.41, -9830.43, -180597.97, 9651.15, 3064.18, -181225.50, 0.08, 0.49, 0.91
79, -74777.69, -61678.05, -180371.11, -9078.27, -181122.23, 9320.30, 3535.06, -181437.73, 0.08, 0.49, 0.91
80, -74958.98, -62024.01, -180425.42, -8791.37, -181635.13, 9150.71, 3402.47, -181556.83, 0.08, 0.49, 0.91
81, -74618.52, -61078.24, -180090.39, -9491.80, -181306.55, 9482.71, 2919.09, -181298.30, 0.08, 0.49, 0.91
82, -74387.92, -60582.08, -179948.97, -9872.81, -181029.44, 9704.41, 2997.68, -181201.45, 0.07, 0.49, 0.91
83, -74700.65, -61446.26, -180304.44, -9215.04, -181296.67, 9394.28, 3502.85, -181387.55, 0.07, 0.49, 0.91
84, -74974.95, -62054.27, -180461.70, -8759.80, -181524.52, 9125.61, 3476.55, -181571.64, 0.07, 0.49, 0.91
85, -74705.23, -61246.10, -180169.38, -9347.37, -181180.80, 9388.49, 2987.56, -181346.00, 0.07, 0.49, 0.91
86, -74393.82, -60544.21, -179944.14, -9889.91, -180612.95, 9696.66, 2928.75, -181191.59, 0.07, 0.49, 0.91
87, -74627.73, -61249.12, -180238.69, -9341.89, -180859.72, 9483.38, 3445.86, -181328.13, 0.07, 0.49, 0.91
88, -74956.93, -62066.81, -180467.67, -8731.98, -181545.53, 9173.20, 3538.17, -181554.14, 0.07, 0.49, 0.91
89, -74770.36, -61437.34, -180220.81, -9166.09, -181466.78, 9355.90, 3082.37, -181389.08, 0.07, 0.49, 0.91
90, -74404.44, -60578.37, -179933.14, -9837.38, -181056.33, 9709.80, 2881.05, -181193.66, 0.07, 0.49, 0.91
91, -74554.48, -61054.91, -180158.16, -9467.06, -181162.72, 9556.91, 3355.44, -181300.36, 0.07, 0.49, 0.91
92, -74934.89, -62016.16, -180467.52, -8761.41, -181498.61, 9181.60, 3560.43, -181548.89, 0.07, 0.49, 0.91
93, -74845.82, -61615.09, -180285.91, -9024.27, -181359.03, 9268.35, 3158.50, -181449.31, 0.07, 0.49, 0.91
94, -74447.84, -60639.32, -179953.47, -9776.41, -180758.75, 9657.32, 2848.55, -181214.55, 0.07, 0.49, 0.91
95, -74485.60, -60849.27, -180076.47, -9599.83, -180654.06, 9631.84, 3257.34, -181251.19, 0.07, 0.49, 0.91
96, -74875.03, -61887.38, -180436.97, -8821.00, -181334.44, 9265.94, 3586.36, -181499.38, 0.07, 0.49, 0.91
97, -74887.86, -61751.72, -180340.63, -8880.06, -181582.97, 9256.82, 3267.13, -181483.16, 0.07, 0.49, 0.91
98, -74489.76, -60727.05, -179990.75, -9659.57, -181153.48, 9642.86, 2865.23, -181229.30, 0.07, 0.49, 0.91
99, -74433.92, -60673.07, -180020.70, -9689.08, -181052.77, 9690.93, 3172.18, -181219.69, 0.07, 0.49, 0.91
100, -74826.15, -61714.93, -180404.19, -8917.05, -181398.53, 9302.44, 3578.20, -181460.98, 0.07, 0.49, 0.91
101, -74943.74, -61865.22, -180395.27, -8782.76, -181470.70, 9183.82, 3352.60, -181527.52, 0.07, 0.49, 0.91
102, -74568.66, -60866.23, -180048.45, -9539.66, -180973.11, 9547.95, 2886.03, -181259.55, 0.08, 0.49, 0.90
103, -74406.63, -60571.23, -179977.77, -9764.69, -180568.63, 9711.74, 3071.87, -181198.03, 0.08, 0.49, 0.90
104, -74754.53, -61555.03, -180347.84, -9021.32, -181077.31, 9384.56, 3548.67, -181406.55, 0.08, 0.49, 0.90
105, -74958.16, -61960.46, -180422.66, -8695.30, -181619.63, 9191.46, 3434.66, -181546.98, 0.08, 0.49, 0.90
106, -74633.77, -61039.97, -180091.63, -9376.27, -181314.64, 9505.41, 2943.14, -181299.55, 0.08, 0.49, 0.90
107, -74388.55, -60505.12, -179932.23, -9799.32, -181024.05, 9739.66, 2982.75, -181187.39, 0.07, 0.49, 0.91
108, -74693.47, -61356.99, -180286.95, -9166.27, -181283.81, 9435.43, 3481.02, -181363.23, 0.07, 0.49, 0.91
109, -74984.20, -62013.17, -180465.00, -8678.96, -181529.63, 9146.60, 3476.37, -181568.38, 0.07, 0.49, 0.91
110, -74732.05, -61234.86, -180171.97, -9244.14, -181215.11, 9388.47, 2990.89, -181357.11, 0.07, 0.49, 0.91
111, -74407.05, -60496.22, -179928.50, -9827.66, -180643.53, 9709.31, 2894.44, -181191.97, 0.07, 0.49, 0.91
112, -74618.93, -61143.06, -180205.17, -9329.89, -180832.80, 9516.59, 3401.11, -181313.05, 0.07, 0.49, 0.91
113, -74967.73, -61990.17, -180461.91, -8693.38, -181535.98, 9187.93, 3537.95, -181553.53, 0.07, 0.49, 0.91
114, -74805.19, -61403.95, -180235.77, -9096.65, -181482.44, 9345.15, 3097.68, -181404.00, 0.07, 0.49, 0.91
115, -74434.95, -60511.13, -179942.20, -9798.69, -181068.03, 9702.60, 2874.84, -181200.98, 0.07, 0.49, 0.91
116, -74568.61, -60923.75, -180148.61, -9482.26, -181157.34, 9567.73, 3341.65, -181282.50, 0.07, 0.49, 0.91
117, -74957.16, -61904.47, -180464.45, -8771.96, -181500.94, 9185.32, 3580.06, -181545.22, 0.07, 0.49, 0.91
118, -74896.70, -61580.82, -180299.92, -8998.59, -181393.70, 9241.84, 3192.81, -181469.34, 0.07, 0.49, 0.91
119, -74501.11, -60607.40, -179965.00, -9770.13, -180824.98, 9627.23, 2851.81, -181229.14, 0.07, 0.49, 0.91
120, -74523.84, -60774.41, -180072.11, -9636.33, -180668.56, 9614.33, 3246.21, -181259.92, 0.07, 0.49, 0.91
121, -74917.26, -61819.65, -180437.17, -8865.13, -181348.41, 9241.53, 3588.17, -181513.66, 0.07, 0.49, 0.91
122, -74954.88, -61744.48, -180355.80, -8894.90, -181610.75, 9206.15, 3287.47, -181515.84, 0.07, 0.49, 0.91
123, -74560.63, -60715.85, -180002.89, -9687.54, -181184.28, 9588.70, 2868.15, -181252.70, 0.07, 0.49, 0.91
124, -74484.19, -60606.24, -180013.33, -9776.65, -181062.27, 9658.10, 3148.33, -181239.84, 0.07, 0.49, 0.91
125, -74869.11, -61631.22, -180398.00, -9021.34, -181404.53, 9274.86, 3576.37, -181478.52, 0.07, 0.49, 0.91
126, -75006.28, -61832.63, -180404.55, -8856.30, -181498.08, 9138.29, 3377.66, -181562.13, 0.07, 0.49, 0.91
127, -74641.28, -60848.42, -180055.55, -9608.14, -181035.28, 9493.59, 2908.68, -181286.98, 0.07, 0.49, 0.91
128, -74458.77, -60492.87, -179961.20, -9883.83, -180596.36, 9679.76, 3068.56, -181218.23, 0.07, 0.49, 0.91
129, -74795.44, -61432.11, -180329.02, -9169.49, -181062.47, 9365.83, 3562.20, -181417.06, 0.07, 0.49, 0.91
130, -75016.50, -61882.90, -180426.78, -8813.27, -181623.09, 9155.10, 3480.12, -181568.38, 0.07, 0.49, 0.91
131, -74705.20, -60989.37, -180103.63, -9478.30, -181331.34, 9456.22, 2989.79, -181316.27, 0.07, 0.49, 0.91
132, -74439.95, -60413.45, -179926.94, -9945.23, -181020.92, 9711.01, 2998.17, -181195.13, 0.07, 0.49, 0.92
133, -74725.03, -61223.75, -180266.48, -9336.55, -181263.56, 9426.16, 3505.71, -181362.19, 0.07, 0.49, 0.92
134, -75025.62, -61930.07, -180459.84, -8815.66, -181522.02, 9127.36, 3529.30, -181576.33, 0.07, 0.49, 0.92
135, -74789.29, -61188.01, -180175.64, -9343.39, -181223.84, 9354.27, 3057.47, -181370.08, 0.07, 0.49, 0.92
136, -74446.08, -60403.80, -179912.19, -9952.25, -180635.86, 9690.58, 2936.19, -181191.02, 0.07, 0.49, 0.92
137, -74638.04, -61001.86, -180176.27, -9478.61, -180804.75, 9517.46, 3443.31, -181307.89, 0.08, 0.49, 0.92
138, -74988.98, -61888.11, -180449.81, -8819.19, -181509.77, 9187.57, 3592.86, -181544.45, 0.08, 0.49, 0.92
139, -74844.08, -61365.06, -180237.02, -9177.76, -181485.19, 9328.41, 3158.01, -181407.02, 0.08, 0.49, 0.92
140, -74462.20, -60459.16, -179930.36, -9892.57, -181060.20, 9697.08, 2900.50, -181194.61, 0.08, 0.49, 0.92
141, -74569.73, -60832.80, -180114.58, -9604.97, -181123.58, 9586.42, 3348.92, -181271.88, 0.08, 0.49, 0.92
142, -74961.22, -61845.26, -180445.56, -8864.97, -181470.20, 9200.78, 3604.87, -181528.38, 0.08, 0.49, 0.91
143, -74918.58, -61575.66, -180296.31, -9035.27, -181381.63, 9240.08, 3235.08, -181463.22, 0.08, 0.49, 0.91
144, -74515.15, -60576.29, -179947.52, -9804.84, -180798.36, 9633.80, 2876.80, -181209.19, 0.08, 0.49, 0.91
145, -74508.78, -60661.71, -180025.89, -9714.20, -180616.48, 9651.46, 3251.55, -181228.66, 0.08, 0.49, 0.91
146, -74896.42, -61704.76, -180396.44, -8930.73, -181264.23, 9289.45, 3618.43, -181471.81, 0.08, 0.49, 0.91
147, -74953.58, -61685.96, -180340.78, -8903.77, -181589.97, 9239.41, 3342.57, -181491.16, 0.07, 0.49, 0.92
148, -74562.84, -60656.69, -179991.59, -9683.09, -181177.44, 9619.43, 2907.07, -181230.31, 0.07, 0.49, 0.92
149, -74459.63, -60489.54, -179975.02, -9807.57, -181029.83, 9713.44, 3159.08, -181201.73, 0.07, 0.49, 0.92
150, -74835.47, -61515.39, -180361.41, -9047.47, -181363.92, 9337.84, 3595.70, -181431.98, 0.07, 0.49, 0.92
151, -74993.25, -61781.38, -180395.11, -8825.63, -181478.56, 9179.73, 3417.29, -181531.50, 0.07, 0.49, 0.92
152, -74635.87, -60811.38, -180051.75, -9550.65, -181019.42, 9526.96, 2938.76, -181270.55, 0.07, 0.49, 0.92
153, -74428.87, -60399.51, -179934.73, -9865.28, -180560.92, 9734.14, 3064.83, -181187.86, 0.07, 0.49, 0.91
154, -74752.75, -61330.14, -180299.48, -9156.75, -181010.88, 9430.49, 3562.89, -181382.09, 0.07, 0.49, 0.91
155, -74995.82, -61853.18, -180425.53, -8748.67, -181603.06, 9201.63, 3500.48, -181546.14, 0.07, 0.49, 0.91
156, -74703.39, -60996.84, -180116.77, -9379.22, -181345.22, 9486.71, 3006.04, -181313.02, 0.07, 0.49, 0.91
157, -74418.01, -60349.68, -179918.13, -9879.85, -181015.81, 9760.29, 2988.07, -181178.41, 0.07, 0.49, 0.91
158, -74685.91, -61121.31, -180244.22, -9303.29, -181239.92, 9491.51, 3493.02, -181334.64, 0.07, 0.49, 0.92
159, -75005.23, -61876.85, -180458.61, -8748.23, -181513.92, 9177.13, 3543.60, -181557.42, 0.07, 0.49, 0.92
160, -74790.86, -61180.30, -180190.97, -9239.70, -181240.97, 9385.81, 3076.38, -181371.70, 0.07, 0.49, 0.92
161, -74439.95, -60367.34, -179920.77, -9878.58, -180654.13, 9732.51, 2919.83, -181185.69, 0.07, 0.49, 0.92
162, -74615.17, -60907.74, -180167.17, -9447.34, -180774.16, 9577.52, 3420.29, -181285.30, 0.07, 0.49, 0.92
163, -74978.45, -61819.47, -180448.91, -8769.46, -181482.34, 9236.54, 3599.28, -181534.41, 0.08, 0.50, 0.91
164, -74859.92, -61345.21, -180248.02, -9094.70, -181506.84, 9354.29, 3178.57, -181413.23, 0.08, 0.50, 0.91
165, -74474.04, -60412.49, -179930.00, -9834.86, -181078.20, 9727.28, 2893.46, -181190.98, 0.08, 0.50, 0.91
166, -74561.75, -60730.25, -180096.31, -9597.37, -181121.75, 9633.62, 3323.06, -181255.19, 0.08, 0.50, 0.91
167, -74958.52, -61758.74, -180438.41, -8849.84, -181475.45, 9240.21, 3600.49, -181518.05, 0.08, 0.50, 0.91
168, -74941.66, -61537.59, -180310.59, -8980.66, -181413.17, 9256.10, 3252.94, -181472.69, 0.08, 0.49, 0.90
169, -74540.77, -60530.58, -179963.98, -9764.90, -180854.47, 9648.89, 2872.24, -181211.83, 0.08, 0.49, 0.90
170, -74513.38, -60564.38, -180025.14, -9727.19, -180625.67, 9685.75, 3224.95, -181229.25, 0.08, 0.49, 0.90
171, -74902.86, -61630.75, -180397.73, -8948.81, -181271.77, 9319.74, 3607.37, -181471.91, 0.08, 0.49, 0.90
172, -74989.34, -61691.35, -180355.50, -8882.56, -181616.09, 9240.10, 3350.35, -181510.94, 0.08, 0.49, 0.90
173, -74605.74, -60677.41, -180001.55, -9659.46, -181209.14, 9612.01, 2904.01, -181241.84, 0.08, 0.49, 0.91
174, -74481.30, -60461.73, -179964.91, -9834.52, -181040.67, 9729.29, 3127.19, -181208.20, 0.08, 0.49, 0.91
175, -74855.74, -61486.61, -180352.36, -9087.12, -181370.98, 9357.80, 3577.69, -181436.70, 0.08, 0.49, 0.91
176, -75038.63, -61836.93, -180403.92, -8825.81, -181510.06, 9175.70, 3421.54, -181554.88, 0.08, 0.49, 0.91
177, -74697.27, -60888.30, -180063.14, -9539.41, -181089.56, 9507.63, 2936.66, -181290.05, 0.08, 0.49, 0.91
178, -74472.41, -60410.15, -179927.56, -9906.11, -180607.59, 9733.38, 3032.44, -181191.48, 0.07, 0.49, 0.91
179, -74786.45, -61295.16, -180283.80, -9234.09, -180994.52, 9444.35, 3539.78, -181370.45, 0.07, 0.49, 0.91
180, -75047.86, -61864.51, -180429.13, -8797.42, -181602.98, 9197.36, 3510.21, -181555.19, 0.07, 0.49, 0.91
181, -74770.29, -61033.11, -180127.72, -9406.11, -181358.52, 9467.59, 3026.78, -181323.78, 0.07, 0.49, 0.91
182, -74469.77, -60350.69, -179910.28, -9946.10, -181013.67, 9758.39, 2978.55, -181177.98, 0.07, 0.49, 0.91
183, -74718.91, -61070.06, -180217.75, -9405.88, -181218.89, 9510.17, 3487.01, -181328.39, 0.06, 0.49, 0.91
184, -75050.36, -61884.02, -180446.44, -8823.40, -181506.27, 9183.48, 3563.47, -181556.06, 0.06, 0.49, 0.91
185, -74857.20, -61234.48, -180188.36, -9280.27, -181258.36, 9370.32, 3107.25, -181380.36, 0.06, 0.49, 0.91
186, -74493.58, -60384.00, -179903.16, -9947.53, -180664.16, 9727.39, 2924.70, -181186.16, 0.06, 0.49, 0.91
187, -74647.20, -60875.29, -180130.69, -9559.44, -180750.13, 9592.23, 3415.93, -181280.05, 0.06, 0.49, 0.91
188, -75017.77, -61820.68, -180432.23, -8864.37, -181464.16, 9242.76, 3617.29, -181528.61, 0.07, 0.50, 0.92
189, -74922.33, -61415.02, -180250.63, -9145.86, -181510.63, 9336.61, 3209.29, -181425.14, 0.07, 0.50, 0.92
190, -74529.70, -60459.81, -179926.22, -9900.08, -181074.97, 9717.49, 2900.56, -181194.30, 0.07, 0.50, 0.92
191, -74591.05, -60717.33, -180068.67, -9706.18, -181091.56, 9652.96, 3317.07, -181242.56, 0.07, 0.50, 0.92
192, -74988.02, -61759.72, -180422.92, -8944.74, -181445.36, 9260.75, 3625.27, -181502.70, 0.07, 0.50, 0.92
193, -74994.26, -61616.07, -180315.94, -9027.74, -181406.91, 9253.38, 3294.29, -181477.09, 0.07, 0.49, 0.92
194, -74592.24, -60600.47, -179963.50, -9810.20, -180856.31, 9644.91, 2898.48, -181211.94, 0.07, 0.49, 0.92
195, -74537.09, -60564.98, -179997.34, -9820.17, -180589.06, 9709.46, 3226.43, -181212.34, 0.07, 0.49, 0.92
196, -74921.23, -61604.82, -180374.66, -9039.89, -181201.98, 9350.54, 3634.51, -181449.64, 0.07, 0.49, 0.92
197, -75025.28, -61728.07, -180356.69, -8920.38, -181595.64, 9254.29, 3399.45, -181506.22, 0.07, 0.49, 0.92
198, -74646.77, -60725.48, -180006.91, -9680.34, -181203.86, 9622.60, 2939.52, -181242.11, 0.07, 0.49, 0.92
199, -74496.64, -60435.11, -179945.39, -9897.06, -181009.52, 9764.34, 3137.69, -181182.63, 0.07, 0.49, 0.92
200, -74857.76, -61443.29, -180326.83, -9159.28, -181326.94, 9406.35, 3598.27, -181397.83, 0.07, 0.49, 0.92
201, -75059.03, -61838.20, -180401.19, -8851.45, -181485.11, 9208.20, 3467.81, -181535.52, 0.07, 0.49, 0.92
202, -74729.79, -60916.73, -180071.33, -9536.73, -181068.33, 9530.40, 2978.86, -181283.59, 0.07, 0.49, 0.92
203, -74485.17, -60403.13, -179914.97, -9937.58, -180564.92, 9774.71, 3035.34, -181174.81, 0.07, 0.49, 0.91
204, -74784.60, -61258.22, -180261.56, -9281.70, -180946.80, 9499.36, 3543.96, -181347.05, 0.07, 0.49, 0.91
205, -75060.71, -61885.59, -180425.78, -8800.44, -181578.69, 9239.52, 3535.91, -181540.13, 0.07, 0.49, 0.91
206, -74800.91, -61093.73, -180138.22, -9370.83, -181369.89, 9491.18, 3051.53, -181321.72, 0.07, 0.49, 0.91
207, -74482.70, -60366.29, -179904.80, -9941.25, -181008.05, 9797.48, 2966.17, -181164.61, 0.07, 0.49, 0.91
208, -74708.94, -61029.76, -180195.22, -9434.65, -181190.86, 9570.55, 3468.74, -181298.91, 0.07, 0.50, 0.91
209, -75052.73, -61862.27, -180448.63, -8816.22, -181492.30, 9229.24, 3583.50, -181537.22, 0.07, 0.50, 0.91
210, -74880.33, -61266.58, -180207.06, -9232.63, -181266.19, 9394.30, 3135.93, -181374.14, 0.07, 0.50, 0.91
211, -74509.27, -60392.98, -179911.58, -9919.30, -180668.56, 9758.48, 2925.15, -181168.91, 0.07, 0.50, 0.91
212, -74641.62, -60826.96, -180120.20, -9572.83, -180716.16, 9643.84, 3404.15, -181258.69, 0.07, 0.50, 0.91
213, -75019.34, -61793.79, -180428.55, -8855.51, -181429.70, 9288.25, 3635.47, -181510.03, 0.08, 0.50, 0.91
214, -74943.59, -61410.99, -180255.97, -9095.17, -181521.81, 9364.40, 3250.39, -181420.92, 0.08, 0.50, 0.91
215, -74545.16, -60434.73, -179920.19, -9864.36, -181082.78, 9751.42, 2915.96, -181179.66, 0.08, 0.50, 0.91
216, -74583.21, -60641.64, -180041.95, -9715.12, -181079.25, 9707.88, 3308.28, -181224.03, 0.08, 0.50, 0.91
217, -74984.94, -61704.71, -180408.80, -8945.59, -181439.27, 9309.30, 3628.63, -181485.59, 0.08, 0.50, 0.91
218, -75020.37, -61623.22, -180321.98, -8983.81, -181428.86, 9274.25, 3312.28, -181485.45, 0.07, 0.50, 0.92
219, -74626.51, -60601.21, -179970.83, -9770.01, -180913.53, 9658.14, 2895.06, -181221.02, 0.07, 0.50, 0.92
220, -74554.78, -60514.69, -179988.88, -9833.96, -180602.16, 9736.62, 3188.32, -181213.13, 0.07, 0.50, 0.92
221, -74936.01, -61551.49, -180371.78, -9063.61, -181188.38, 9379.37, 3612.13, -181448.64, 0.07, 0.50, 0.92
222, -75062.74, -61727.52, -180373.56, -8910.43, -181606.33, 9260.26, 3402.29, -181522.73, 0.07, 0.50, 0.92
223, -74695.52, -60728.17, -180026.39, -9666.77, -181227.31, 9616.52, 2937.87, -181251.67, 0.07, 0.49, 0.92
224, -74522.44, -60384.13, -179942.25, -9942.37, -181009.72, 9781.97, 3097.86, -181185.45, 0.07, 0.49, 0.92
225, -74873.85, -61345.66, -180319.16, -9233.08, -181317.77, 9432.48, 3579.32, -181395.70, 0.07, 0.49, 0.92
226, -75100.38, -61793.79, -180415.19, -8888.37, -181498.75, 9209.23, 3486.94, -181553.47, 0.07, 0.49, 0.92
227, -74789.00, -60903.32, -180090.95, -9560.22, -181114.77, 9513.08, 2995.83, -181299.38, 0.07, 0.49, 0.92
228, -74529.95, -60334.48, -179919.16, -10010.45, -180601.27, 9769.99, 3024.48, -181177.69, 0.07, 0.49, 0.92
229, -74814.30, -61149.30, -180254.23, -9390.41, -180920.27, 9506.78, 3542.37, -181337.03, 0.07, 0.49, 0.92
230, -75107.05, -61827.74, -180435.50, -8883.16, -181570.95, 9231.00, 3564.63, -181550.98, 0.07, 0.49, 0.92
231, -74867.32, -61097.02, -180149.59, -9426.65, -181391.80, 9463.59, 3080.43, -181341.48, 0.07, 0.49, 0.92
232, -74536.83, -60350.51, -179902.08, -10029.45, -181017.66, 9780.36, 2960.04, -181173.44, 0.07, 0.49, 0.92
233, -74750.91, -60980.34, -180180.00, -9555.04, -181188.20, 9566.19, 3462.13, -181300.56, 0.08, 0.49, 0.92
234, -75109.05, -61858.70, -180443.81, -8918.99, -181501.72, 9214.01, 3593.45, -181551.30, 0.08, 0.49, 0.92
235, -74960.84, -61311.93, -180218.84, -9303.62, -181305.70, 9357.85, 3152.83, -181400.98, 0.08, 0.49, 0.92
236, -74582.56, -60402.64, -179912.69, -10020.82, -180733.03, 9729.04, 2909.73, -181184.36, 0.08, 0.49, 0.92
237, -74689.38, -60784.09, -180096.30, -9726.12, -180692.75, 9639.64, 3366.37, -181254.63, 0.08, 0.49, 0.92
238, -75074.86, -61785.00, -180422.25, -8988.84, -181390.17, 9277.85, 3630.59, -181512.61, 0.07, 0.50, 0.91
239, -75024.05, -61484.53, -180277.86, -9182.54, -181528.44, 9330.42, 3259.42, -181442.94, 0.07, 0.50, 0.91
240, -74623.94, -60489.29, -179943.09, -9954.57, -181090.50, 9718.92, 2915.47, -181195.89, 0.07, 0.50, 0.91
241, -74631.24, -60612.95, -180036.52, -9863.20, -181055.77, 9705.19, 3288.88, -181220.34, 0.07, 0.50, 0.91
242, -75029.20, -61661.22, -180405.22, -9089.85, -181411.22, 9310.19, 3652.90, -181475.78, 0.07, 0.50, 0.91
243, -75083.62, -61630.89, -180336.64, -9082.34, -181420.08, 9255.46, 3371.49, -181488.88, 0.07, 0.49, 0.91
244, -74691.16, -60620.41, -179985.05, -9863.24, -180891.70, 9639.10, 2941.02, -181215.22, 0.07, 0.49, 0.91
245, -74591.03, -60471.43, -179974.42, -9963.76, -180562.19, 9746.77, 3217.62, -181187.23, 0.07, 0.49, 0.91
246, -74960.95, -61502.36, -180351.44, -9194.41, -181136.50, 9398.86, 3660.93, -181412.58, 0.07, 0.49, 0.91
247, -75108.68, -61755.34, -180371.11, -8988.11, -181592.36, 9262.38, 3475.70, -181506.16, 0.07, 0.49, 0.91
248, -74748.55, -60787.73, -180026.58, -9720.04, -181227.58, 9613.93, 2997.70, -181242.17, 0.07, 0.50, 0.92
249, -74554.45, -60390.19, -179921.50, -10024.47, -180989.47, 9798.47, 3133.98, -181163.88, 0.07, 0.50, 0.92
250, -74891.40, -61327.02, -180293.66, -9319.63, -181285.41, 9463.19, 3626.32, -181364.19, 0.07, 0.50, 0.92
251, -75130.76, -61854.32, -180410.95, -8932.92, -181481.97, 9226.08, 3542.66, -181531.39, 0.07, 0.50, 0.92
252, -74833.10, -60988.36, -180094.33, -9573.03, -181104.16, 9515.34, 3047.91, -181296.92, 0.07, 0.50, 0.92
253, -74551.63, -60365.82, -179897.25, -10051.49, -180561.56, 9795.25, 3041.71, -181164.61, 0.08, 0.50, 0.91
254, -74816.07, -61138.25, -180218.17, -9450.79, -180870.13, 9553.25, 3557.30, -181319.52, 0.08, 0.50, 0.91
255, -75121.66, -61863.84, -180421.94, -8897.38, -181535.77, 9264.04, 3604.64, -181525.80, 0.08, 0.50, 0.91
0, -74898.15, -61157.48, -180151.83, -9396.67, -181389.34, 9481.05, 3130.83, -181329.08, 0.08, 0.50, 0.91
1, -74554.89, -60349.35, -179887.92, -10023.15, -180998.81, 9812.44, 2987.89, -181150.58, 0.08, 0.50, 0.91
2, -74744.41, -60909.38, -180143.98, -9583.71, -181142.36, 9622.94, 3482.94, -181273.16, 0.07, 0.49, 0.91
3, -75106.82, -61807.24, -180419.77, -8918.90, -181461.84, 9262.81, 3642.51, -181514.20, 0.07, 0.49, 0.91
4, -74980.40, -61331.20, -180212.44, -9253.78, -181283.89, 9383.26, 3208.06, -181385.34, 0.07, 0.49, 0.91
5, -74592.84, -60402.01, -179896.83, -9976.37, -180682.31, 9763.42, 2935.07, -181162.11, 0.07, 0.49, 0.91
6, -74677.20, -60723.05, -180063.84, -9704.64, -180651.83, 9694.60, 3384.12, -181223.67, 0.07, 0.49, 0.91
7, -75063.01, -61736.81, -180402.91, -8946.06, -181346.30, 9332.25, 3662.09, -181475.81, 0.07, 0.49, 0.92
8, -75032.93, -61493.56, -180271.06, -9086.10, -181528.66, 9362.59, 3304.44, -181426.53, 0.07, 0.49, 0.92
9, -74632.78, -60487.60, -179929.09, -9864.85, -181092.17, 9750.81, 2927.94, -181178.19, 0.07, 0.49, 0.92
10, -74622.23, -60551.34, -180004.34, -9808.84, -181037.64, 9755.78, 3277.21, -181193.38, 0.07, 0.49, 0.92
11, -75020.03, -61612.09, -180384.81, -9032.52, -181392.05, 9361.56, 3640.63, -181443.86, 0.07, 0.49, 0.92
12, -75100.16, -61662.02, -180337.53, -8979.08, -181427.11, 9282.54, 3363.33, -181480.20, 0.08, 0.49, 0.91
13, -74715.51, -60651.48, -179982.81, -9751.75, -180913.47, 9659.02, 2914.31, -181214.23, 0.08, 0.49, 0.91
14, -74597.54, -60459.75, -179953.23, -9894.87, -180560.02, 9783.49, 3152.24, -181178.14, 0.08, 0.49, 0.91
15, -74965.73, -61478.11, -180333.58, -9132.63, -181124.45, 9439.10, 3604.87, -181400.53, 0.08, 0.49, 0.91
16, -75135.86, -61781.29, -180373.09, -8885.27, -181603.22, 9279.53, 3441.39, -181512.83, 0.08, 0.49, 0.91
17, -74790.39, -60825.06, -180034.42, -9606.00, -181253.69, 9615.97, 2951.64, -181257.36, 0.07, 0.50, 0.91
18, -74579.66, -60390.86, -179915.58, -9954.84, -181000.38, 9814.92, 3044.49, -181170.77, 0.07, 0.50, 0.91
19, -74909.61, -61308.00, -180280.42, -9277.99, -181287.92, 9485.25, 3534.46, -181367.44, 0.07, 0.50, 0.91
20, -75172.40, -61876.46, -180415.58, -8861.26, -181506.70, 9224.63, 3479.29, -181552.50, 0.07, 0.50, 0.91
21, -74894.37, -61052.22, -180108.25, -9479.91, -181169.88, 9495.07, 2983.09, -181314.08, 0.07, 0.50, 0.91
22, -74601.11, -60386.36, -179900.33, -10005.07, -180639.73, 9785.28, 2944.95, -181171.75, 0.08, 0.49, 0.91
23, -74851.50, -61109.62, -180208.86, -9447.68, -180858.89, 9555.79, 3462.20, -181312.73, 0.08, 0.49, 0.91
24, -75172.16, -61880.47, -180425.58, -8876.35, -181535.47, 9251.45, 3538.26, -181542.97, 0.08, 0.49, 0.91
25, -74971.99, -61211.21, -180167.30, -9353.87, -181413.59, 9445.29, 3076.85, -181361.25, 0.08, 0.49, 0.91
26, -74620.20, -60373.02, -179892.91, -10018.52, -181017.70, 9783.65, 2902.84, -181173.11, 0.08, 0.49, 0.91
27, -74793.63, -60888.07, -180139.11, -9628.28, -181147.34, 9608.28, 3390.11, -181275.80, 0.07, 0.49, 0.91
28, -75171.91, -61834.02, -180441.48, -8951.23, -181482.84, 9232.90, 3575.00, -181540.91, 0.07, 0.49, 0.91
29, -75070.74, -61410.72, -180244.84, -9257.67, -181336.61, 9327.85, 3158.15, -181426.22, 0.07, 0.49, 0.91
30, -74680.91, -60458.56, -179919.89, -10011.28, -180768.56, 9706.09, 2862.10, -181188.23, 0.07, 0.49, 0.91
31, -74747.96, -60719.72, -180067.41, -9800.59, -180668.50, 9651.59, 3296.19, -181245.19, 0.07, 0.49, 0.91
32, -75140.02, -61750.80, -180412.23, -9048.81, -181364.70, 9282.32, 3597.40, -181503.00, 0.08, 0.49, 0.91
33, -75137.87, -61570.56, -180289.81, -9163.75, -181551.34, 9287.73, 3261.59, -181470.30, 0.08, 0.49, 0.91
34, -74740.19, -60555.70, -179937.55, -9960.88, -181114.97, 9674.53, 2872.51, -181206.30, 0.08, 0.49, 0.91
35, -74707.17, -60573.94, -179992.16, -9961.77, -181039.73, 9699.90, 3199.12, -181205.11, 0.08, 0.49, 0.91
36, -75105.14, -61638.31, -180375.23, -9197.97, -181395.84, 9304.05, 3584.66, -181461.22, 0.08, 0.49, 0.91
37, -75206.17, -61743.38, -180345.56, -9111.08, -181452.89, 9202.46, 3336.42, -181518.33, 0.07, 0.49, 0.90
38, -74828.25, -60745.96, -179993.58, -9883.83, -180970.94, 9571.93, 2878.84, -181240.25, 0.07, 0.49, 0.90
39, -74685.27, -60492.78, -179942.02, -10084.82, -180574.64, 9717.85, 3092.12, -181184.73, 0.07, 0.49, 0.90
40, -75042.98, -61487.57, -180317.33, -9342.54, -181090.08, 9383.40, 3562.29, -181397.52, 0.07, 0.49, 0.90
41, -75233.35, -61847.36, -180378.27, -9056.52, -181597.02, 9204.07, 3430.10, -181529.19, 0.07, 0.49, 0.90
42, -74897.54, -60901.84, -180042.33, -9760.74, -181262.00, 9530.07, 2946.54, -181264.69, 0.07, 0.49, 0.90
43, -74661.93, -60388.46, -179896.36, -10157.30, -180982.94, 9754.84, 3021.67, -181163.14, 0.07, 0.49, 0.90
44, -74973.23, -61265.55, -180253.27, -9507.40, -181251.70, 9444.57, 3522.97, -181346.48, 0.07, 0.49, 0.90
45, -75249.20, -61920.12, -180412.77, -9046.35, -181485.31, 9170.76, 3491.19, -181543.00, 0.07, 0.49, 0.90
46, -74984.40, -61127.82, -180113.39, -9628.75, -181155.09, 9427.56, 3003.38, -181319.05, 0.07, 0.49, 0.90
47, -74671.90, -60417.34, -179883.72, -10181.89, -180593.42, 9737.63, 2935.14, -181161.36, 0.07, 0.49, 0.90
48, -74900.23, -61101.82, -180176.56, -9646.97, -180816.80, 9528.55, 3451.47, -181289.78, 0.07, 0.49, 0.90
49, -75230.52, -61916.45, -180413.95, -9040.25, -181505.84, 9214.55, 3552.83, -181522.72, 0.07, 0.49, 0.90
50, -75046.74, -61297.40, -180165.98, -9472.24, -181422.33, 9392.78, 3101.06, -181353.73, 0.07, 0.49, 0.90
51, -74678.83, -60428.32, -179875.17, -10153.53, -181011.30, 9748.78, 2897.28, -181152.80, 0.07, 0.49, 0.90
52, -74823.91, -60888.74, -180096.45, -9801.35, -181112.38, 9601.08, 3367.67, -181245.50, 0.07, 0.49, 0.91
53, -75204.27, -61849.31, -180412.77, -9093.18, -181450.00, 9224.50, 3585.82, -181500.83, 0.07, 0.49, 0.91
54, -75120.73, -61472.37, -180234.61, -9344.75, -181319.67, 9304.94, 3188.05, -181403.72, 0.07, 0.49, 0.91
55, -74722.02, -60502.53, -179901.52, -10097.67, -180734.91, 9692.79, 2870.08, -181163.61, 0.07, 0.49, 0.91
56, -74756.77, -60698.11, -180020.42, -9921.65, -180607.09, 9668.16, 3282.49, -181205.05, 0.07, 0.49, 0.91
57, -75145.13, -61729.19, -180381.39, -9144.81, -181281.16, 9302.73, 3611.86, -181453.58, 0.08, 0.49, 0.91
58, -75161.29, -61590.95, -180286.11, -9198.91, -181534.73, 9288.96, 3300.37, -181439.25, 0.08, 0.49, 0.91
59, -74760.91, -60563.75, -179932.59, -9983.96, -181105.41, 9676.70, 2891.78, -181181.27, 0.08, 0.49, 0.91
60, -74701.43, -60516.39, -179960.28, -10022.81, -181001.56, 9728.31, 3189.66, -181167.45, 0.08, 0.49, 0.91
61, -75092.56, -61581.98, -180346.61, -9246.94, -181349.75, 9338.87, 3591.25, -181411.36, 0.08, 0.49, 0.91
62, -75213.41, -61752.55, -180343.55, -9099.26, -181427.88, 9215.65, 3366.80, -181486.39, 0.07, 0.50, 0.91
63, -74840.27, -60749.89, -179995.27, -9850.06, -180945.30, 9579.42, 2902.22, -181220.98, 0.07, 0.50, 0.91
64, -74670.20, -60423.96, -179916.63, -10086.02, -180524.70, 9750.61, 3084.65, -181151.42, 0.07, 0.50, 0.91
65, -75015.24, -61380.48, -180288.25, -9350.20, -181006.31, 9428.99, 3566.91, -181353.31, 0.07, 0.50, 0.91
66, -75222.70, -61799.80, -180371.31, -9016.96, -181556.84, 9234.18, 3455.74, -181494.70, 0.07, 0.50, 0.91
67, -74901.09, -60895.45, -180045.70, -9691.34, -181262.89, 9544.06, 2959.82, -181251.98, 0.07, 0.49, 0.91
68, -74649.84, -60344.63, -179884.47, -10119.26, -180968.45, 9782.33, 2995.02, -181138.17, 0.07, 0.49, 0.91
69, -74949.40, -61191.00, -180231.97, -9488.29, -181223.92, 9485.16, 3491.19, -181310.55, 0.07, 0.49, 0.91
70, -75242.41, -61856.71, -180410.25, -8992.42, -181472.67, 9196.58, 3489.84, -181518.94, 0.07, 0.49, 0.91
71, -74995.51, -61088.41, -180122.38, -9547.64, -181161.64, 9437.87, 3002.13, -181306.27, 0.07, 0.49, 0.91
72, -74669.30, -60353.80, -179879.72, -10129.99, -180589.02, 9759.84, 2894.95, -181143.19, 0.07, 0.49, 0.91
73, -74882.09, -60993.53, -180157.78, -9630.00, -180780.86, 9564.65, 3401.85, -181275.08, 0.07, 0.49, 0.91
74, -75227.12, -61842.22, -180407.70, -8997.14, -181481.55, 9236.61, 3526.86, -181511.38, 0.07, 0.49, 0.91
75, -75068.51, -61276.95, -180173.11, -9394.15, -181432.44, 9389.59, 3080.36, -181360.89, 0.07, 0.49, 0.91
76, -74697.74, -60400.78, -179875.55, -10099.08, -181016.84, 9747.98, 2837.80, -181154.13, 0.07, 0.49, 0.91
77, -74826.95, -60826.45, -180082.41, -9780.88, -181104.11, 9614.40, 3291.25, -181229.81, 0.07, 0.48, 0.91
78, -75216.50, -61825.57, -180410.52, -9057.51, -181450.72, 9228.70, 3526.01, -181498.81, 0.07, 0.48, 0.91
79, -75156.77, -61500.82, -180251.03, -9271.48, -181346.73, 9282.19, 3142.41, -181421.89, 0.07, 0.48, 0.91
80, -74756.97, -60512.81, -179912.53, -10043.89, -180783.39, 9671.00, 2801.81, -181172.70, 0.07, 0.48, 0.91
81, -74773.16, -60661.09, -180014.70, -9925.60, -180609.36, 9665.03, 3187.31, -181203.44, 0.07, 0.48, 0.91
82, -75169.27, -61713.75, -180382.28, -9150.11, -181285.47, 9292.54, 3537.34, -181457.77, 0.07, 0.48, 0.92
83, -75213.70, -61658.83, -180304.08, -9168.17, -181554.67, 9252.82, 3239.24, -181464.52, 0.07, 0.48, 0.92
84, -74822.28, -60644.01, -179954.53, -9956.12, -181131.92, 9631.90, 2814.87, -181198.05, 0.07, 0.48, 0.92
85, -74742.40, -60532.93, -179964.95, -10047.58, -181007.45, 9703.70, 3089.97, -181180.13, 0.07, 0.48, 0.92
86, -75130.00, -61567.03, -180352.69, -9290.17, -181350.22, 9318.87, 3515.28, -181418.91, 0.07, 0.48, 0.92
87, -75275.69, -61781.80, -180363.23, -9116.96, -181448.92, 9174.79, 3318.36, -181508.67, 0.08, 0.48, 0.92
88, -74915.04, -60807.16, -180012.09, -9864.96, -180988.02, 9526.40, 2843.30, -181236.28, 0.08, 0.48, 0.92
89, -74731.73, -60435.45, -179917.03, -10150.06, -180544.63, 9713.02, 2999.09, -181164.55, 0.08, 0.48, 0.92
90, -75069.56, -61381.31, -180287.05, -9437.55, -181010.05, 9399.15, 3492.26, -181362.77, 0.08, 0.48, 0.92
91, -75296.34, -61866.34, -180391.56, -9073.51, -181577.94, 9182.52, 3407.48, -181521.66, 0.08, 0.48, 0.92
92, -74993.68, -60995.27, -180071.84, -9733.25, -181293.55, 9475.91, 2912.16, -181276.42, 0.08, 0.48, 0.92
93, -74728.70, -60409.43, -179892.16, -10205.85, -180981.44, 9730.90, 2916.37, -181153.44, 0.07, 0.48, 0.91
94, -75011.96, -61216.33, -180228.50, -9606.29, -181221.48, 9447.77, 3424.87, -181317.48, 0.07, 0.48, 0.91
95, -75317.30, -61928.90, -180422.56, -9081.94, -181483.91, 9146.38, 3458.51, -181536.03, 0.07, 0.48, 0.91
96, -75085.14, -61198.80, -180139.78, -9605.57, -181195.64, 9370.92, 2985.95, -181328.28, 0.07, 0.48, 0.91
97, -74744.16, -60418.37, -179881.83, -10223.04, -180622.03, 9704.70, 2854.90, -181152.34, 0.07, 0.48, 0.91
98, -74935.12, -61015.48, -180143.41, -9766.30, -180748.36, 9531.07, 3356.65, -181274.98, 0.08, 0.49, 0.91
99, -75292.83, -61910.26, -180416.53, -9104.98, -181452.78, 9194.64, 3517.34, -181513.97, 0.08, 0.49, 0.91
100, -75155.50, -61393.64, -180198.27, -9462.99, -181448.02, 9328.54, 3087.11, -181374.55, 0.08, 0.49, 0.91
101, -74772.87, -60472.06, -179889.25, -10184.53, -181023.11, 9697.44, 2832.01, -181156.39, 0.08, 0.49, 0.91
102, -74875.08, -60819.99, -180072.22, -9910.74, -181081.72, 9592.43, 3281.21, -181223.06, 0.08, 0.49, 0.91
103, -75266.75, -61822.73, -180407.30, -9175.39, -181428.97, 9207.26, 3548.88, -181485.88, 0.08, 0.49, 0.91
104, -75227.30, -61558.76, -180263.92, -9344.66, -181342.84, 9244.86, 3186.29, -181425.58, 0.08, 0.49, 0.91
105, -74824.66, -60551.63, -179921.05, -10120.91, -180767.17, 9636.93, 2827.81, -181171.20, 0.08, 0.49, 0.91
106, -74815.55, -60628.77, -180000.67, -10038.79, -180573.75, 9656.49, 3202.13, -181186.67, 0.08, 0.49, 0.91
107, -75205.02, -61682.18, -180370.72, -9256.01, -181227.61, 9292.38, 3568.19, -181431.20, 0.08, 0.49, 0.91
108, -75268.05, -61681.31, -180315.89, -9224.92, -181549.20, 9235.43, 3290.65, -181455.20, 0.08, 0.50, 0.91
109, -74876.76, -60657.67, -179966.00, -10005.18, -181133.55, 9614.22, 2852.51, -181189.36, 0.08, 0.50, 0.91
110, -74771.70, -60490.88, -179950.47, -10134.88, -180982.97, 9711.41, 3100.03, -181157.06, 0.08, 0.50, 0.91
111, -75149.78, -61528.74, -180336.13, -9373.90, -181317.23, 9336.17, 3535.00, -181387.91, 0.08, 0.50, 0.91
112, -75309.95, -61805.59, -180364.36, -9145.37, -181434.44, 9175.28, 3358.89, -181492.19, 0.08, 0.50, 0.91
113, -74955.61, -60827.90, -180015.44, -9870.73, -180976.45, 9518.80, 2878.48, -181227.11, 0.08, 0.50, 0.92
114, -74747.16, -60400.38, -179897.05, -10193.42, -180512.72, 9726.81, 2998.33, -181139.25, 0.08, 0.50, 0.92
115, -75072.06, -61319.01, -180263.17, -9491.09, -180961.50, 9424.14, 3496.64, -181327.31, 0.08, 0.50, 0.92
116, -75319.37, -61850.54, -180389.56, -9078.54, -181557.36, 9190.88, 3435.71, -181496.88, 0.08, 0.50, 0.92
117, -75029.15, -60990.53, -180069.47, -9704.79, -181297.86, 9474.19, 2942.07, -181263.13, 0.08, 0.50, 0.92
118, -74741.50, -60343.52, -179868.17, -10206.54, -180964.95, 9749.50, 2914.98, -181124.05, 0.08, 0.49, 0.93
119, -75006.57, -61100.48, -180192.25, -9627.08, -181185.84, 9483.08, 3421.63, -181276.42, 0.08, 0.49, 0.93
120, -75326.92, -61869.49, -180408.34, -9060.99, -181460.83, 9166.74, 3470.20, -181499.88, 0.08, 0.49, 0.93
121, -75119.16, -61196.57, -180141.58, -9541.60, -181195.84, 9368.42, 2992.32, -181314.42, 0.08, 0.49, 0.93
122, -74767.56, -60371.03, -179869.56, -10177.89, -180611.81, 9714.20, 2829.53, -181127.48, 0.08, 0.49, 0.93
123, -74940.63, -60906.85, -180116.88, -9745.18, -180718.27, 9559.28, 3326.12, -181232.05, 0.07, 0.49, 0.93
124, -75304.57, -61830.13, -180406.27, -9059.52, -181427.25, 9215.00, 3498.25, -181477.92, 0.07, 0.49, 0.93
125, -75189.01, -61360.70, -180201.02, -9372.58, -181455.19, 9330.27, 3075.49, -181359.45, 0.07, 0.49, 0.93
126, -74801.38, -60418.64, -179882.67, -10107.73, -181024.06, 9706.22, 2786.57, -181135.11, 0.07, 0.49, 0.93
127, -74883.08, -60711.34, -180047.86, -9872.63, -181062.06, 9619.48, 3218.41, -181192.39, 0.07, 0.49, 0.93
128, -75277.92, -61729.77, -180391.98, -9122.89, -181413.25, 9228.23, 3502.21, -181453.58, 0.08, 0.48, 0.92
129, -75263.77, -61526.13, -180264.59, -9248.93, -181353.98, 9239.27, 3150.61, -181415.53, 0.08, 0.48, 0.92
130, -74866.41, -60533.06, -179918.03, -10028.02, -180799.16, 9627.43, 2762.43, -181162.80, 0.08, 0.48, 0.92
131, -74841.62, -60569.38, -179980.63, -9988.86, -180570.27, 9661.68, 3107.74, -181173.02, 0.08, 0.48, 0.92
132, -75233.45, -61622.55, -180360.17, -9210.82, -181208.94, 9293.16, 3492.66, -181420.08, 0.08, 0.48, 0.92
133, -75322.54, -61694.95, -180320.39, -9138.38, -181566.30, 9208.61, 3233.67, -181464.55, 0.08, 0.48, 0.92
134, -74941.51, -60685.61, -179967.80, -9915.68, -181164.38, 9574.97, 2778.25, -181198.08, 0.08, 0.48, 0.92
135, -74818.30, -60466.94, -179935.66, -10096.22, -180996.13, 9688.21, 2995.27, -181156.09, 0.08, 0.48, 0.92
136, -75192.59, -61484.68, -180322.41, -9352.66, -181326.44, 9316.01, 3446.04, -181384.02, 0.08, 0.48, 0.92
137, -75381.50, -61832.01, -180377.09, -9090.70, -181469.27, 9129.35, 3287.34, -181510.89, 0.08, 0.48, 0.92
138, -75045.40, -60882.13, -180042.31, -9805.20, -181056.55, 9456.04, 2798.46, -181244.19, 0.07, 0.49, 0.92
139, -74824.34, -60406.35, -179909.31, -10181.20, -180576.86, 9677.48, 2882.32, -181146.98, 0.07, 0.49, 0.92
140, -75143.79, -61297.76, -180264.41, -9516.90, -180956.81, 9381.43, 3385.93, -181330.11, 0.07, 0.49, 0.92
141, -75411.74, -61884.58, -180405.19, -9081.11, -181571.33, 9128.07, 3357.48, -181523.89, 0.07, 0.49, 0.92
142, -75141.17, -61061.39, -180100.11, -9690.69, -181332.45, 9392.29, 2872.67, -181293.08, 0.07, 0.49, 0.92
143, -74840.84, -60377.78, -179885.38, -10238.10, -180987.41, 9681.30, 2818.73, -181148.19, 0.07, 0.49, 0.92
144, -75090.51, -61094.82, -180194.53, -9704.93, -181191.77, 9431.56, 3328.29, -181294.88, 0.07, 0.49, 0.92
145, -75426.83, -61895.87, -180423.97, -9124.43, -181482.64, 9099.77, 3414.03, -181530.83, 0.07, 0.49, 0.92
146, -75240.20, -61275.09, -180168.33, -9581.12, -181244.52, 9278.23, 2951.37, -181352.58, 0.07, 0.49, 0.92
147, -74879.99, -60425.37, -179885.78, -10257.19, -180669.97, 9629.76, 2758.38, -181152.88, 0.07, 0.49, 0.92
148, -75034.71, -60908.10, -180115.78, -9878.69, -180722.25, 9492.43, 3246.93, -181241.84, 0.08, 0.49, 0.91
149, -75409.44, -61872.46, -180416.09, -9182.36, -181432.92, 9140.81, 3446.26, -181502.53, 0.08, 0.49, 0.91
150, -75320.44, -61478.88, -180231.14, -9457.58, -181485.50, 9229.88, 3040.46, -181400.36, 0.08, 0.49, 0.91
151, -74927.94, -60515.20, -179904.17, -10216.51, -181049.77, 9609.82, 2730.11, -181162.67, 0.08, 0.49, 0.91
152, -74984.84, -60756.60, -180047.16, -10033.65, -181062.25, 9547.35, 3142.90, -181213.00, 0.08, 0.49, 0.91
153, -75386.42, -61830.31, -180404.95, -9273.31, -181419.72, 9150.67, 3442.73, -181477.47, 0.07, 0.49, 0.92
154, -75399.98, -61700.94, -180295.78, -9351.72, -181387.23, 9136.25, 3111.45, -181456.55, 0.07, 0.49, 0.92
155, -75003.00, -60684.85, -179944.36, -10135.89, -180853.08, 9524.50, 2711.13, -181188.42, 0.07, 0.49, 0.92
156, -74949.09, -60646.90, -179980.38, -10153.75, -180570.78, 9586.06, 3032.17, -181186.55, 0.07, 0.49, 0.92
157, -75332.08, -61690.93, -180354.23, -9375.86, -181177.48, 9226.75, 3446.30, -181424.13, 0.07, 0.49, 0.92
158, -75439.10, -61812.99, -180331.00, -9258.25, -181563.34, 9126.80, 3221.36, -181482.95, 0.07, 0.49, 0.92
159, -75060.80, -60804.50, -179977.36, -10024.58, -181166.77, 9494.31, 2764.64, -181211.47, 0.07, 0.49, 0.92
160, -74908.27, -60516.21, -179916.03, -10250.02, -180967.97, 9638.05, 2959.10, -181146.27, 0.07, 0.49, 0.92
161, -75268.73, -61503.71, -180298.16, -9519.50, -181284.55, 9278.41, 3426.48, -181360.28, 0.07, 0.49, 0.92
162, -75475.49, -61917.55, -180372.41, -9210.71, -181445.42, 9073.71, 3296.79, -181503.88, 0.07, 0.49, 0.92
163, -75150.49, -60998.49, -180037.78, -9895.81, -181035.00, 9390.73, 2804.52, -181248.91, 0.07, 0.49, 0.92
164, -74905.37, -60473.13, -179881.61, -10304.87, -180530.14, 9635.95, 2857.20, -181136.98, 0.07, 0.49, 0.92
165, -75203.23, -61327.86, -180229.03, -9651.68, -180901.36, 9359.17, 3367.42, -181305.47, 0.07, 0.49, 0.92
166, -75482.38, -61974.28, -180393.70, -9165.82, -181536.80, 9094.34, 3358.55, -181505.19, 0.07, 0.49, 0.92
167, -75227.50, -61202.85, -180093.75, -9731.28, -181329.77, 9341.67, 2870.72, -181289.52, 0.07, 0.49, 0.92
168, -74907.22, -60479.10, -179859.30, -10301.40, -180964.23, 9650.01, 2779.13, -181130.58, 0.08, 0.49, 0.92
169, -75135.92, -61145.07, -180153.64, -9792.32, -181147.00, 9420.97, 3281.10, -181267.14, 0.08, 0.49, 0.92
170, -75481.97, -61981.41, -180405.81, -9171.84, -181448.84, 9079.08, 3392.57, -181506.13, 0.08, 0.49, 0.92
171, -75311.54, -61395.03, -180168.11, -9583.18, -181227.11, 9242.51, 2939.41, -181345.16, 0.08, 0.49, 0.92
172, -74939.32, -60507.20, -179873.89, -10272.57, -180633.97, 9606.89, 2722.53, -181138.33, 0.08, 0.49, 0.92
173, -75066.03, -60927.32, -180078.41, -9927.82, -180661.64, 9495.83, 3197.60, -181211.36, 0.08, 0.49, 0.91
174, -75442.23, -61903.42, -180388.08, -9201.90, -181366.25, 9140.28, 3430.43, -181468.02, 0.08, 0.49, 0.91
175, -75369.19, -61544.57, -180220.09, -9426.33, -181471.81, 9214.55, 3044.35, -181382.23, 0.08, 0.49, 0.91
176, -74971.46, -60559.23, -179883.95, -10187.08, -181032.11, 9603.92, 2713.14, -181138.78, 0.08, 0.49, 0.91
177, -75006.44, -60734.54, -180001.50, -10040.43, -181020.94, 9566.66, 3109.42, -181177.58, 0.08, 0.49, 0.91
178, -75407.92, -61807.89, -180369.41, -9268.04, -181377.03, 9168.64, 3428.24, -181436.69, 0.08, 0.49, 0.91
179, -75443.91, -61737.80, -180287.33, -9296.38, -181367.77, 9131.78, 3111.90, -181437.00, 0.08, 0.49, 0.91
180, -75049.84, -60716.21, -179938.73, -10075.58, -180830.20, 9517.86, 2691.73, -181172.78, 0.08, 0.49, 0.91
181, -74972.98, -60619.65, -179950.06, -10132.20, -180530.89, 9601.50, 2981.92, -181159.11, 0.08, 0.49, 0.91
182, -75351.51, -61649.84, -180331.05, -9355.32, -181125.98, 9246.83, 3404.22, -181390.80, 0.08, 0.49, 0.91
183, -75480.52, -61837.46, -180332.13, -9189.54, -181553.88, 9126.24, 3192.97, -181467.75, 0.07, 0.48, 0.91
184, -75112.99, -60844.04, -179983.73, -9937.03, -181176.55, 9483.35, 2723.52, -181201.42, 0.07, 0.48, 0.91
185, -74938.40, -60498.57, -179901.16, -10208.87, -180956.75, 9647.64, 2879.37, -181134.59, 0.07, 0.48, 0.91
186, -75287.69, -61458.62, -180278.30, -9494.64, -181262.11, 9299.58, 3358.66, -181343.20, 0.07, 0.48, 0.91
187, -75514.34, -61906.26, -180375.33, -9145.44, -181443.13, 9075.99, 3266.46, -181498.53, 0.07, 0.48, 0.91
188, -75206.22, -61015.95, -180051.16, -9813.58, -181052.97, 9375.82, 2773.34, -181246.13, 0.07, 0.49, 0.92
189, -74943.81, -60437.82, -179878.42, -10262.45, -180531.59, 9636.08, 2798.28, -181125.61, 0.07, 0.49, 0.92
190, -75225.93, -61233.21, -180209.84, -9642.21, -180871.41, 9375.39, 3317.96, -181288.31, 0.07, 0.49, 0.92
191, -75522.16, -61907.60, -180389.55, -9130.37, -181525.23, 9094.90, 3344.20, -181495.73, 0.07, 0.49, 0.92
192, -75284.80, -61157.43, -180105.70, -9672.85, -181344.91, 9325.17, 2867.51, -181291.58, 0.07, 0.49, 0.92
193, -74956.66, -60410.88, -179862.22, -10278.52, -180971.03, 9640.84, 2744.19, -181126.45, 0.07, 0.49, 0.92
194, -75170.16, -61037.09, -180146.83, -9805.17, -181140.98, 9424.68, 3244.04, -181257.06, 0.07, 0.49, 0.92
195, -75531.64, -61916.14, -180416.70, -9167.50, -181456.69, 9068.24, 3380.23, -181505.91, 0.07, 0.49, 0.92
196, -75390.89, -61385.82, -180188.73, -9550.05, -181265.48, 9205.10, 2937.29, -181363.03, 0.07, 0.49, 0.92
197, -75015.02, -60480.11, -179884.36, -10268.10, -180695.34, 9571.98, 2690.86, -181149.13, 0.07, 0.49, 0.92
198, -75124.95, -60855.62, -180074.00, -9975.47, -180661.66, 9476.80, 3151.28, -181221.95, 0.07, 0.49, 0.91
199, -75512.62, -61854.11, -180397.08, -9244.88, -181365.17, 9111.93, 3411.12, -181479.84, 0.07, 0.49, 0.91
200, -75464.72, -61554.58, -180242.92, -9440.04, -181494.08, 9160.59, 3042.65, -181409.70, 0.07, 0.49, 0.91
201, -75069.70, -60560.69, -179904.69, -10219.15, -181057.42, 9545.78, 2694.97, -181161.86, 0.07, 0.49, 0.91
202, -75081.83, -60680.31, -180001.09, -10136.99, -181023.63, 9529.69, 3065.94, -181187.06, 0.07, 0.49, 0.91
203, -75484.43, -61735.94, -180369.34, -9371.50, -181382.44, 9131.85, 3424.71, -181448.97, 0.08, 0.49, 0.91
204, -75543.22, -61714.57, -180301.92, -9366.10, -181398.08, 9070.58, 3139.50, -181468.86, 0.08, 0.49, 0.91
205, -75155.03, -60710.64, -179952.81, -10150.42, -180893.58, 9448.57, 2704.32, -181193.61, 0.08, 0.49, 0.91
206, -75059.10, -60567.08, -179948.33, -10259.38, -180550.55, 9550.65, 2975.46, -181166.14, 0.08, 0.49, 0.91
207, -75435.03, -61593.29, -180324.91, -9495.18, -181113.97, 9199.71, 3420.04, -181395.94, 0.08, 0.49, 0.91
208, -75586.02, -61839.59, -180343.34, -9290.64, -181562.19, 9056.90, 3240.06, -181492.36, 0.08, 0.49, 0.92
209, -75230.29, -60877.70, -180000.42, -10029.27, -181195.08, 9401.90, 2761.20, -181224.16, 0.08, 0.49, 0.92
210, -75039.97, -60502.66, -179899.86, -10338.87, -180959.66, 9583.47, 2890.55, -181146.36, 0.08, 0.49, 0.92
211, -75384.30, -61450.66, -180268.17, -9640.69, -181257.38, 9243.43, 3378.87, -181347.47, 0.08, 0.49, 0.92
212, -75628.17, -61966.77, -180379.11, -9258.36, -181455.59, 9001.36, 3304.19, -181518.78, 0.08, 0.49, 0.92
213, -75330.98, -61102.71, -180060.47, -9901.87, -181084.31, 9288.89, 2815.40, -181266.66, 0.07, 0.49, 0.91
214, -75049.65, -60488.07, -179867.75, -10390.41, -180545.73, 9568.29, 2806.51, -181135.77, 0.07, 0.49, 0.91
215, -75314.52, -61266.13, -180188.83, -9797.71, -180838.39, 9327.74, 3323.32, -181291.63, 0.07, 0.49, 0.91
216, -75624.38, -62002.17, -180390.86, -9242.85, -181506.58, 9036.90, 3380.52, -181505.81, 0.07, 0.49, 0.91
217, -75406.40, -61297.49, -180121.38, -9747.89, -181353.55, 9251.68, 2909.95, -181303.69, 0.07, 0.49, 0.91
218, -75064.73, -60495.51, -179862.73, -10376.93, -180964.91, 9583.44, 2764.31, -181123.88, 0.07, 0.49, 0.91
219, -75251.64, -61060.38, -180121.03, -9945.68, -181108.69, 9395.00, 3253.43, -181239.98, 0.07, 0.49, 0.91
220, -75619.77, -61965.45, -180402.11, -9278.10, -181432.48, 9030.84, 3421.47, -181493.13, 0.07, 0.49, 0.91
221, -75494.87, -61481.06, -180186.70, -9613.62, -181257.16, 9150.47, 2993.37, -181361.91, 0.07, 0.49, 0.91
222, -75106.20, -60553.62, -179869.75, -10343.18, -180669.22, 9528.79, 2720.23, -181134.23, 0.07, 0.49, 0.91
223, -75187.55, -60866.26, -180036.66, -10082.45, -180615.92, 9459.73, 3169.32, -181190.00, 0.08, 0.49, 0.91
224, -75571.94, -61880.15, -180371.02, -9330.56, -181310.28, 9098.34, 3450.33, -181443.67, 0.08, 0.49, 0.91
225, -75545.54, -61648.59, -180237.44, -9470.77, -181484.67, 9127.98, 3094.80, -181395.78, 0.08, 0.49, 0.91
226, -75144.30, -60650.56, -179893.52, -10246.62, -181047.41, 9517.06, 2718.87, -181144.09, 0.08, 0.49, 0.91
227, -75130.27, -60711.45, -179969.33, -10192.01, -180989.67, 9524.86, 3070.03, -181155.72, 0.08, 0.49, 0.91
228, -75526.85, -61761.13, -180346.42, -9416.83, -181343.58, 9131.72, 3440.78, -181408.31, 0.08, 0.49, 0.91
229, -75602.72, -61787.11, -180294.66, -9363.97, -181373.41, 9055.54, 3173.34, -181441.59, 0.08, 0.49, 0.91
230, -75214.45, -60761.79, -179939.14, -10136.16, -180847.88, 9432.97, 2730.78, -181171.36, 0.08, 0.49, 0.91
231, -75089.03, -60539.54, -179904.61, -10287.64, -180490.16, 9566.72, 2973.68, -181125.33, 0.08, 0.49, 0.91
232, -75452.02, -61537.84, -180282.55, -9524.46, -181037.77, 9229.48, 3434.21, -181339.67, 0.08, 0.49, 0.91
233, -75621.41, -61827.96, -180325.20, -9267.23, -181530.41, 9071.99, 3280.43, -181448.70, 0.07, 0.50, 0.91
234, -75274.39, -60868.00, -179984.94, -9980.54, -181189.06, 9411.67, 2795.89, -181195.91, 0.07, 0.50, 0.91
235, -75060.53, -60424.74, -179862.36, -10326.15, -180930.13, 9615.14, 2894.68, -181105.92, 0.07, 0.50, 0.91
236, -75387.78, -61327.02, -180230.58, -9642.54, -181213.23, 9290.19, 3389.08, -181300.11, 0.07, 0.50, 0.91
237, -75647.73, -61898.44, -180369.30, -9213.72, -181428.56, 9034.33, 3334.25, -181479.08, 0.07, 0.50, 0.91
238, -75369.05, -61064.43, -180063.19, -9819.97, -181070.25, 9308.76, 2842.05, -181254.80, 0.08, 0.49, 0.91
239, -75071.70, -60391.86, -179853.23, -10337.01, -180512.03, 9606.89, 2803.45, -181110.23, 0.08, 0.49, 0.91
240, -75319.01, -61115.61, -180159.59, -9765.52, -180788.92, 9382.21, 3320.13, -181255.14, 0.08, 0.49, 0.91
241, -75640.71, -61896.20, -180376.61, -9181.22, -181470.08, 9079.57, 3388.37, -181474.13, 0.08, 0.49, 0.91
242, -75442.50, -61245.97, -180116.41, -9644.64, -181359.14, 9272.69, 2919.56, -181298.03, 0.08, 0.49, 0.91
243, -75089.41, -60413.45, -179843.22, -10297.74, -180960.30, 9612.61, 2735.94, -181109.78, 0.08, 0.49, 0.91
244, -75260.29, -60929.76, -180088.42, -9901.53, -181085.33, 9440.93, 3212.68, -181211.84, 0.08, 0.49, 0.91
245, -75640.65, -61881.07, -180387.69, -9209.50, -181419.42, 9066.34, 3400.66, -181471.55, 0.08, 0.49, 0.91
246, -75539.22, -61445.41, -180189.86, -9503.65, -181270.39, 9163.23, 2988.88, -181360.44, 0.08, 0.49, 0.91
247, -75150.27, -60495.15, -179868.13, -10248.03, -180694.20, 9543.55, 2693.07, -181129.67, 0.08, 0.49, 0.91
248, -75213.82, -60754.03, -180017.66, -10031.33, -180598.05, 9493.55, 3121.47, -181177.58, 0.08, 0.48, 0.91
249, -75606.65, -61776.00, -180365.30, -9270.43, -181287.77, 9123.00, 3426.37, -181436.72, 0.08, 0.48, 0.91
250, -75606.54, -61587.95, -180248.91, -9376.47, -181499.89, 9124.90, 3090.78, -181408.98, 0.08, 0.48, 0.91
251, -75208.97, -60559.14, -179904.36, -10167.90, -181067.77, 9508.79, 2701.32, -181150.63, 0.08, 0.48, 0.91
252, -75177.68, -60552.01, -179962.52, -10170.24, -180990.77, 9534.43, 3031.21, -181148.95, 0.08, 0.48, 0.91
253, -75573.68, -61581.31, -180342.70, -9406.55, -181341.66, 9142.62, 3427.84, -181398.73, 0.07, 0.49, 0.91
254, -75675.45, -61681.43, -180311.67, -9318.93, -181398.22, 9041.59, 3183.78, -181454.72, 0.07, 0.49, 0.91
255, -75297.86, -60681.41, -179959.77, -10092.33, -180915.48, 9410.69, 2727.61, -181183.61, 0.07, 0.49, 0.91
0, -75158.79, -60433.84, -179910.84, -10291.93, -180518.00, 9556.62, 2939.61, -181132.03, 0.07, 0.49, 0.91
1, -75523.01, -61444.54, -180287.88, -9547.19, -181029.47, 9218.66, 3407.34, -181349.58, 0.07, 0.49, 0.91
2, -75719.35, -61816.36, -180349.88, -9259.57, -181549.11, 9034.46, 3273.30, -181483.27, 0.07, 0.48, 0.91
3, -75392.48, -60902.73, -180019.89, -9962.44, -181226.53, 9353.06, 2779.39, -181225.36, 0.07, 0.48, 0.91
4, -75168.49, -60427.07, -179886.13, -10357.78, -180954.98, 9569.63, 2840.79, -181124.14, 0.07, 0.48, 0.91
5, -75487.00, -61309.85, -180243.36, -9706.76, -181228.98, 9252.01, 3338.26, -181307.55, 0.07, 0.48, 0.91
6, -75766.69, -61924.25, -180393.69, -9252.77, -181464.00, 8975.12, 3313.53, -181511.84, 0.07, 0.48, 0.91
7, -75506.20, -61126.70, -180092.63, -9843.10, -181142.94, 9228.86, 2825.69, -181283.45, 0.08, 0.49, 0.91
8, -75196.79, -60424.63, -179867.59, -10401.12, -180592.92, 9535.05, 2756.06, -181130.63, 0.08, 0.49, 0.91
9, -75429.05, -61123.05, -180160.34, -9873.93, -180785.08, 9323.40, 3268.32, -181267.70, 0.08, 0.49, 0.91
10, -75768.66, -61944.37, -180391.95, -9266.47, -181476.53, 9004.15, 3377.68, -181501.03, 0.08, 0.49, 0.91
11, -75591.56, -61331.64, -180140.38, -9704.26, -181385.86, 9176.08, 2924.21, -181325.48, 0.08, 0.49, 0.91
12, -75229.35, -60473.52, -179856.59, -10387.82, -180978.33, 9525.67, 2720.83, -181124.77, 0.07, 0.49, 0.91
13, -75379.45, -60945.98, -180080.25, -10033.72, -181081.78, 9375.64, 3195.38, -181216.69, 0.07, 0.49, 0.91
14, -75764.92, -61921.04, -180387.83, -9326.96, -181421.33, 8997.81, 3413.38, -181482.02, 0.07, 0.49, 0.91
15, -75683.88, -61540.52, -180206.58, -9580.87, -181293.47, 9076.13, 3020.48, -181384.11, 0.07, 0.49, 0.91
16, -75286.46, -60563.86, -179874.67, -10338.22, -180715.56, 9464.04, 2705.99, -181139.17, 0.07, 0.49, 0.91
17, -75325.51, -60768.82, -179998.95, -10170.22, -180580.81, 9437.31, 3118.96, -181180.94, 0.07, 0.50, 0.91
18, -75718.32, -61808.32, -180353.02, -9399.49, -181260.33, 9069.31, 3445.99, -181433.55, 0.07, 0.50, 0.91
19, -75738.44, -61675.48, -180257.84, -9456.51, -181503.02, 9054.16, 3134.23, -181416.78, 0.07, 0.50, 0.91
20, -75342.97, -60661.65, -179912.20, -10241.99, -181074.47, 9437.49, 2724.07, -181150.80, 0.07, 0.50, 0.91
21, -75284.70, -60605.46, -179942.52, -10282.74, -180970.78, 9489.23, 3026.81, -181143.58, 0.07, 0.50, 0.91
22, -75676.68, -61657.38, -180324.44, -9511.85, -181317.23, 9102.37, 3432.87, -181386.36, 0.07, 0.49, 0.91
23, -75799.77, -61827.72, -180312.95, -9368.15, -181394.13, 8979.81, 3206.65, -181458.98, 0.07, 0.49, 0.91
24, -75428.95, -60841.02, -179957.73, -10117.54, -180917.19, 9342.47, 2736.93, -181188.69, 0.07, 0.49, 0.91
25, -75265.30, -60527.27, -179884.16, -10352.70, -180495.20, 9510.82, 2917.75, -181121.34, 0.07, 0.49, 0.91
26, -75613.71, -61497.96, -180261.53, -9615.05, -180978.22, 9185.49, 3398.54, -181325.64, 0.07, 0.49, 0.91
27, -75823.91, -61918.02, -180346.88, -9280.56, -181526.53, 8987.95, 3289.57, -181471.70, 0.07, 0.49, 0.91
28, -75505.35, -61007.16, -180018.64, -9956.38, -181225.81, 9298.86, 2796.58, -181223.05, 0.07, 0.49, 0.91
29, -75253.45, -60457.64, -179855.50, -10386.39, -180928.64, 9539.81, 2830.54, -181111.06, 0.07, 0.49, 0.91
30, -75551.45, -61294.20, -180199.25, -9754.55, -181181.42, 9243.32, 3336.06, -181284.88, 0.07, 0.49, 0.91
31, -75844.54, -61954.63, -180371.48, -9254.96, -181429.13, 8954.78, 3342.01, -181487.58, 0.07, 0.49, 0.91
32, -75595.70, -61187.41, -180077.09, -9805.29, -181116.05, 9194.66, 2859.44, -181271.80, 0.07, 0.49, 0.91
33, -75268.71, -60448.41, -179834.19, -10383.97, -180541.53, 9516.17, 2754.47, -181108.22, 0.07, 0.49, 0.91
34, -75479.85, -61084.21, -180113.70, -9878.62, -180726.98, 9326.38, 3262.80, -181235.66, 0.07, 0.49, 0.91
35, -75825.43, -61932.99, -180370.02, -9238.22, -181425.84, 9002.46, 3390.89, -181469.30, 0.07, 0.49, 0.91
36, -75670.20, -61368.10, -180140.33, -9629.71, -181387.70, 9155.90, 2942.29, -181318.42, 0.07, 0.49, 0.91
37, -75298.71, -60498.53, -179846.95, -10327.76, -180971.00, 9514.11, 2695.35, -181109.42, 0.07, 0.49, 0.91
38, -75429.80, -60926.88, -180057.28, -10002.79, -181054.78, 9380.00, 3145.38, -181182.77, 0.07, 0.49, 0.91
39, -75819.88, -61924.79, -180379.00, -9271.32, -181400.34, 8993.54, 3375.02, -181449.75, 0.07, 0.49, 0.91
40, -75759.94, -61603.62, -180220.64, -9474.28, -181295.42, 9048.01, 2987.36, -181375.33, 0.07, 0.49, 0.91
41, -75360.60, -60623.43, -179886.19, -10236.14, -180723.41, 9436.06, 2637.22, -181129.17, 0.07, 0.49, 0.91
42, -75377.27, -60778.75, -179989.19, -10107.15, -180553.83, 9430.67, 3014.62, -181147.88, 0.07, 0.49, 0.91
43, -75773.22, -61837.69, -180351.69, -9323.67, -181219.69, 9060.12, 3355.51, -181403.42, 0.07, 0.49, 0.91
44, -75819.06, -61791.64, -180274.95, -9334.02, -181512.19, 9019.46, 3048.20, -181413.72, 0.07, 0.49, 0.91
45, -75429.65, -60780.36, -179924.88, -10110.39, -181093.27, 9397.28, 2619.13, -181152.70, 0.07, 0.49, 0.91
46, -75350.25, -60675.95, -179932.81, -10195.57, -180966.63, 9471.69, 2884.36, -181135.09, 0.07, 0.49, 0.91
47, -75738.57, -61717.30, -180316.41, -9427.70, -181308.78, 9088.76, 3308.13, -181373.38, 0.07, 0.49, 0.91
48, -75883.70, -61936.26, -180326.42, -9240.57, -181407.95, 8945.37, 3110.69, -181462.00, 0.07, 0.49, 0.90
49, -75524.35, -60972.14, -179980.95, -9980.99, -180949.69, 9293.54, 2627.31, -181192.00, 0.07, 0.49, 0.90
50, -75343.98, -60613.59, -179892.22, -10262.18, -180508.64, 9476.60, 2773.27, -181124.16, 0.07, 0.49, 0.90
51, -75685.80, -61565.42, -180262.59, -9547.59, -180976.08, 9159.92, 3260.74, -181325.09, 0.07, 0.49, 0.90
52, -75919.40, -62050.96, -180365.66, -9179.79, -181547.97, 8938.89, 3172.14, -181487.02, 0.07, 0.49, 0.90
53, -75620.87, -61182.96, -180045.31, -9836.44, -181265.13, 9230.26, 2674.52, -181244.08, 0.08, 0.49, 0.91
54, -75359.28, -60613.64, -179870.41, -10306.21, -180955.83, 9482.84, 2670.99, -181123.13, 0.08, 0.49, 0.91
55, -75648.27, -61424.71, -180207.95, -9704.32, -181198.45, 9196.25, 3175.83, -181292.02, 0.08, 0.49, 0.91
56, -75959.48, -62141.76, -180398.39, -9182.99, -181464.80, 8890.94, 3205.08, -181513.80, 0.08, 0.49, 0.91
57, -75735.71, -61417.09, -180110.89, -9713.35, -181190.91, 9109.52, 2730.71, -181302.17, 0.08, 0.49, 0.91
58, -75400.57, -60637.33, -179855.47, -10339.72, -180645.03, 9439.12, 2594.19, -181121.25, 0.08, 0.49, 0.91
59, -75594.13, -61232.13, -180120.09, -9893.66, -180734.66, 9262.92, 3090.20, -181229.80, 0.08, 0.49, 0.91
60, -75955.90, -62127.99, -180394.13, -9238.40, -181442.09, 8920.11, 3251.20, -181488.77, 0.08, 0.49, 0.91
61, -75823.26, -61612.29, -180175.38, -9602.29, -181418.44, 9050.96, 2821.21, -181346.78, 0.08, 0.49, 0.91
62, -75445.45, -60689.39, -179868.23, -10331.87, -180995.92, 9417.73, 2565.85, -181124.52, 0.08, 0.49, 0.91
63, -75549.61, -61038.90, -180051.20, -10070.96, -181053.69, 9312.25, 3012.19, -181196.89, 0.08, 0.48, 0.92
64, -75943.34, -62036.30, -180383.63, -9339.61, -181402.70, 8923.73, 3288.10, -181461.67, 0.08, 0.48, 0.92
65, -75908.04, -61764.44, -180235.23, -9516.86, -181322.42, 8956.37, 2932.53, -181398.08, 0.08, 0.48, 0.92
66, -75510.31, -60768.56, -179891.73, -10302.61, -180771.89, 9347.07, 2572.80, -181132.09, 0.08, 0.48, 0.92
67, -75505.95, -60841.98, -179974.94, -10234.21, -180550.70, 9365.87, 2950.63, -181142.75, 0.08, 0.48, 0.92
68, -75896.62, -61873.67, -180341.59, -9466.83, -181189.27, 9000.06, 3331.39, -181393.97, 0.07, 0.49, 0.92
69, -75958.63, -61880.51, -180277.97, -9442.99, -181512.75, 8941.32, 3063.04, -181420.25, 0.07, 0.49, 0.92
70, -75571.13, -60879.06, -179924.47, -10225.05, -181099.70, 9319.02, 2626.46, -181150.53, 0.07, 0.49, 0.92
71, -75467.45, -60698.77, -179911.55, -10360.39, -180947.89, 9418.44, 2885.34, -181125.55, 0.07, 0.49, 0.92
72, -75843.89, -61713.79, -180296.58, -9605.51, -181279.53, 9047.49, 3336.82, -181353.42, 0.07, 0.49, 0.92
73, -76006.19, -61982.04, -180324.33, -9383.62, -181396.78, 8886.70, 3172.20, -181455.30, 0.07, 0.49, 0.91
74, -75653.81, -61003.43, -179974.42, -10115.86, -180942.89, 9231.11, 2700.18, -181189.66, 0.07, 0.49, 0.91
75, -75443.70, -60563.73, -179855.58, -10450.92, -180471.52, 9444.93, 2823.36, -181098.95, 0.07, 0.49, 0.91
76, -75766.29, -61471.18, -180216.45, -9759.40, -180900.16, 9148.28, 3330.95, -181284.73, 0.07, 0.49, 0.91
77, -76013.43, -61994.06, -180342.94, -9343.65, -181499.83, 8917.97, 3289.13, -181454.27, 0.07, 0.49, 0.91
78, -75721.85, -61126.86, -180031.25, -9970.82, -181248.88, 9203.06, 2805.34, -181219.48, 0.08, 0.49, 0.91
79, -75432.33, -60465.58, -179830.08, -10479.79, -180912.94, 9480.74, 2785.38, -181082.47, 0.08, 0.49, 0.91
80, -75690.78, -61197.93, -180148.84, -9911.66, -181126.27, 9221.68, 3305.11, -181237.80, 0.08, 0.49, 0.91
81, -76011.73, -61943.86, -180366.72, -9345.51, -181402.19, 8904.11, 3381.10, -181454.92, 0.08, 0.49, 0.91
82, -75804.35, -61262.91, -180095.69, -9828.31, -181129.28, 9105.03, 2918.65, -181273.41, 0.08, 0.49, 0.91
83, -75451.93, -60425.48, -179821.86, -10470.54, -180526.56, 9454.36, 2765.87, -181085.80, 0.08, 0.50, 0.91
84, -75623.23, -60949.85, -180068.22, -10046.89, -180659.91, 9304.72, 3268.92, -181189.67, 0.08, 0.50, 0.91
85, -75989.24, -61887.89, -180361.20, -9359.03, -181368.48, 8963.12, 3448.61, -181431.66, 0.08, 0.50, 0.91
86, -75879.66, -61441.55, -180167.44, -9663.15, -181410.23, 9074.25, 3028.26, -181315.38, 0.08, 0.50, 0.91
87, -75491.45, -60495.06, -179852.23, -10398.23, -180978.88, 9451.61, 2741.55, -181091.39, 0.08, 0.50, 0.91
88, -75570.82, -60789.19, -180015.11, -10163.79, -181012.48, 9371.10, 3173.34, -181157.22, 0.07, 0.49, 0.91
89, -75970.63, -61820.65, -180362.80, -9407.42, -181365.05, 8979.12, 3457.99, -181414.47, 0.07, 0.49, 0.91
90, -75963.09, -61618.08, -180235.44, -9525.46, -181309.34, 8988.66, 3110.49, -181375.91, 0.07, 0.49, 0.91
91, -75566.91, -60608.56, -179887.38, -10302.28, -180752.52, 9378.81, 2726.62, -181121.52, 0.07, 0.49, 0.91
92, -75533.85, -60629.89, -179943.58, -10274.92, -180513.33, 9421.28, 3060.45, -181123.27, 0.07, 0.49, 0.91
93, -75923.53, -61684.15, -180319.92, -9487.85, -181143.77, 9056.48, 3453.10, -181366.31, 0.07, 0.49, 0.91
94, -76012.23, -61749.73, -180285.91, -9402.57, -181511.92, 8974.40, 3204.28, -181411.36, 0.07, 0.49, 0.91
95, -75630.45, -60723.07, -179939.00, -10169.75, -181110.34, 9344.57, 2759.19, -181148.09, 0.07, 0.49, 0.91
96, -75499.52, -60471.26, -179900.06, -10349.26, -180933.36, 9467.73, 2981.03, -181098.72, 0.07, 0.49, 0.91
97, -75872.03, -61482.85, -180279.86, -9604.79, -181259.45, 9098.90, 3432.07, -181322.02, 0.07, 0.49, 0.91
98, -76064.70, -61838.09, -180331.80, -9330.56, -181403.88, 8909.27, 3281.44, -181450.77, 0.08, 0.49, 0.92
99, -75730.70, -60902.51, -179993.98, -10035.46, -180983.16, 9234.20, 2786.79, -181196.84, 0.08, 0.49, 0.92
100, -75506.09, -60429.77, -179861.39, -10405.27, -180497.13, 9458.88, 2867.46, -181099.17, 0.08, 0.49, 0.92
101, -75821.23, -61330.66, -180219.03, -9726.94, -180888.08, 9167.86, 3366.98, -181281.27, 0.08, 0.49, 0.92
102, -76091.46, -61940.95, -180363.17, -9273.47, -181509.03, 8914.50, 3329.36, -181469.27, 0.08, 0.49, 0.92
103, -75823.33, -61112.44, -180049.39, -9871.29, -181280.27, 9177.76, 2840.82, -181245.97, 0.07, 0.49, 0.91
104, -75521.02, -60422.78, -179832.98, -10418.13, -180931.38, 9470.05, 2776.56, -181095.44, 0.07, 0.49, 0.91
105, -75769.91, -61145.74, -180144.13, -9881.21, -181135.78, 9220.92, 3276.18, -181237.03, 0.07, 0.49, 0.91
106, -76108.45, -61962.99, -180378.97, -9290.84, -181429.53, 8887.41, 3355.80, -181479.44, 0.07, 0.49, 0.91
107, -75924.83, -61328.87, -180127.53, -9740.20, -181193.73, 9064.79, 2895.69, -181307.58, 0.07, 0.49, 0.91
108, -75566.82, -60476.66, -179847.36, -10413.21, -180618.70, 9416.10, 2700.96, -181112.02, 0.07, 0.49, 0.91
109, -75718.07, -60958.61, -180074.47, -10037.92, -180664.16, 9282.86, 3182.08, -181200.72, 0.07, 0.49, 0.91
110, -76095.13, -61902.35, -180376.14, -9334.63, -181375.92, 8928.81, 3398.92, -181458.55, 0.07, 0.49, 0.91
111, -76006.55, -61482.02, -180189.23, -9608.03, -181441.27, 9017.01, 3005.73, -181356.17, 0.07, 0.49, 0.91
112, -75614.43, -60512.25, -179863.81, -10369.02, -181005.58, 9397.48, 2696.58, -181116.69, 0.07, 0.49, 0.91
113, -75674.20, -60747.99, -180007.06, -10189.29, -181019.23, 9336.57, 3108.61, -181167.23, 0.07, 0.49, 0.91
114, -76075.84, -61771.12, -180357.66, -9436.66, -181374.23, 8941.48, 3427.19, -181431.58, 0.07, 0.49, 0.91
115, -76091.62, -61610.88, -180248.55, -9521.57, -181342.00, 8927.55, 3110.83, -181411.38, 0.07, 0.49, 0.91
116, -75698.02, -60587.64, -179898.86, -10315.64, -180816.13, 9315.49, 2712.97, -181143.16, 0.07, 0.49, 0.91
117, -75644.02, -60527.38, -179934.94, -10344.72, -180524.02, 9377.70, 3043.84, -181126.81, 0.07, 0.49, 0.91
118, -76028.80, -61552.79, -180312.56, -9574.24, -181116.78, 9017.95, 3467.72, -181366.23, 0.07, 0.49, 0.92
119, -76139.27, -61675.97, -180293.88, -9455.37, -181516.19, 8916.13, 3249.52, -181429.86, 0.07, 0.49, 0.92
120, -75763.76, -60649.45, -179942.17, -10224.00, -181125.83, 9280.91, 2800.14, -181154.42, 0.07, 0.49, 0.92
121, -75608.48, -60329.68, -179877.80, -10463.14, -180925.34, 9426.78, 2998.89, -181096.55, 0.07, 0.49, 0.92
122, -75967.50, -61293.53, -180254.83, -9743.77, -181238.08, 9072.06, 3480.64, -181309.08, 0.07, 0.49, 0.92
123, -76176.46, -61692.87, -180329.02, -9436.79, -181399.86, 8868.66, 3370.06, -181450.89, 0.08, 0.49, 0.92
124, -75853.57, -60777.36, -179996.89, -10126.05, -180995.64, 9185.32, 2886.53, -181197.09, 0.08, 0.49, 0.92
125, -75606.72, -60247.09, -179842.08, -10540.68, -180487.64, 9431.25, 2945.92, -181081.47, 0.08, 0.49, 0.92
126, -75901.80, -61091.16, -180185.05, -9893.49, -180839.17, 9157.78, 3465.10, -181247.47, 0.08, 0.49, 0.92
127, -76182.12, -61728.95, -180347.70, -9405.39, -181476.53, 8894.45, 3473.48, -181447.19, 0.08, 0.49, 0.92
128, -75927.33, -60955.30, -180056.45, -9967.09, -181279.61, 9142.13, 2994.98, -181237.73, 0.08, 0.49, 0.91
129, -75605.13, -60218.26, -179823.06, -10543.94, -180913.63, 9450.52, 2905.70, -181076.86, 0.08, 0.49, 0.91
130, -75828.73, -60854.84, -180115.88, -10043.47, -181092.58, 9224.88, 3421.16, -181213.00, 0.08, 0.49, 0.91
131, -76173.54, -61668.33, -180367.08, -9426.67, -181392.38, 8885.58, 3551.22, -181446.19, 0.08, 0.49, 0.91
132, -76008.65, -61079.92, -180128.23, -9837.72, -181170.72, 9044.48, 3108.43, -181290.77, 0.08, 0.49, 0.91
133, -75633.88, -60185.16, -179830.42, -10532.16, -180567.69, 9411.94, 2889.50, -181083.02, 0.07, 0.49, 0.92
134, -75759.27, -60612.61, -180034.38, -10190.90, -180605.53, 9303.67, 3362.19, -181167.95, 0.07, 0.49, 0.92
135, -76137.02, -61588.33, -180346.52, -9461.07, -181314.48, 8950.29, 3602.30, -181415.88, 0.07, 0.49, 0.92
136, -76065.98, -61230.41, -180183.44, -9679.22, -181422.48, 9021.07, 3221.20, -181333.92, 0.07, 0.49, 0.92
137, -75669.66, -60243.58, -179852.52, -10441.19, -180984.22, 9405.90, 2885.50, -181095.92, 0.07, 0.49, 0.92
138, -75705.16, -60421.73, -179973.02, -10302.12, -180970.98, 9368.44, 3273.86, -181123.94, 0.08, 0.49, 0.92
139, -76109.56, -61489.67, -180340.06, -9530.87, -181328.55, 8969.93, 3599.57, -181385.83, 0.08, 0.49, 0.92
140, -76149.91, -61414.14, -180256.78, -9555.35, -181322.48, 8928.20, 3292.08, -181390.55, 0.08, 0.49, 0.92
141, -75756.12, -60392.60, -179906.75, -10333.93, -180783.77, 9313.37, 2872.82, -181126.27, 0.08, 0.49, 0.92
142, -75676.39, -60288.35, -179919.13, -10398.01, -180480.58, 9402.60, 3162.73, -181110.97, 0.08, 0.49, 0.92
143, -76057.10, -61326.97, -180296.27, -9618.83, -181075.03, 9047.85, 3586.36, -181344.55, 0.07, 0.49, 0.92
144, -76188.65, -61512.76, -180294.66, -9442.94, -181506.17, 8922.93, 3383.14, -181423.66, 0.07, 0.49, 0.92
145, -75824.06, -60518.26, -179943.94, -10189.74, -181132.34, 9275.82, 2908.77, -181159.97, 0.07, 0.49, 0.92
146, -75651.13, -60184.21, -179863.14, -10461.29, -180914.31, 9439.30, 3055.62, -181084.78, 0.07, 0.49, 0.92
147, -76002.37, -61151.96, -180238.78, -9745.83, -181222.53, 9088.62, 3529.32, -181292.48, 0.07, 0.49, 0.92
148, -76231.98, -61625.14, -180334.56, -9390.12, -181407.56, 8859.65, 3427.89, -181456.17, 0.07, 0.49, 0.92
149, -75925.23, -60745.27, -180007.94, -10049.95, -181031.28, 9157.11, 2927.50, -181206.97, 0.07, 0.49, 0.92
150, -75661.14, -60166.51, -179833.39, -10502.44, -180513.39, 9419.05, 2938.58, -181086.23, 0.07, 0.49, 0.92
151, -75942.44, -60975.76, -180165.38, -9879.92, -180811.92, 9158.94, 3447.13, -181246.89, 0.07, 0.49, 0.92
152, -76241.77, -61666.89, -180347.39, -9355.41, -181468.08, 8877.17, 3470.49, -181456.91, 0.07, 0.49, 0.92
153, -76011.15, -60930.32, -180064.38, -9888.99, -181301.91, 9102.99, 2984.81, -181252.48, 0.07, 0.48, 0.92
154, -75681.38, -60164.70, -179817.14, -10499.60, -180924.64, 9421.82, 2850.85, -181081.38, 0.07, 0.48, 0.92
155, -75889.63, -60780.20, -180094.39, -10038.97, -181087.48, 9215.20, 3339.24, -181201.89, 0.07, 0.48, 0.92
156, -76252.05, -61658.34, -180366.66, -9392.87, -181405.19, 8857.59, 3479.47, -181456.84, 0.07, 0.48, 0.92
157, -76111.62, -61134.88, -180141.55, -9762.66, -181217.56, 8992.53, 3034.99, -181310.58, 0.07, 0.48, 0.92
158, -75736.11, -60239.25, -179837.70, -10479.62, -180653.20, 9360.82, 2774.97, -181091.19, 0.07, 0.49, 0.92
159, -75844.54, -60607.85, -180024.20, -10187.17, -180602.22, 9268.98, 3231.19, -181157.80, 0.07, 0.49, 0.92
160, -76231.23, -61607.93, -180347.09, -9449.89, -181296.09, 8906.30, 3493.35, -181417.91, 0.07, 0.49, 0.92
161, -76190.91, -61319.77, -180195.69, -9633.42, -181443.39, 8949.17, 3123.57, -181356.06, 0.07, 0.49, 0.92
162, -75797.42, -60335.47, -179858.42, -10412.54, -181008.47, 9333.57, 2756.91, -181108.83, 0.07, 0.49, 0.92
163, -75809.76, -60470.79, -179959.77, -10326.21, -180975.52, 9317.37, 3116.03, -181132.03, 0.07, 0.48, 0.92
164, -76214.06, -61539.36, -180333.47, -9558.14, -181336.25, 8917.25, 3466.02, -181393.83, 0.07, 0.48, 0.92
165, -76277.16, -61529.14, -180262.95, -9547.41, -181356.08, 8853.48, 3179.67, -181417.44, 0.07, 0.48, 0.92
166, -75892.98, -60517.64, -179906.92, -10332.12, -180853.13, 9229.12, 2740.37, -181143.66, 0.07, 0.48, 0.92
167, -75794.56, -60367.70, -179899.17, -10453.35, -180504.48, 9333.60, 2994.15, -181111.13, 0.07, 0.48, 0.92
168, -76170.65, -61397.18, -180277.52, -9691.47, -181067.72, 8983.12, 3434.77, -181339.92, 0.07, 0.48, 0.91
169, -76330.06, -61660.46, -180301.61, -9481.41, -181525.02, 8836.74, 3255.15, -181443.72, 0.07, 0.48, 0.91
170, -75982.16, -60695.80, -179961.91, -10219.80, -181164.44, 9178.43, 2772.49, -181175.05, 0.07, 0.48, 0.91
171, -75790.00, -60297.32, -179861.17, -10545.53, -180924.69, 9362.54, 2891.47, -181091.64, 0.07, 0.48, 0.91
172, -76131.20, -61235.66, -180230.77, -9860.20, -181220.83, 9023.62, 3375.58, -181290.56, 0.07, 0.48, 0.91
173, -76379.95, -61755.90, -180344.34, -9472.65, -181423.97, 8778.33, 3307.88, -181470.55, 0.07, 0.49, 0.91
174, -76088.30, -60910.42, -180021.06, -10114.34, -181071.08, 9062.25, 2811.27, -181224.23, 0.07, 0.49, 0.91
175, -75807.21, -60297.14, -179826.80, -10607.96, -180548.38, 9339.27, 2791.44, -181088.73, 0.07, 0.49, 0.91
176, -76069.96, -61061.90, -180144.17, -10022.19, -180790.25, 9097.14, 3308.19, -181234.53, 0.07, 0.49, 0.91
177, -76383.98, -61813.12, -180345.30, -9471.15, -181458.45, 8801.87, 3357.54, -181459.55, 0.07, 0.49, 0.91
178, -76171.37, -61132.36, -180077.09, -9969.37, -181322.23, 9010.61, 2878.95, -181264.58, 0.07, 0.49, 0.91
179, -75828.63, -60351.94, -179817.83, -10606.75, -180933.55, 9342.00, 2712.09, -181084.00, 0.07, 0.49, 0.91
180, -76021.25, -60966.06, -180080.56, -10176.77, -181080.13, 9146.69, 3183.02, -181203.48, 0.07, 0.49, 0.91
181, -76396.16, -61924.25, -180362.95, -9502.89, -181408.78, 8777.08, 3332.51, -181461.63, 0.07, 0.49, 0.91
182, -76279.28, -61469.62, -180155.50, -9826.63, -181244.23, 8890.25, 2898.35, -181334.89, 0.07, 0.49, 0.91
183, -75892.73, -60554.79, -179840.83, -10559.05, -180670.44, 9267.55, 2607.69, -181105.34, 0.07, 0.49, 0.91
184, -75972.41, -60881.99, -180003.94, -10309.70, -180592.91, 9201.39, 3035.48, -181154.94, 0.07, 0.49, 0.91
185, -76364.62, -61919.70, -180339.30, -9552.11, -181292.63, 8832.74, 3313.69, -181416.45, 0.07, 0.49, 0.91
186, -76345.04, -61702.43, -180211.81, -9685.12, -181461.72, 8853.62, 2956.69, -181370.00, 0.07, 0.49, 0.91
187, -75947.52, -60724.52, -179873.67, -10462.49, -181026.73, 9239.14, 2566.40, -181112.92, 0.07, 0.49, 0.91
188, -75931.47, -60791.76, -179945.19, -10423.49, -180966.11, 9248.88, 2895.87, -181129.41, 0.07, 0.49, 0.91
189, -76331.36, -61859.14, -180317.81, -9645.74, -181321.45, 8853.88, 3267.69, -181385.00, 0.07, 0.49, 0.91
190, -76416.01, -61912.63, -180270.30, -9580.52, -181360.80, 8768.28, 3003.96, -181424.47, 0.07, 0.49, 0.91
191, -76032.59, -60913.13, -179916.00, -10352.46, -180866.95, 9141.33, 2548.39, -181147.98, 0.07, 0.49, 0.91
192, -75906.63, -60691.91, -179880.44, -10510.82, -180487.67, 9273.60, 2779.86, -181098.59, 0.07, 0.49, 0.91
193, -76270.23, -61683.37, -180256.02, -9756.09, -181013.70, 8936.88, 3238.52, -181314.69, 0.07, 0.49, 0.92
194, -76446.02, -62018.51, -180301.09, -9495.00, -181504.23, 8773.77, 3079.35, -181435.23, 0.07, 0.49, 0.92
195, -76105.48, -61076.79, -179963.75, -10205.92, -181161.13, 9107.62, 2589.92, -181175.56, 0.07, 0.49, 0.92
196, -75888.73, -60612.48, -179840.23, -10568.44, -180898.19, 9315.89, 2680.78, -181077.41, 0.07, 0.49, 0.92
197, -76209.55, -61503.77, -180203.22, -9897.71, -181176.02, 8995.57, 3180.61, -181262.61, 0.07, 0.49, 0.92
198, -76470.10, -62065.85, -180339.55, -9465.99, -181393.19, 8736.25, 3143.24, -181449.02, 0.07, 0.49, 0.91
199, -76191.77, -61220.75, -180028.67, -10073.30, -181039.98, 9007.84, 2661.38, -181214.69, 0.07, 0.49, 0.91
200, -75886.27, -60532.30, -179811.13, -10605.19, -180476.73, 9310.62, 2617.23, -181064.88, 0.07, 0.49, 0.91
201, -76124.92, -61236.31, -180114.22, -10053.61, -180732.06, 9093.61, 3138.39, -181204.45, 0.07, 0.49, 0.91
202, -76450.14, -62008.12, -180341.69, -9461.76, -181415.78, 8787.05, 3235.06, -181426.25, 0.07, 0.49, 0.91
203, -76254.56, -61343.24, -180085.19, -9922.63, -181317.36, 8976.80, 2777.00, -181252.66, 0.08, 0.49, 0.91
204, -75896.33, -60480.22, -179808.95, -10586.50, -180914.36, 9322.17, 2599.87, -181062.63, 0.08, 0.49, 0.91
205, -76056.63, -60953.92, -180044.95, -10205.27, -181029.81, 9160.68, 3089.21, -181165.59, 0.08, 0.49, 0.91
206, -76432.70, -61861.51, -180340.16, -9514.60, -181359.25, 8791.72, 3305.71, -181414.47, 0.08, 0.49, 0.91
207, -76334.06, -61415.98, -180150.00, -9799.81, -181206.81, 8888.64, 2910.73, -181302.61, 0.08, 0.49, 0.91
208, -75935.91, -60424.86, -179823.11, -10550.09, -180593.55, 9279.30, 2623.40, -181064.91, 0.08, 0.49, 0.91
209, -75988.64, -60633.62, -179963.00, -10348.72, -180526.20, 9241.24, 3068.89, -181114.53, 0.08, 0.49, 0.91
210, -76377.63, -61636.65, -180310.78, -9585.23, -181210.84, 8876.10, 3398.00, -181365.77, 0.08, 0.49, 0.91
211, -76376.02, -61439.40, -180202.75, -9678.57, -181446.56, 8878.89, 3085.26, -181338.75, 0.08, 0.49, 0.91
212, -75975.27, -60385.40, -179859.42, -10470.72, -181014.56, 9266.94, 2706.24, -181083.36, 0.08, 0.49, 0.91
213, -75929.63, -60331.78, -179905.31, -10487.57, -180924.05, 9305.32, 3046.81, -181085.31, 0.07, 0.49, 0.91
214, -76319.29, -61339.38, -180283.00, -9722.92, -181270.00, 8917.23, 3468.68, -181327.89, 0.07, 0.49, 0.91
215, -76420.63, -61396.20, -180257.05, -9623.81, -181326.05, 8817.18, 3258.08, -181379.81, 0.07, 0.49, 0.91
216, -76037.97, -60347.54, -179905.72, -10393.09, -180821.50, 9189.94, 2825.24, -181111.23, 0.07, 0.49, 0.91
217, -75882.29, -60027.78, -179846.63, -10609.57, -180423.75, 9348.64, 3050.70, -181057.30, 0.07, 0.49, 0.91
218, -76233.13, -60970.13, -180222.00, -9872.72, -180933.88, 9020.40, 3549.10, -181266.41, 0.07, 0.49, 0.91
219, -76428.21, -61320.60, -180290.59, -9574.41, -181465.56, 8836.40, 3444.56, -181393.81, 0.07, 0.49, 0.91
220, -76098.50, -60353.71, -179959.34, -10275.05, -181152.45, 9158.65, 2975.26, -181151.34, 0.07, 0.49, 0.91
221, -75861.13, -59804.35, -179812.67, -10686.59, -180867.09, 9388.92, 3054.43, -181046.02, 0.07, 0.49, 0.91
222, -76171.86, -60640.73, -180164.02, -10046.75, -181130.17, 9082.05, 3575.09, -181230.55, 0.07, 0.49, 0.91
223, -76454.14, -61264.61, -180323.41, -9582.62, -181364.84, 8804.49, 3569.06, -181419.36, 0.08, 0.50, 0.92
224, -76195.06, -60470.36, -180031.20, -10160.37, -181031.67, 9055.90, 3091.80, -181205.83, 0.08, 0.50, 0.92
225, -75879.07, -59746.70, -179801.83, -10726.49, -180458.91, 9369.61, 3020.46, -181047.78, 0.08, 0.50, 0.92
226, -76105.99, -60405.79, -180092.58, -10203.30, -180693.81, 9165.82, 3544.27, -181176.78, 0.08, 0.50, 0.92
227, -76446.30, -61236.11, -180331.20, -9588.25, -181388.22, 8846.71, 3657.28, -181412.27, 0.08, 0.50, 0.92
228, -76278.03, -60656.66, -180089.97, -10010.61, -181339.34, 9011.42, 3199.97, -181255.98, 0.07, 0.49, 0.91
229, -75913.38, -59813.87, -179806.17, -10697.14, -180931.75, 9361.78, 2971.35, -181060.23, 0.07, 0.49, 0.91
230, -76060.55, -60292.84, -180029.86, -10345.55, -181033.91, 9211.11, 3428.91, -181156.77, 0.07, 0.49, 0.91
231, -76449.91, -61305.82, -180342.23, -9627.83, -181377.97, 8826.37, 3633.75, -181420.28, 0.07, 0.49, 0.91
232, -76379.95, -60975.11, -180165.81, -9861.63, -181261.23, 8894.76, 3226.79, -181331.45, 0.07, 0.49, 0.91
233, -75989.42, -60043.96, -179836.70, -10616.21, -180704.11, 9277.83, 2879.20, -181092.03, 0.07, 0.49, 0.91
234, -76029.16, -60272.46, -179961.06, -10451.05, -180551.63, 9250.54, 3264.05, -181133.08, 0.08, 0.49, 0.91
235, -76425.35, -61336.40, -180312.86, -9671.35, -181232.94, 8876.64, 3586.81, -181390.91, 0.08, 0.49, 0.91
236, -76454.56, -61248.47, -180223.72, -9710.16, -181475.58, 8849.86, 3269.19, -181385.83, 0.08, 0.49, 0.91
237, -76063.03, -60247.94, -179879.22, -10490.90, -181047.47, 9230.76, 2845.38, -181116.83, 0.08, 0.49, 0.91
238, -76000.04, -60191.70, -179905.25, -10546.80, -180937.28, 9287.53, 3124.66, -181100.72, 0.08, 0.49, 0.91
239, -76390.66, -61244.16, -180281.00, -9778.98, -181282.19, 8900.75, 3530.75, -181344.50, 0.08, 0.49, 0.91
240, -76519.02, -61436.76, -180272.84, -9625.06, -181365.28, 8772.92, 3308.80, -181423.83, 0.08, 0.49, 0.91
241, -76153.71, -60470.41, -179926.78, -10373.27, -180904.95, 9129.06, 2826.87, -181151.88, 0.08, 0.49, 0.91
242, -75985.71, -60159.65, -179850.11, -10620.90, -180477.45, 9299.98, 2985.70, -181079.13, 0.08, 0.49, 0.91
243, -76334.89, -61139.75, -180220.61, -9888.66, -180951.17, 8974.81, 3458.17, -181283.61, 0.08, 0.49, 0.91
244, -76557.23, -61609.59, -180308.59, -9541.09, -181503.92, 8766.91, 3340.07, -181441.22, 0.07, 0.49, 0.91
245, -76243.67, -60719.50, -179982.77, -10208.76, -181203.58, 9071.75, 2837.08, -181186.86, 0.07, 0.49, 0.91
246, -75988.04, -60170.40, -179817.86, -10650.34, -180903.28, 9317.41, 2852.89, -181075.80, 0.07, 0.49, 0.91
247, -76285.30, -61005.38, -180157.83, -10027.08, -181153.48, 9024.85, 3351.49, -181250.98, 0.07, 0.49, 0.91
248, -76582.20, -61686.32, -180333.28, -9521.42, -181404.83, 8731.78, 3358.37, -181459.09, 0.07, 0.49, 0.91
249, -76341.80, -60954.86, -180049.22, -10065.44, -181107.47, 8964.48, 2861.22, -181241.50, 0.07, 0.50, 0.90
250, -76014.01, -60229.03, -179808.38, -10654.67, -180546.88, 9287.08, 2733.93, -181071.75, 0.07, 0.50, 0.90
251, -76223.07, -60848.18, -180085.55, -10162.00, -180691.86, 9098.68, 3241.90, -181190.88, 0.07, 0.50, 0.90
252, -76572.20, -61677.94, -180344.44, -9521.24, -181389.55, 8769.86, 3390.67, -181437.08, 0.07, 0.50, 0.90
253, -76418.20, -61091.03, -180112.00, -9909.06, -181355.36, 8921.23, 2966.19, -181285.58, 0.07, 0.50, 0.90
254, -76037.52, -60143.34, -179807.69, -10625.28, -180930.34, 9290.01, 2744.93, -181067.88, 0.07, 0.49, 0.92
255, -76150.47, -60472.57, -180000.77, -10328.92, -180998.98, 9172.87, 3231.82, -181135.56, 0.07, 0.49, 0.92
0, -76531.90, -61399.14, -180320.02, -9610.27, -181336.19, 8795.54, 3511.19, -181391.27, 0.07, 0.49, 0.92
1, -76473.72, -61034.03, -180164.00, -9813.85, -181229.22, 8850.15, 3165.23, -181318.16, 0.07, 0.49, 0.92
2, -76068.03, -59992.17, -179822.81, -10590.41, -180634.75, 9247.27, 2840.66, -181070.02, 0.07, 0.49, 0.92
3, -76073.04, -60081.18, -179916.58, -10480.89, -180472.98, 9255.21, 3245.90, -181094.44, 0.07, 0.49, 0.92
4, -76461.96, -61087.41, -180284.83, -9705.10, -181125.19, 8891.88, 3621.61, -181337.78, 0.07, 0.49, 0.92
5, -76506.09, -61010.76, -180213.25, -9704.77, -181438.11, 8852.79, 3350.48, -181345.00, 0.07, 0.49, 0.92
6, -76110.02, -59972.57, -179861.39, -10486.07, -181021.75, 9236.14, 2934.76, -181085.69, 0.07, 0.49, 0.92
7, -76017.99, -59819.23, -179859.59, -10586.81, -180884.38, 9322.11, 3214.52, -181057.70, 0.07, 0.49, 0.92
8, -76398.28, -60819.65, -180241.48, -9821.96, -181220.05, 8946.42, 3665.37, -181287.86, 0.07, 0.49, 0.92
9, -76547.05, -61035.14, -180258.55, -9625.85, -181322.42, 8800.80, 3486.07, -181379.39, 0.07, 0.49, 0.92
10, -76188.66, -60054.15, -179914.59, -10359.83, -180853.02, 9151.12, 3015.00, -181121.25, 0.07, 0.49, 0.92
11, -75996.91, -59655.20, -179815.59, -10651.32, -180408.13, 9346.31, 3164.47, -181044.97, 0.07, 0.49, 0.92
12, -76332.14, -60575.13, -180184.47, -9937.88, -180872.97, 9035.58, 3667.94, -181243.97, 0.07, 0.49, 0.92
13, -76566.61, -61042.95, -180294.70, -9554.95, -181453.63, 8815.50, 3605.36, -181400.98, 0.06, 0.49, 0.92
14, -76267.08, -60123.26, -179977.31, -10204.11, -181182.92, 9109.63, 3135.46, -181161.19, 0.06, 0.49, 0.92
15, -75989.45, -59396.47, -179788.17, -10692.45, -180858.59, 9376.18, 3192.75, -181031.94, 0.06, 0.49, 0.92
16, -76260.93, -60077.26, -180112.73, -10111.17, -181084.23, 9104.94, 3761.80, -181192.69, 0.06, 0.49, 0.92
17, -76570.41, -60758.34, -180308.72, -9584.12, -181346.31, 8801.51, 3830.26, -181400.25, 0.06, 0.49, 0.92
18, -76346.23, -60023.64, -180036.02, -10103.79, -181053.86, 9018.95, 3369.66, -181207.91, 0.06, 0.48, 0.91
19, -76002.01, -59217.05, -179777.33, -10734.22, -180458.30, 9360.04, 3235.17, -181027.55, 0.06, 0.48, 0.91
20, -76190.32, -59784.59, -180036.41, -10288.53, -180624.69, 9194.23, 3744.12, -181142.05, 0.06, 0.48, 0.91
21, -76549.56, -60674.57, -180313.02, -9620.93, -181332.92, 8855.51, 3919.13, -181384.64, 0.06, 0.48, 0.91
22, -76418.29, -60166.58, -180104.78, -9964.94, -181344.86, 8983.25, 3495.59, -181260.77, 0.06, 0.48, 0.91
23, -76035.80, -59233.62, -179798.52, -10693.83, -180918.02, 9354.50, 3232.87, -181046.53, 0.07, 0.48, 0.91
24, -76132.66, -59561.14, -179976.98, -10435.29, -180968.36, 9256.44, 3679.63, -181112.56, 0.07, 0.48, 0.91
25, -76528.98, -60559.28, -180314.88, -9692.92, -181318.70, 8865.84, 3961.18, -181373.16, 0.07, 0.48, 0.91
26, -76501.28, -60304.00, -180174.98, -9849.03, -181245.06, 8890.54, 3603.68, -181319.00, 0.07, 0.48, 0.91
27, -76103.87, -59315.22, -179834.02, -10625.24, -180682.64, 9277.85, 3227.73, -181066.02, 0.07, 0.48, 0.91
28, -76095.30, -59388.00, -179914.92, -10554.87, -180479.05, 9297.45, 3587.95, -181079.45, 0.07, 0.49, 0.91
29, -76488.25, -60433.24, -180287.44, -9770.71, -181132.20, 8928.85, 3963.57, -181329.44, 0.07, 0.49, 0.91
30, -76560.31, -60446.58, -180234.33, -9724.66, -181464.00, 8861.77, 3697.47, -181362.58, 0.07, 0.49, 0.91
31, -76175.48, -59441.29, -179883.72, -10501.65, -181053.23, 9235.79, 3250.57, -181096.22, 0.07, 0.49, 0.91
32, -76067.55, -59276.76, -179866.06, -10642.00, -180898.11, 9337.80, 3482.11, -181058.75, 0.07, 0.49, 0.91
33, -76450.14, -60309.65, -180250.05, -9883.09, -181234.58, 8960.10, 3921.97, -181291.73, 0.08, 0.50, 0.91
34, -76625.20, -60608.34, -180282.14, -9643.59, -181361.52, 8788.42, 3750.15, -181408.03, 0.08, 0.50, 0.91
35, -76280.91, -59655.91, -179935.77, -10363.07, -180930.41, 9124.67, 3260.96, -181144.39, 0.08, 0.50, 0.91
36, -76072.02, -59225.66, -179818.02, -10699.33, -180459.89, 9336.19, 3363.94, -181053.06, 0.08, 0.50, 0.91
37, -76395.29, -60141.01, -180179.33, -10003.68, -180872.56, 9037.12, 3863.97, -181238.16, 0.08, 0.50, 0.91
38, -76647.21, -60693.21, -180308.55, -9576.00, -181468.36, 8799.19, 3815.60, -181417.06, 0.08, 0.49, 0.91
39, -76361.76, -59855.38, -179999.53, -10191.17, -181207.55, 9078.74, 3320.66, -181182.58, 0.08, 0.49, 0.91
40, -76071.21, -59206.02, -179797.31, -10698.59, -180871.14, 9358.63, 3280.88, -181038.73, 0.08, 0.49, 0.91
41, -76333.26, -59950.15, -180111.13, -10133.86, -181087.84, 9097.12, 3782.81, -181183.70, 0.08, 0.49, 0.91
42, -76659.59, -60705.55, -180321.84, -9563.15, -181369.45, 8774.20, 3853.24, -181417.19, 0.08, 0.49, 0.91
43, -76457.07, -60039.00, -180057.53, -10037.70, -181109.77, 8971.83, 3378.11, -181233.06, 0.08, 0.49, 0.91
44, -76105.12, -59225.13, -179788.42, -10682.28, -180525.06, 9319.40, 3196.34, -181045.56, 0.08, 0.49, 0.91
45, -76273.52, -59747.20, -180030.52, -10263.45, -180625.73, 9169.74, 3688.78, -181142.98, 0.08, 0.49, 0.91
46, -76643.41, -60665.27, -180312.88, -9569.68, -181335.50, 8823.26, 3877.54, -181395.83, 0.08, 0.49, 0.91
47, -76536.53, -60212.51, -180108.27, -9869.73, -181368.63, 8930.88, 3457.99, -181280.69, 0.08, 0.49, 0.91
48, -76147.23, -59274.99, -179788.42, -10609.41, -180936.00, 9307.58, 3155.78, -181053.70, 0.08, 0.49, 0.91
49, -76224.38, -59573.70, -179949.47, -10384.49, -180968.77, 9226.71, 3571.74, -181117.03, 0.08, 0.49, 0.91
50, -76623.61, -60602.02, -180298.75, -9626.99, -181324.47, 8833.36, 3861.69, -181380.63, 0.08, 0.49, 0.91
51, -76618.78, -60408.58, -180177.94, -9737.49, -181273.64, 8838.06, 3513.00, -181346.88, 0.08, 0.49, 0.91
52, -76222.06, -59403.63, -179834.28, -10516.14, -180725.00, 9225.70, 3114.40, -181088.94, 0.08, 0.49, 0.91
53, -76185.29, -59414.13, -179888.94, -10495.86, -180475.11, 9272.24, 3443.58, -181085.11, 0.08, 0.49, 0.91
54, -76575.11, -60461.71, -180264.95, -9712.28, -181106.97, 8909.83, 3838.67, -181330.22, 0.08, 0.49, 0.91
55, -76668.63, -60547.27, -180232.53, -9619.79, -181469.50, 8824.45, 3586.43, -181379.27, 0.08, 0.49, 0.91
56, -76288.94, -59547.53, -179885.02, -10383.95, -181068.72, 9192.96, 3124.17, -181107.75, 0.08, 0.49, 0.91
57, -76156.77, -59315.29, -179845.89, -10572.67, -180891.34, 9317.01, 3322.77, -181065.13, 0.08, 0.49, 0.91
58, -76528.26, -60321.30, -180231.09, -9830.01, -181218.14, 8947.81, 3776.89, -181290.28, 0.07, 0.49, 0.91
59, -76722.27, -60674.75, -180287.05, -9553.72, -181366.05, 8755.74, 3630.84, -181420.31, 0.07, 0.49, 0.91
60, -76392.98, -59765.19, -179949.44, -10259.56, -180958.84, 9078.23, 3124.57, -181159.52, 0.07, 0.49, 0.91
61, -76169.69, -59303.80, -179815.58, -10637.71, -180475.33, 9303.98, 3185.93, -181058.72, 0.07, 0.49, 0.91
62, -76483.11, -60196.00, -180168.44, -9967.85, -180851.28, 9014.03, 3680.84, -181236.91, 0.07, 0.49, 0.91
63, -76755.91, -60828.84, -180313.84, -9511.40, -181472.83, 8756.25, 3636.25, -181435.30, 0.08, 0.49, 0.91
64, -76494.46, -60070.00, -180013.17, -10100.44, -181242.56, 9009.85, 3117.53, -181206.84, 0.08, 0.49, 0.91
65, -76197.12, -59427.52, -179800.78, -10645.73, -180898.89, 9295.31, 3018.92, -181062.28, 0.08, 0.49, 0.91
66, -76450.32, -60177.27, -180109.84, -10110.48, -181107.22, 9041.82, 3497.73, -181210.22, 0.08, 0.49, 0.91
67, -76795.79, -61036.46, -180343.64, -9515.03, -181409.41, 8699.50, 3559.94, -181461.22, 0.08, 0.49, 0.91
68, -76623.61, -60477.14, -180091.03, -9959.58, -181192.16, 8865.60, 3061.72, -181283.91, 0.07, 0.49, 0.91
69, -76272.35, -59690.93, -179815.17, -10636.32, -180795.13, 9204.76, 2816.16, -181079.97, 0.07, 0.49, 0.91
70, -76433.55, -60235.58, -180050.09, -10276.17, -180912.16, 9042.11, 3244.65, -181168.45, 0.07, 0.49, 0.91
71, -76826.99, -61264.54, -180354.91, -9572.07, -181260.59, 8655.67, 3420.96, -181457.64, 0.07, 0.49, 0.91
72, -76750.01, -60941.58, -180165.36, -9836.09, -181129.52, 8731.80, 2978.77, -181358.50, 0.07, 0.49, 0.91
73, -76366.56, -60047.27, -179841.17, -10590.28, -180517.73, 9112.69, 2622.37, -181107.50, 0.07, 0.49, 0.91
74, -76420.61, -60324.72, -179977.25, -10413.81, -180474.59, 9077.36, 2996.18, -181143.05, 0.07, 0.49, 0.91
75, -76821.78, -61403.61, -180321.69, -9647.79, -181175.03, 8701.04, 3292.77, -181419.53, 0.07, 0.49, 0.91
76, -76845.63, -61332.74, -180219.77, -9719.14, -181435.70, 8679.43, 2938.25, -181409.64, 0.07, 0.49, 0.91
77, -76457.02, -60372.57, -179874.73, -10511.09, -181016.94, 9057.19, 2496.94, -181131.52, 0.07, 0.49, 0.91
78, -76410.09, -60370.14, -179917.48, -10548.26, -180926.56, 9099.17, 2781.09, -181116.92, 0.07, 0.49, 0.92
79, -76808.80, -61451.11, -180295.20, -9784.41, -181280.84, 8704.42, 3169.61, -181378.55, 0.07, 0.49, 0.92
80, -76930.08, -61606.70, -180272.94, -9660.11, -181355.83, 8585.30, 2936.21, -181453.38, 0.07, 0.49, 0.92
81, -76559.82, -60637.51, -179918.81, -10423.98, -180898.83, 8946.08, 2458.00, -181160.61, 0.07, 0.49, 0.92
82, -76402.53, -60341.01, -179855.00, -10658.76, -180484.09, 9103.13, 2643.52, -181092.69, 0.07, 0.49, 0.92
83, -76755.71, -61287.52, -180223.25, -9931.68, -180956.13, 8775.50, 3139.57, -181303.98, 0.07, 0.50, 0.92
84, -76962.35, -61662.16, -180293.83, -9623.68, -181483.75, 8583.18, 3044.84, -181452.59, 0.07, 0.50, 0.92
85, -76637.70, -60716.59, -179960.97, -10317.36, -181163.61, 8900.62, 2572.53, -181184.11, 0.07, 0.50, 0.92
86, -76385.54, -60140.70, -179799.75, -10754.56, -180865.08, 9142.96, 2635.40, -181067.30, 0.07, 0.50, 0.92
87, -76680.63, -60930.92, -180140.50, -10133.19, -181114.03, 8850.82, 3174.26, -181233.44, 0.07, 0.50, 0.92
88, -76964.27, -61524.29, -180307.77, -9649.52, -181352.89, 8572.32, 3218.03, -181435.30, 0.07, 0.49, 0.91
89, -76705.40, -60693.43, -180018.47, -10216.54, -181025.75, 8823.73, 2768.04, -181210.75, 0.07, 0.49, 0.91
90, -76373.25, -59884.61, -179773.88, -10802.53, -180439.13, 9152.57, 2713.97, -181039.13, 0.07, 0.49, 0.91
91, -76575.98, -60429.53, -180047.91, -10309.72, -180627.72, 8969.93, 3278.58, -181157.55, 0.07, 0.49, 0.91
92, -76909.94, -61171.49, -180296.81, -9686.28, -181306.97, 8656.70, 3467.76, -181380.16, 0.07, 0.49, 0.91
93, -76737.70, -60511.27, -180064.03, -10093.58, -181289.72, 8828.07, 3073.14, -181223.72, 0.07, 0.49, 0.90
94, -76355.14, -59521.04, -179761.39, -10799.56, -180863.66, 9200.27, 2903.85, -181012.06, 0.07, 0.49, 0.90
95, -76474.14, -59814.59, -179962.42, -10478.03, -180937.00, 9078.74, 3443.13, -181096.48, 0.07, 0.49, 0.90
96, -76845.07, -60655.97, -180280.77, -9761.99, -181264.48, 8710.56, 3761.82, -181333.64, 0.07, 0.49, 0.90
97, -76765.19, -60193.11, -180119.16, -9987.43, -181130.80, 8784.32, 3451.18, -181250.16, 0.07, 0.49, 0.90
98, -76350.56, -59081.38, -179776.27, -10758.77, -180483.89, 9192.67, 3185.75, -181004.17, 0.07, 0.49, 0.91
99, -76356.57, -59098.66, -179872.22, -10626.31, -180400.63, 9203.00, 3662.45, -181034.63, 0.07, 0.49, 0.91
100, -76732.06, -59998.90, -180235.55, -9852.63, -181035.75, 8853.24, 4090.91, -181262.16, 0.07, 0.49, 0.91
101, -76751.17, -59800.50, -180159.66, -9876.27, -181356.44, 8840.03, 3861.87, -181252.41, 0.07, 0.49, 0.91
102, -76342.91, -58685.51, -179807.73, -10658.29, -180939.27, 9236.57, 3498.11, -181000.28, 0.07, 0.49, 0.91
103, -76252.86, -58477.73, -179809.08, -10738.09, -180803.75, 9320.10, 3835.65, -180981.08, 0.07, 0.49, 0.91
104, -76627.27, -59412.23, -180196.05, -9967.89, -181133.09, 8949.44, 4320.28, -181209.55, 0.07, 0.49, 0.91
105, -76755.64, -59523.66, -180213.19, -9789.08, -181214.34, 8821.56, 4166.77, -181279.39, 0.07, 0.49, 0.91
106, -76382.32, -58479.07, -179870.83, -10527.31, -180668.41, 9187.08, 3725.88, -181036.63, 0.07, 0.49, 0.91
107, -76192.58, -58065.74, -179774.88, -10794.15, -180290.17, 9384.74, 3912.32, -180955.05, 0.07, 0.49, 0.91
108, -76524.34, -58954.91, -180145.44, -10069.19, -180791.36, 9077.54, 4431.79, -181157.78, 0.07, 0.49, 0.91
109, -76743.23, -59389.63, -180252.55, -9698.20, -181367.33, 8874.63, 4357.72, -181293.34, 0.07, 0.49, 0.91
110, -76432.21, -58511.70, -179942.11, -10343.92, -181114.02, 9179.66, 3856.10, -181077.22, 0.07, 0.49, 0.91
111, -76166.80, -57950.07, -179770.06, -10789.46, -180805.41, 9434.63, 3850.78, -180952.88, 0.07, 0.49, 0.91
112, -76454.41, -58786.38, -180106.91, -10164.88, -181048.81, 9148.75, 4338.76, -181131.09, 0.07, 0.49, 0.91
113, -76762.41, -59555.02, -180296.23, -9628.21, -181313.25, 8845.66, 4321.44, -181336.08, 0.07, 0.49, 0.91
114, -76535.92, -58875.63, -180014.42, -10140.34, -181021.34, 9066.63, 3801.52, -181154.88, 0.07, 0.49, 0.91
115, -76205.07, -58151.68, -179765.44, -10733.15, -180439.39, 9394.73, 3637.28, -180988.14, 0.07, 0.49, 0.91
116, -76411.05, -58796.73, -180036.95, -10248.77, -180630.61, 9210.17, 4109.12, -181115.94, 0.07, 0.49, 0.91
117, -76772.88, -59720.44, -180300.92, -9583.78, -181345.55, 8869.69, 4220.28, -181357.83, 0.07, 0.49, 0.91
118, -76638.41, -59251.70, -180081.20, -9940.54, -181329.86, 9002.70, 3732.72, -181224.16, 0.07, 0.48, 0.91
119, -76266.63, -58419.12, -179782.42, -10645.89, -180913.52, 9365.07, 3422.28, -181018.50, 0.07, 0.48, 0.91
120, -76384.45, -58857.84, -179979.41, -10346.40, -180985.58, 9246.16, 3829.37, -181102.34, 0.07, 0.48, 0.91
121, -76784.32, -59882.80, -180310.84, -9601.55, -181341.73, 8851.11, 4065.72, -181370.28, 0.07, 0.48, 0.91
122, -76751.46, -59644.38, -180163.02, -9772.90, -181264.23, 8881.62, 3662.94, -181311.25, 0.07, 0.48, 0.91
123, -76362.30, -58694.20, -179829.97, -10542.13, -180830.23, 9259.46, 3266.39, -181058.98, 0.07, 0.49, 0.91
124, -76377.14, -58819.24, -179931.58, -10452.44, -180799.59, 9240.93, 3610.28, -181080.19, 0.07, 0.49, 0.91
125, -76783.42, -59888.86, -180299.02, -9680.41, -181161.63, 8839.29, 3948.32, -181348.72, 0.07, 0.49, 0.91
126, -76854.37, -59948.98, -180228.02, -9658.55, -181185.16, 8769.15, 3626.15, -181378.70, 0.07, 0.49, 0.91
127, -76473.70, -59018.08, -179872.70, -10431.29, -180615.97, 9142.44, 3140.51, -181104.98, 0.07, 0.49, 0.91
128, -76374.99, -58915.60, -179865.64, -10539.70, -180348.31, 9252.10, 3362.93, -181074.14, 0.08, 0.49, 0.92
129, -76753.72, -59978.51, -180243.30, -9769.48, -180949.19, 8899.66, 3779.93, -181309.09, 0.08, 0.49, 0.92
130, -76917.60, -60289.00, -180265.63, -9550.86, -181437.59, 8748.03, 3568.19, -181419.63, 0.08, 0.49, 0.92
131, -76573.74, -59384.71, -179925.66, -10282.29, -181098.16, 9083.17, 3043.93, -181144.75, 0.08, 0.49, 0.92
132, -76384.49, -59026.08, -179829.41, -10604.09, -180864.34, 9263.32, 3129.00, -181061.44, 0.08, 0.49, 0.92
133, -76726.59, -59977.42, -180196.66, -9913.58, -181163.88, 8924.07, 3602.16, -181264.45, 0.07, 0.49, 0.91
134, -76980.01, -60528.75, -180309.44, -9516.41, -181372.48, 8674.62, 3519.59, -181453.73, 0.07, 0.49, 0.91
135, -76694.69, -59742.32, -179987.38, -10152.47, -181032.05, 8951.85, 2985.77, -181202.75, 0.07, 0.49, 0.91
136, -76419.29, -59191.80, -179799.64, -10644.59, -180530.73, 9223.29, 2926.11, -181067.41, 0.07, 0.49, 0.91
137, -76688.79, -60006.32, -180119.42, -10057.39, -180744.61, 8974.54, 3411.19, -181218.14, 0.07, 0.49, 0.91
138, -77006.05, -60802.33, -180316.88, -9503.76, -181415.27, 8674.00, 3431.35, -181454.61, 0.07, 0.49, 0.91
139, -76798.27, -60181.00, -180047.67, -10005.45, -181284.58, 8877.22, 2912.88, -181254.67, 0.07, 0.49, 0.91
140, -76459.55, -59411.65, -179789.48, -10651.99, -180898.73, 9207.33, 2728.97, -181066.09, 0.07, 0.49, 0.91
141, -76648.91, -59947.46, -180047.81, -10230.66, -181043.30, 9018.12, 3237.63, -181166.38, 0.07, 0.49, 0.91
142, -77019.08, -60803.94, -180325.69, -9565.23, -181367.22, 8654.33, 3450.95, -181434.56, 0.07, 0.49, 0.91
143, -76896.62, -60241.61, -180106.39, -9899.95, -181195.95, 8773.69, 3083.33, -181299.39, 0.07, 0.49, 0.91
144, -76502.69, -59177.38, -179781.69, -10641.53, -180613.36, 9159.39, 2884.43, -181058.59, 0.07, 0.49, 0.91
145, -76574.64, -59299.78, -179938.17, -10403.82, -180523.03, 9102.99, 3436.89, -181109.89, 0.07, 0.49, 0.91
146, -76952.80, -60097.67, -180273.77, -9659.51, -181199.58, 8747.71, 3863.32, -181357.28, 0.07, 0.49, 0.91
147, -76922.66, -59675.71, -180140.66, -9805.98, -181383.11, 8781.84, 3636.83, -181305.75, 0.07, 0.49, 0.91
148, -76516.99, -58498.92, -179793.16, -10601.19, -180942.03, 9177.20, 3366.64, -181049.06, 0.07, 0.49, 0.92
149, -76489.50, -58353.72, -179856.17, -10577.72, -180869.22, 9199.89, 3829.84, -181045.34, 0.07, 0.49, 0.92
150, -76877.46, -59193.32, -180230.95, -9816.55, -181212.83, 8817.50, 4344.08, -181286.64, 0.07, 0.49, 0.92
151, -76952.45, -59063.81, -180187.67, -9765.57, -181241.95, 8743.82, 4198.51, -181321.75, 0.07, 0.49, 0.92
152, -76561.02, -57915.36, -179834.91, -10547.63, -180690.17, 9128.25, 3844.21, -181053.97, 0.07, 0.49, 0.92
153, -76428.23, -57530.68, -179795.45, -10716.07, -180346.36, 9271.55, 4187.04, -181012.63, 0.07, 0.49, 0.91
154, -76785.10, -58356.69, -180177.08, -9967.02, -180885.42, 8942.15, 4764.36, -181225.88, 0.07, 0.49, 0.91
155, -76954.05, -58542.82, -180232.64, -9713.38, -181398.50, 8784.44, 4698.22, -181329.58, 0.07, 0.49, 0.91
156, -76609.75, -57521.12, -179904.05, -10434.67, -181080.91, 9118.37, 4259.10, -181081.88, 0.07, 0.49, 0.91
157, -76392.96, -57010.49, -179781.88, -10798.49, -180820.27, 9325.80, 4392.54, -180995.69, 0.07, 0.49, 0.91
158, -76716.75, -57832.86, -180147.95, -10127.04, -181102.17, 9004.33, 4944.07, -181194.45, 0.07, 0.49, 0.91
159, -76981.80, -58335.08, -180287.00, -9696.72, -181323.80, 8744.40, 4946.58, -181372.67, 0.07, 0.49, 0.91
160, -76706.96, -57448.65, -179974.72, -10308.92, -180975.75, 9014.53, 4487.98, -181148.50, 0.07, 0.49, 0.91
161, -76404.52, -56586.46, -179758.47, -10845.83, -180415.11, 9316.90, 4543.73, -181003.64, 0.07, 0.49, 0.91
162, -76638.41, -56972.20, -180055.39, -10299.84, -180660.20, 9105.85, 5250.72, -181144.59, 0.07, 0.49, 0.91
163, -76957.21, -57513.20, -180273.47, -9719.30, -181336.55, 8807.55, 5478.59, -181357.72, 0.07, 0.49, 0.91
164, -76761.05, -56761.80, -180024.61, -10187.57, -181250.61, 8998.59, 5072.71, -181185.11, 0.07, 0.49, 0.91
165, -76405.99, -55872.36, -179754.05, -10857.52, -180851.53, 9342.74, 4910.81, -180999.28, 0.07, 0.49, 0.91
166, -76570.01, -56307.77, -179995.06, -10480.55, -180971.55, 9177.49, 5420.43, -181107.63, 0.07, 0.49, 0.91
167, -76950.15, -57183.70, -180296.97, -9793.01, -181307.75, 8803.44, 5648.44, -181362.47, 0.07, 0.49, 0.91
168, -76856.18, -56747.05, -180108.25, -10080.52, -181165.36, 8897.63, 5236.19, -181257.31, 0.07, 0.49, 0.91
169, -76471.48, -55803.81, -179790.11, -10829.58, -180584.78, 9278.70, 4916.22, -181030.80, 0.07, 0.49, 0.91
170, -76535.70, -56022.90, -179938.44, -10624.61, -180499.14, 9229.84, 5343.21, -181079.34, 0.07, 0.49, 0.91
171, -76931.80, -56998.54, -180284.56, -9862.55, -181196.02, 8858.08, 5666.06, -181341.34, 0.07, 0.49, 0.91
172, -76942.30, -56844.60, -180170.05, -9957.68, -181419.84, 8850.26, 5312.70, -181321.86, 0.07, 0.49, 0.91
173, -76554.37, -55869.43, -179826.45, -10744.57, -180995.77, 9227.43, 4877.31, -181067.42, 0.07, 0.49, 0.90
174, -76522.83, -55860.96, -179883.19, -10749.11, -180919.17, 9254.20, 5180.64, -181065.98, 0.07, 0.49, 0.90
175, -76923.50, -56879.06, -180258.97, -9975.94, -181276.98, 8859.99, 5578.91, -181325.08, 0.07, 0.49, 0.90
176, -77033.92, -56993.04, -180229.58, -9869.14, -181343.88, 8752.83, 5322.69, -181390.38, 0.07, 0.49, 0.90
177, -76663.53, -56024.22, -179881.16, -10636.81, -180930.23, 9113.32, 4823.71, -181110.34, 0.07, 0.49, 0.90
178, -76523.99, -55763.98, -179833.88, -10857.52, -180746.45, 9245.75, 4989.76, -181063.08, 0.07, 0.49, 0.90
179, -76892.45, -56739.39, -180211.11, -10130.37, -181071.13, 8882.27, 5448.98, -181287.64, 0.06, 0.49, 0.91
180, -77098.02, -57132.60, -180273.83, -9839.30, -181232.63, 8680.97, 5298.48, -181432.45, 0.06, 0.49, 0.91
181, -76774.69, -56251.25, -179936.56, -10539.34, -180779.09, 8999.53, 4766.13, -181159.25, 0.06, 0.49, 0.91
182, -76535.08, -55754.75, -179787.86, -10942.79, -180302.16, 9245.06, 4799.43, -181045.92, 0.06, 0.49, 0.91
183, -76831.66, -56578.28, -180131.83, -10293.60, -180733.20, 8970.69, 5312.03, -181214.13, 0.06, 0.49, 0.91
184, -77104.46, -57162.04, -180283.73, -9821.78, -181367.91, 8714.23, 5310.66, -181416.56, 0.06, 0.48, 0.91
185, -76845.61, -56392.06, -179988.69, -10405.05, -181175.45, 8969.04, 4791.97, -181185.22, 0.06, 0.48, 0.91
186, -76534.96, -55692.52, -179765.98, -10970.39, -180819.77, 9273.51, 4687.90, -181029.70, 0.06, 0.48, 0.91
187, -76769.37, -56331.82, -180062.47, -10452.10, -181010.28, 9042.69, 5203.33, -181168.08, 0.06, 0.48, 0.91
188, -77114.72, -57140.45, -180303.78, -9839.21, -181312.19, 8703.50, 5310.33, -181414.27, 0.06, 0.48, 0.91
189, -76947.35, -56586.37, -180063.69, -10257.17, -181088.02, 8866.69, 4824.71, -181245.42, 0.06, 0.49, 0.91
190, -76581.01, -55749.54, -179776.53, -10941.02, -180489.45, 9227.87, 4579.05, -181036.52, 0.06, 0.49, 0.91
191, -76717.89, -56185.45, -179989.47, -10580.69, -180553.78, 9109.12, 5054.62, -181115.16, 0.06, 0.49, 0.91
192, -77093.27, -57137.41, -180286.64, -9858.57, -181267.03, 8757.23, 5283.68, -181378.67, 0.06, 0.49, 0.91
193, -77017.83, -56803.69, -180112.19, -10097.96, -181359.08, 8834.48, 4861.68, -181289.14, 0.06, 0.49, 0.91
194, -76624.59, -55872.12, -179784.63, -10861.52, -180924.13, 9217.17, 4494.94, -181048.45, 0.07, 0.49, 0.91
195, -76662.88, -56063.36, -179908.88, -10715.96, -180917.56, 9176.02, 4875.34, -181090.20, 0.07, 0.49, 0.91
196, -77065.51, -57088.03, -180267.23, -9948.09, -181274.30, 8780.46, 5208.98, -181352.45, 0.07, 0.49, 0.91
197, -77091.99, -57009.17, -180176.36, -9993.13, -181257.94, 8752.90, 4871.18, -181343.78, 0.07, 0.49, 0.91
198, -76696.12, -56042.35, -179831.09, -10775.55, -180727.23, 9139.38, 4416.12, -181073.55, 0.07, 0.49, 0.91
199, -76622.52, -55962.04, -179850.33, -10828.46, -180424.13, 9222.73, 4697.35, -181051.73, 0.07, 0.49, 0.91
200, -76997.48, -56961.83, -180223.05, -10053.37, -181009.56, 8872.86, 5128.97, -181283.28, 0.07, 0.49, 0.91
201, -77121.74, -57183.29, -180220.17, -9893.71, -181434.42, 8756.32, 4885.29, -181360.70, 0.07, 0.49, 0.91
202, -76756.78, -56267.81, -179875.81, -10643.83, -181059.67, 9113.16, 4357.76, -181090.81, 0.07, 0.49, 0.91
203, -76594.22, -55972.68, -179803.78, -10897.95, -180851.41, 9269.92, 4493.91, -181032.30, 0.07, 0.49, 0.91
204, -76950.46, -56922.43, -180179.48, -10175.07, -181163.25, 8917.47, 4970.87, -181244.72, 0.07, 0.49, 0.91
205, -77171.70, -57388.71, -180263.33, -9834.61, -181340.19, 8700.24, 4841.34, -181397.70, 0.07, 0.49, 0.91
206, -76861.03, -56566.77, -179934.02, -10503.08, -180959.42, 9004.89, 4290.57, -181143.58, 0.07, 0.49, 0.91
207, -76603.07, -56040.63, -179766.98, -10938.61, -180446.66, 9261.47, 4286.75, -181022.28, 0.07, 0.49, 0.91
208, -76887.56, -56849.07, -180099.75, -10304.38, -180752.67, 8999.77, 4802.07, -181180.95, 0.07, 0.49, 0.91
209, -77179.77, -57535.67, -180274.88, -9790.47, -181401.13, 8725.65, 4801.62, -181392.42, 0.07, 0.49, 0.91
210, -76941.92, -56873.12, -179998.38, -10330.66, -181221.03, 8958.83, 4253.65, -181182.42, 0.07, 0.49, 0.91
211, -76620.08, -56217.25, -179764.19, -10924.62, -180853.19, 9270.86, 4069.09, -181016.58, 0.07, 0.49, 0.91
212, -76837.80, -56889.19, -180047.05, -10445.95, -181025.59, 9055.16, 4529.71, -181136.47, 0.07, 0.49, 0.91
213, -77197.58, -57820.03, -180306.69, -9801.40, -181341.47, 8701.02, 4622.63, -181398.34, 0.07, 0.49, 0.91
214, -77051.58, -57406.36, -180077.19, -10183.95, -181148.88, 8841.86, 4085.65, -181249.66, 0.07, 0.49, 0.91
215, -76680.67, -56646.98, -179780.58, -10891.89, -180590.06, 9204.81, 3743.78, -181037.25, 0.07, 0.49, 0.91
216, -76796.39, -57110.47, -179974.36, -10581.36, -180550.39, 9103.51, 4146.47, -181113.81, 0.07, 0.49, 0.91
217, -77182.29, -58160.49, -180292.27, -9844.98, -181250.64, 8740.09, 4350.99, -181375.59, 0.07, 0.49, 0.91
218, -77137.37, -58003.54, -180139.05, -10040.25, -181383.44, 8786.76, 3876.26, -181307.70, 0.07, 0.49, 0.91
219, -76748.35, -57169.97, -179810.44, -10816.05, -180953.72, 9166.14, 3416.22, -181060.20, 0.08, 0.49, 0.91
220, -76771.60, -57394.27, -179921.52, -10710.60, -180932.42, 9139.18, 3730.19, -181094.23, 0.08, 0.49, 0.91
221, -77175.41, -58485.28, -180287.02, -9937.99, -181292.53, 8739.91, 4048.08, -181361.20, 0.08, 0.49, 0.91
222, -77233.86, -58562.62, -180209.72, -9940.42, -181306.69, 8681.95, 3683.08, -181378.00, 0.08, 0.49, 0.91
223, -76851.35, -57696.49, -179859.09, -10726.29, -180878.30, 9054.85, 3153.18, -181100.11, 0.08, 0.49, 0.91
224, -76767.09, -57638.55, -179867.50, -10828.50, -180749.59, 9132.05, 3365.05, -181071.36, 0.08, 0.49, 0.91
225, -77155.42, -58691.77, -180249.58, -10065.08, -181094.81, 8747.35, 3782.09, -181318.97, 0.08, 0.49, 0.91
226, -77312.16, -58990.25, -180262.98, -9871.40, -181204.83, 8593.66, 3549.79, -181424.75, 0.08, 0.49, 0.91
227, -76961.03, -58114.29, -179917.41, -10614.15, -180696.03, 8936.47, 3005.77, -181143.30, 0.08, 0.49, 0.91
228, -76773.75, -57754.07, -179823.72, -10914.36, -180302.67, 9129.37, 3125.49, -181062.41, 0.08, 0.49, 0.91
229, -77111.19, -58614.90, -180186.59, -10206.21, -180809.67, 8817.67, 3667.05, -181259.81, 0.07, 0.49, 0.91
230, -77348.68, -59040.28, -180287.69, -9825.18, -181399.31, 8596.28, 3637.17, -181434.41, 0.07, 0.49, 0.91
231, -77051.87, -58148.64, -179966.89, -10477.18, -181143.53, 8885.44, 3152.36, -181177.64, 0.07, 0.49, 0.91
232, -76780.90, -57466.36, -179784.69, -10963.60, -180825.73, 9148.59, 3188.83, -181040.94, 0.07, 0.49, 0.91
233, -77058.35, -58090.15, -180113.30, -10378.90, -181058.41, 8873.89, 3795.95, -181193.56, 0.07, 0.49, 0.91
234, -77370.31, -58662.42, -180306.95, -9847.22, -181325.77, 8566.86, 3935.87, -181428.09, 0.08, 0.49, 0.91
235, -77151.65, -57877.25, -180027.14, -10366.76, -181045.14, 8779.76, 3509.54, -181222.50, 0.08, 0.49, 0.91
236, -76811.21, -56970.73, -179770.47, -11000.23, -180463.38, 9114.01, 3436.18, -181040.08, 0.08, 0.49, 0.91
237, -76995.99, -57314.88, -180028.50, -10552.84, -180603.23, 8947.40, 4083.98, -181142.84, 0.08, 0.49, 0.91
238, -77352.91, -57968.04, -180296.16, -9887.32, -181306.89, 8613.22, 4407.94, -181397.36, 0.08, 0.49, 0.91
239, -77224.88, -57290.47, -180083.53, -10233.99, -181321.70, 8743.00, 4097.03, -181263.48, 0.08, 0.49, 0.91
240, -76839.26, -56152.27, -179772.08, -10971.69, -180894.31, 9118.01, 3957.18, -181037.92, 0.08, 0.49, 0.91
241, -76932.84, -56159.23, -179948.77, -10716.36, -180944.31, 9022.35, 4604.64, -181094.30, 0.08, 0.49, 0.91
242, -77323.78, -56805.93, -180283.86, -9975.63, -181292.41, 8638.48, 5112.74, -181361.02, 0.08, 0.49, 0.91
243, -77294.05, -56258.64, -180142.20, -10133.19, -181216.84, 8667.65, 4938.80, -181308.20, 0.08, 0.49, 0.91
244, -76893.62, -54967.83, -179794.86, -10917.04, -180643.53, 9062.34, 4742.77, -181052.75, 0.08, 0.49, 0.91
245, -76875.24, -54663.40, -179866.36, -10849.47, -180440.67, 9093.27, 5340.14, -181058.98, 0.08, 0.49, 0.91
246, -77256.95, -55250.52, -180237.13, -10056.76, -181082.19, 8736.58, 6015.50, -181300.27, 0.08, 0.49, 0.91
247, -77320.54, -54813.41, -180185.08, -9985.82, -181416.47, 8681.60, 6054.60, -181327.38, 0.08, 0.49, 0.91
248, -76930.09, -53406.95, -179833.72, -10730.71, -181004.75, 9065.00, 5864.78, -181062.84, 0.08, 0.49, 0.91
249, -76816.98, -52828.01, -179812.73, -10848.64, -180847.13, 9174.54, 6348.03, -181022.72, 0.07, 0.49, 0.91
250, -77191.79, -53446.62, -180194.44, -10068.21, -181177.52, 8807.95, 7054.57, -181249.33, 0.07, 0.49, 0.91
251, -77362.54, -53413.71, -180234.94, -9811.88, -181303.91, 8644.00, 7081.90, -181362.47, 0.07, 0.49, 0.91
252, -77015.03, -52179.32, -179897.36, -10521.93, -180851.53, 8987.93, 6733.46, -181103.58, 0.07, 0.49, 0.91
253, -76797.93, -51424.68, -179773.53, -10849.18, -180378.84, 9211.31, 6990.71, -181008.59, 0.07, 0.49, 0.91
254, -77113.00, -51943.73, -180127.83, -10139.00, -180810.20, 8922.91, 7684.37, -181187.73, 0.08, 0.49, 0.92
255, -77359.99, -52173.84, -180252.83, -9694.96, -181407.88, 8696.53, 7792.62, -181356.17, 0.08, 0.49, 0.92
0, -77074.40, -51165.18, -179947.39, -10295.35, -181161.73, 8981.42, 7360.03, -181133.45, 0.08, 0.49, 0.92
1, -76780.34, -50366.32, -179742.75, -10794.48, -180822.91, 9269.22, 7384.44, -180990.19, 0.08, 0.49, 0.92
2, -77036.00, -50945.64, -180059.75, -10217.09, -181034.42, 9019.31, 7972.73, -181137.84, 0.08, 0.49, 0.92
3, -77360.55, -51660.63, -180283.73, -9628.21, -181316.20, 8703.28, 8063.57, -181364.91, 0.08, 0.48, 0.91
4, -77161.28, -51159.99, -180024.91, -10103.14, -181060.03, 8901.31, 7474.33, -181184.73, 0.08, 0.48, 0.91
5, -76814.38, -50595.61, -179758.64, -10755.26, -180475.09, 9249.44, 7126.59, -181001.52, 0.08, 0.48, 0.91
6, -76987.59, -51377.58, -180002.92, -10344.36, -180593.91, 9100.04, 7438.35, -181102.70, 0.08, 0.48, 0.91
7, -77356.91, -52472.75, -180289.98, -9652.06, -181312.92, 8753.81, 7502.59, -181359.33, 0.08, 0.48, 0.91
8, -77251.78, -52179.45, -180095.86, -9946.10, -181338.73, 8861.97, 6958.79, -181248.64, 0.08, 0.48, 0.92
9, -76867.18, -51422.51, -179783.50, -10687.20, -180910.67, 9237.51, 6496.96, -181025.92, 0.08, 0.48, 0.92
10, -76946.10, -51854.01, -179945.22, -10461.69, -180946.16, 9156.33, 6776.80, -181079.20, 0.08, 0.48, 0.92
11, -77350.42, -53024.93, -180288.27, -9698.20, -181308.72, 8759.47, 6933.31, -181353.20, 0.08, 0.48, 0.92
12, -77355.23, -53064.18, -180164.98, -9806.42, -181270.08, 8756.94, 6383.77, -181325.95, 0.08, 0.48, 0.92
13, -76964.81, -52275.21, -179819.27, -10594.86, -180836.31, 9138.38, 5779.22, -181060.39, 0.07, 0.49, 0.91
14, -76936.53, -52346.78, -179879.84, -10581.18, -180764.05, 9163.61, 6010.79, -181071.19, 0.07, 0.49, 0.91
15, -77334.40, -53360.14, -180252.47, -9793.51, -181118.45, 8773.26, 6385.36, -181326.94, 0.07, 0.49, 0.91
16, -77429.59, -53492.02, -180213.03, -9693.42, -181167.56, 8680.30, 6079.52, -181377.19, 0.07, 0.49, 0.91
17, -77049.23, -52622.35, -179860.41, -10453.69, -180600.23, 9055.54, 5523.21, -181092.58, 0.07, 0.49, 0.91
18, -76905.45, -52436.25, -179809.66, -10627.90, -180287.95, 9213.39, 5693.23, -181032.38, 0.08, 0.49, 0.92
19, -77260.84, -53425.88, -180180.00, -9860.27, -180837.45, 8888.42, 6174.04, -181241.80, 0.08, 0.49, 0.92
20, -77447.65, -53822.24, -180233.83, -9555.53, -181371.41, 8718.28, 6015.44, -181371.84, 0.08, 0.49, 0.92
21, -77112.78, -52969.25, -179897.58, -10240.99, -181068.22, 9047.34, 5466.28, -181113.20, 0.08, 0.49, 0.92
22, -76883.56, -52466.96, -179761.33, -10607.27, -180793.22, 9268.46, 5537.69, -181010.56, 0.08, 0.49, 0.92
23, -77195.93, -53195.29, -180114.13, -9920.58, -181061.50, 8957.93, 6123.28, -181189.77, 0.07, 0.49, 0.92
24, -77465.00, -53694.03, -180259.73, -9438.90, -181288.78, 8693.38, 6145.97, -181383.33, 0.07, 0.49, 0.92
25, -77201.52, -52915.79, -179966.45, -10007.59, -180954.70, 8953.53, 5608.54, -181156.33, 0.07, 0.49, 0.92
26, -76897.02, -52232.54, -179752.34, -10536.03, -180396.41, 9258.11, 5495.35, -181007.13, 0.07, 0.49, 0.92
27, -77136.67, -52862.34, -180054.52, -9973.33, -180654.06, 9040.79, 6008.22, -181145.22, 0.07, 0.49, 0.92
28, -77476.84, -53671.79, -180288.41, -9349.38, -181352.09, 8722.30, 6058.95, -181388.89, 0.08, 0.49, 0.91
29, -77301.52, -53239.11, -180039.34, -9780.81, -181273.56, 8896.98, 5430.56, -181216.03, 0.08, 0.49, 0.91
30, -76942.01, -52613.86, -179758.91, -10456.19, -180870.20, 9246.11, 5037.88, -181019.63, 0.08, 0.49, 0.91
31, -77093.42, -53222.27, -179984.44, -10082.11, -180977.59, 9094.99, 5406.53, -181115.59, 0.08, 0.49, 0.91
32, -77474.12, -54291.43, -180284.61, -9358.14, -181314.64, 8721.92, 5546.16, -181379.58, 0.08, 0.49, 0.91
33, -77390.34, -54098.53, -180100.94, -9602.62, -181184.83, 8804.53, 5020.49, -181277.36, 0.08, 0.49, 0.91
34, -76996.55, -53251.87, -179772.97, -10343.74, -180619.19, 9190.72, 4629.60, -181030.33, 0.08, 0.49, 0.91
35, -77036.55, -53214.67, -179900.73, -10140.54, -180475.89, 9165.00, 5207.33, -181070.81, 0.08, 0.49, 0.91
36, -77428.48, -53758.56, -180254.75, -9329.64, -181142.67, 8800.84, 5859.76, -181325.91, 0.08, 0.49, 0.91
37, -77449.38, -53269.61, -180158.36, -9365.34, -181398.91, 8788.44, 5768.96, -181314.27, 0.08, 0.49, 0.91
38, -77061.50, -51996.93, -179817.81, -10136.92, -180979.97, 9169.24, 5512.03, -181055.98, 0.08, 0.49, 0.91
39, -77014.16, -51579.60, -179859.94, -10151.09, -180887.72, 9214.17, 6030.12, -181049.02, 0.08, 0.49, 0.91
40, -77410.10, -52150.37, -180243.08, -9353.31, -181241.27, 8824.56, 6706.93, -181301.86, 0.08, 0.49, 0.91
41, -77534.40, -51919.03, -180229.66, -9197.23, -181321.70, 8704.28, 6682.39, -181379.13, 0.08, 0.49, 0.91
42, -77168.68, -50622.03, -179880.22, -9934.70, -180890.31, 9064.39, 6364.95, -181102.59, 0.08, 0.49, 0.91
43, -77010.43, -49877.18, -179815.44, -10136.99, -180483.36, 9224.74, 6794.51, -181039.00, 0.08, 0.48, 0.91
44, -77360.26, -50277.77, -180180.22, -9356.89, -180875.63, 8900.49, 7621.27, -181245.80, 0.08, 0.48, 0.91
45, -77564.15, -50250.34, -180248.64, -8987.39, -181416.19, 8713.34, 7778.72, -181390.06, 0.08, 0.48, 0.91
46, -77238.02, -49083.25, -179917.14, -9632.04, -181109.11, 9032.43, 7436.22, -181128.41, 0.08, 0.48, 0.91
47, -76983.05, -48291.97, -179754.48, -10021.00, -180809.89, 9280.11, 7628.92, -181011.69, 0.08, 0.48, 0.91
48, -77272.91, -48799.15, -180096.36, -9337.26, -181058.20, 8994.72, 8345.98, -181177.94, 0.07, 0.48, 0.91
49, -77553.89, -49156.47, -180265.69, -8793.06, -181296.20, 8721.07, 8530.77, -181375.58, 0.07, 0.48, 0.91
50, -77299.17, -48222.55, -179977.14, -9302.59, -180970.36, 8971.83, 8127.18, -181156.84, 0.07, 0.48, 0.91
51, -76970.06, -47249.08, -179738.22, -9828.67, -180388.31, 9300.18, 8145.27, -180993.05, 0.07, 0.48, 0.91
52, -77178.13, -47203.30, -180016.72, -9246.58, -180604.81, 9116.58, 9058.69, -181120.02, 0.07, 0.48, 0.91
53, -77515.94, -47220.03, -180263.81, -8516.15, -181297.27, 8803.82, 9680.70, -181348.08, 0.07, 0.48, 0.92
54, -77358.87, -46283.78, -180042.06, -8833.25, -181272.78, 8963.25, 9426.60, -181199.03, 0.07, 0.48, 0.92
55, -76992.26, -45239.80, -179757.23, -9477.59, -180864.72, 9322.26, 9226.11, -181001.00, 0.07, 0.48, 0.92
56, -77125.74, -45464.34, -179967.97, -9103.73, -180954.64, 9191.60, 9740.38, -181093.42, 0.07, 0.48, 0.92
57, -77516.90, -46274.03, -180285.25, -8333.31, -181302.28, 8811.84, 10014.79, -181357.72, 0.07, 0.48, 0.92
58, -77458.94, -45941.48, -180118.86, -8512.30, -181200.13, 8872.46, 9547.86, -181279.95, 0.08, 0.49, 0.92
59, -77063.76, -45002.62, -179782.20, -9250.02, -180640.02, 9263.90, 9089.72, -181032.78, 0.08, 0.49, 0.92
60, -77081.22, -45068.07, -179886.91, -9080.66, -180463.69, 9262.81, 9467.39, -181064.17, 0.08, 0.49, 0.92
61, -77466.90, -45930.71, -180242.78, -8247.86, -181117.45, 8905.25, 9885.04, -181311.53, 0.08, 0.49, 0.92
62, -77499.71, -45808.27, -180158.00, -8211.85, -181398.84, 8879.92, 9573.77, -181310.77, 0.08, 0.49, 0.92
63, -77101.63, -44826.89, -179805.98, -8942.91, -180975.16, 9267.77, 9078.00, -181044.52, 0.08, 0.49, 0.91
64, -77016.20, -44637.17, -179812.80, -8965.93, -180847.11, 9350.03, 9360.08, -181024.52, 0.08, 0.49, 0.91
65, -77398.75, -45482.20, -180199.11, -8124.93, -181186.52, 8975.95, 9867.42, -181260.66, 0.08, 0.49, 0.91
66, -77539.67, -45585.49, -180213.13, -7865.49, -181284.98, 8838.35, 9684.56, -181349.73, 0.08, 0.49, 0.91
67, -77179.72, -44542.09, -179868.66, -8532.33, -180826.81, 9193.41, 9168.15, -181084.23, 0.08, 0.49, 0.91
68, -76998.59, -44003.97, -179781.33, -8723.37, -180388.20, 9381.81, 9346.40, -181006.86, 0.07, 0.49, 0.91
69, -77335.67, -44647.09, -180151.33, -7901.32, -180847.59, 9074.92, 9948.07, -181202.70, 0.07, 0.49, 0.91
70, -77562.31, -44896.54, -180249.17, -7431.60, -181418.63, 8868.97, 9915.90, -181362.25, 0.07, 0.49, 0.91
71, -77257.51, -43950.55, -179926.89, -7994.50, -181139.14, 9171.68, 9369.09, -181121.52, 0.07, 0.49, 0.91
72, -76987.79, -43238.15, -179747.61, -8365.83, -180824.73, 9436.30, 9363.10, -180996.73, 0.07, 0.49, 0.91
73, -77267.70, -43810.27, -180077.09, -7655.27, -181061.69, 9161.93, 9940.45, -181160.80, 0.08, 0.49, 0.91
74, -77573.31, -44395.64, -180266.52, -7030.54, -181323.80, 8866.36, 9973.24, -181374.81, 0.08, 0.49, 0.91
75, -77344.48, -43735.25, -179990.45, -7479.94, -181040.39, 9094.32, 9360.26, -181175.83, 0.08, 0.49, 0.91
76, -77009.34, -43059.94, -179742.75, -8032.64, -180474.38, 9430.25, 9071.95, -181003.23, 0.08, 0.49, 0.91
77, -77207.46, -43666.32, -180013.52, -7508.22, -180611.97, 9256.17, 9483.96, -181116.02, 0.08, 0.49, 0.91
78, -77567.19, -44603.91, -180286.23, -6799.78, -181323.84, 8920.16, 9518.45, -181371.86, 0.08, 0.49, 0.91
79, -77435.76, -44309.25, -180072.22, -7130.92, -181313.28, 9053.73, 8846.06, -181236.91, 0.08, 0.49, 0.91
80, -77063.56, -43644.33, -179774.45, -7829.95, -180898.31, 9418.80, 8343.41, -181023.80, 0.08, 0.49, 0.91
81, -77178.58, -44136.51, -179969.56, -7523.37, -180970.02, 9306.84, 8638.93, -181100.17, 0.08, 0.49, 0.91
82, -77581.20, -45254.05, -180304.72, -6757.69, -181330.05, 8914.14, 8773.80, -181378.50, 0.08, 0.49, 0.91
83, -77552.93, -45229.27, -180152.47, -6916.95, -181258.88, 8942.24, 8185.19, -181321.80, 0.08, 0.49, 0.91
84, -77163.29, -44518.08, -179812.56, -7689.96, -180825.11, 9321.88, 7573.24, -181061.27, 0.08, 0.49, 0.91
85, -77167.54, -44772.02, -179906.48, -7601.69, -180787.55, 9315.67, 7781.22, -181083.41, 0.08, 0.49, 0.91
