%OpenBCI Raw EEG Data
%
%Sample Rate = 250.0 Hz
%First Column = SampleIndex
%Other Columns = EEG data in microvolts followed by Accel Data (in G) interleaved with Aux Data
0, 0.00, 32337.38, 0.00, 0.00, 0.00, 0.00, 0.00, 0.00, 0.01, 0.01, 0.51
1, 0.00, 32347.29, 0.00, 0.00, 0.00, 0.00, 0.00, 0.00, 0.01, 0.01, 0.51
2, 0.00, 32374.18, 0.00, 0.00, 0.00, 0.00, 0.00, 0.00, 0.00, 0.02, 1.01
3, 0.00, 32384.26, 0.00, 0.00, 0.00, 0.00, 0.00, 0.00, 0.00, 0.02, 1.01
4, 0.00, 32382.16, 0.00, 0.00, 0.00, 0.00, 0.00, 0.00, 0.00, 0.02, 1.01
5, 0.00, 32388.21, 0.00, 0.00, 0.00, 0.00, 0.00, 0.00, 0.00, 0.02, 1.01
6, 0.00, 32406.18, 0.00, 0.00, 0.00, 0.00, 0.00, 0.00, 0.00, 0.02, 1.01
7, 0.00, 32425.41, 0.00, 0.00, 0.00, 0.00, 0.00, 0.00, 0.00, 0.01, 1.01
8, 0.00, 32415.59, 0.00, 0.00, 0.00, 0.00, 0.00, 0.00, 0.00, 0.01, 1.01
9, 0.00, 32419.39, 0.00, 0.00, 0.00, 0.00, 0.00, 0.00, 0.00, 0.01, 1.01
10, 0.00, 32449.12, 0.00, 0.00, 0.00, 0.00, 0.00, 0.00, 0.00, 0.01, 1.01
11, 0.00, 32468.72, 0.00, 0.00, 0.00, 0.00, 0.00, 0.00, 0.00, 0.01, 1.01
12, 0.00, 32471.74, 0.00, 0.00, 0.00, 0.00, 0.00, 0.00, 0.00, 0.01, 1.01
13, 0.00, 32474.45, 0.00, 0.00, 0.00, 0.00, 0.00, 0.00, 0.00, 0.01, 1.01
14, 0.00, 32480.75, 0.00, 0.00, 0.00, 0.00, 0.00, 0.00, 0.00, 0.01, 1.01
15, 0.00, 32509.94, 0.00, 0.00, 0.00, 0.00, 0.00, 0.00, 0.00, 0.01, 1.01
16, 0.00, 32522.30, 0.00, 0.00, 0.00, 0.00, 0.00, 0.00, 0.00, 0.01, 1.01
17, 0.00, 32516.33, 0.00, 0.00, 0.00, 0.00, 0.00, 0.00, 0.01, 0.01, 1.02
18, 0.00, 32529.79, 0.00, 0.00, 0.00, 0.00, 0.00, 0.00, 0.01, 0.01, 1.02
19, 0.00, 32553.88, 0.00, 0.00, 0.00, 0.00, 0.00, 0.00, 0.01, 0.01, 1.02
20, 0.00, 32555.94, 0.00, 0.00, 0.00, 0.00, 0.00, 0.00, 0.01, 0.01, 1.02
21, 0.00, 32552.88, 0.00, 0.00, 0.00, 0.00, 0.00, 0.00, 0.01, 0.01, 1.02
22, 0.00, 32559.43, 0.00, 0.00, 0.00, 0.00, 0.00, 0.00, 0.01, 0.01, 1.02
23, 0.00, 32588.37, 0.00, 0.00, 0.00, 0.00, 0.00, 0.00, 0.01, 0.01, 1.02
24, 0.00, 32599.33, 0.00, 0.00, 0.00, 0.00, 0.00, 0.00, 0.01, 0.01, 1.02
25, 0.00, 32591.10, 0.00, 0.00, 0.00, 0.00, 0.00, 0.00, 0.01, 0.01, 1.02
26, 0.00, 32598.50, 0.00, 0.00, 0.00, 0.00, 0.00, 0.00, 0.01, 0.01, 1.02
27, 0.00, 32633.08, 0.00, 0.00, 0.00, 0.00, 0.00, 0.00, 0.01, 0.01, 1.02
28, 0.00, 32643.22, 0.00, 0.00, 0.00, 0.00, 0.00, 0.00, 0.01, 0.01, 1.02
29, 0.00, 32639.47, 0.00, 0.00, 0.00, 0.00, 0.00, 0.00, 0.01, 0.01, 1.02
30, 0.00, 32644.23, 0.00, 0.00, 0.00, 0.00, 0.00, 0.00, 0.01, 0.01, 1.02
31, 0.00, 32662.36, 0.00, 0.00, 0.00, 0.00, 0.00, 0.00, 0.01, 0.01, 1.02
32, 0.00, 32679.32, 0.00, 0.00, 0.00, 0.00, 0.00, 0.00, 0.02, 0.01, 1.02
33, 0.00, 32674.52, 0.00, 0.00, 0.00, 0.00, 0.00, 0.00, 0.02, 0.01, 1.02
34, 0.00, 32672.68, 0.00, 0.00, 0.00, 0.00, 0.00, 0.00, 0.02, 0.01, 1.02
35, 0.00, 32698.41, 0.00, 0.00, 0.00, 0.00, 0.00, 0.00, 0.02, 0.01, 1.02
36, 0.00, 32722.64, 0.00, 0.00, 0.00, 0.00, 0.00, 0.00, 0.02, 0.01, 1.02
37, 0.00, 32719.11, 0.00, 0.00, 0.00, 0.00, 0.00, 0.00, 0.02, 0.01, 1.01
38, 0.00, 32716.43, 0.00, 0.00, 0.00, 0.00, 0.00, 0.00, 0.02, 0.01, 1.01
39, 0.00, 32735.60, 0.00, 0.00, 0.00, 0.00, 0.00, 0.00, 0.02, 0.01, 1.01
40, 0.00, 32758.22, 0.00, 0.00, 0.00, 0.00, 0.00, 0.00, 0.02, 0.01, 1.01
41, 0.00, 32758.96, 0.00, 0.00, 0.00, 0.00, 0.00, 0.00, 0.02, 0.01, 1.01
42, 0.00, 32753.31, 0.00, 0.00, 0.00, 0.00, 0.00, 0.00, 0.02, 0.01, 1.02
43, 0.00, 32767.28, 0.00, 0.00, 0.00, 0.00, 0.00, 0.00, 0.02, 0.01, 1.02
44, 0.00, 32796.13, 0.00, 0.00, 0.00, 0.00, 0.00, 0.00, 0.02, 0.01, 1.02
45, 0.00, 32810.10, 0.00, 0.00, 0.00, 0.00, 0.00, 0.00, 0.02, 0.01, 1.02
46, 0.00, 32801.41, 0.00, 0.00, 0.00, 0.00, 0.00, 0.00, 0.02, 0.01, 1.02
47, 0.00, 32813.41, 0.00, 0.00, 0.00, 0.00, 0.00, 0.00, 0.01, 0.01, 1.02
48, 0.00, 32841.98, 0.00, 0.00, 0.00, 0.00, 0.00, 0.00, 0.01, 0.01, 1.02
49, 0.00, 32840.03, 0.00, 0.00, 0.00, 0.00, 0.00, 0.00, 0.01, 0.01, 1.02
50, 0.00, 32836.23, 0.00, 0.00, 0.00, 0.00, 0.00, 0.00, 0.01, 0.01, 1.02
51, 0.00, 32846.31, 0.00, 0.00, 0.00, 0.00, 0.00, 0.00, 0.01, 0.01, 1.02
52, 0.00, 32868.80, 0.00, 0.00, 0.00, 0.00, 0.00, 0.00, 0.01, 0.01, 1.02
53, 0.00, 32875.68, 0.00, 0.00, 0.00, 0.00, 0.00, 0.00, 0.01, 0.01, 1.02
54, 0.00, 32870.45, 0.00, 0.00, 0.00, 0.00, 0.00, 0.00, 0.01, 0.01, 1.02
55, 0.00, 32877.16, 0.00, 0.00, 0.00, 0.00, 0.00, 0.00, 0.01, 0.01, 1.02
56, 0.00, 32902.01, 0.00, 0.00, 0.00, 0.00, 0.00, 0.00, 0.01, 0.01, 1.02
57, 0.00, 32913.64, 0.00, 0.00, 0.00, 0.00, 0.00, 0.00, 0.01, 0.01, 1.02
58, 0.00, 32922.98, 0.00, 0.00, 0.00, 0.00, 0.00, 0.00, 0.01, 0.01, 1.02
59, 0.00, 32930.02, 0.00, 0.00, 0.00, 0.00, 0.00, 0.00, 0.01, 0.01, 1.02
60, 0.00, 32954.94, 0.00, 0.00, 0.00, 0.00, 0.00, 0.00, 0.01, 0.01, 1.02
61, 0.00, 32976.36, 0.00, 0.00, 0.00, 0.00, 0.00, 0.00, 0.01, 0.01, 1.02
62, 0.00, 32976.38, 0.00, 0.00, 0.00, 0.00, 0.00, 0.00, 0.01, 0.01, 1.02
63, 0.00, 32970.92, 0.00, 0.00, 0.00, 0.00, 0.00, 0.00, 0.01, 0.01, 1.02
64, 0.00, 32986.68, 0.00, 0.00, 0.00, 0.00, 0.00, 0.00, 0.01, 0.01, 1.02
65, 0.00, 33009.12, 0.00, 0.00, 0.00, 0.00, 0.00, 0.00, 0.01, 0.01, 1.02
66, 0.00, 33008.74, 0.00, 0.00, 0.00, 0.00, 0.00, 0.00, 0.01, 0.01, 1.02
67, 0.00, 33004.50, 0.00, 0.00, 0.00, 0.00, 0.00, 0.00, 0.01, 0.01, 1.01
68, 0.00, 33020.79, 0.00, 0.00, 0.00, 0.00, 0.00, 0.00, 0.01, 0.01, 1.01
69, 0.00, 33043.75, 0.00, 0.00, 0.00, 0.00, 0.00, 0.00, 0.01, 0.01, 1.01
70, 0.00, 33053.73, 0.00, 0.00, 0.00, 0.00, 0.00, 0.00, 0.01, 0.01, 1.01
71, 0.00, 33045.51, 0.00, 0.00, 0.00, 0.00, 0.00, 0.00, 0.01, 0.01, 1.01
72, 0.00, 33080.87, 0.00, 0.00, 0.00, 0.00, 0.00, 0.00, 0.01, 0.01, 1.02
73, 0.00, 33143.55, 0.00, 0.00, 0.00, 0.00, 0.00, 0.00, 0.01, 0.01, 1.02
74, 0.00, 33111.76, 0.00, 0.00, 0.00, 0.00, 0.00, 0.00, 0.01, 0.01, 1.02
75, 0.00, 33074.25, 0.00, 0.00, 0.00, 0.00, 0.00, 0.00, 0.01, 0.01, 1.02
76, 0.00, 33100.54, 0.00, 0.00, 0.00, 0.00, 0.00, 0.00, 0.01, 0.01, 1.02
77, 0.00, 33143.77, 0.00, 0.00, 0.00, 0.00, 0.00, 0.00, 0.01, 0.01, 1.01
78, 0.00, 33160.58, 0.00, 0.00, 0.00, 0.00, 0.00, 0.00, 0.01, 0.01, 1.01
79, 0.00, 33171.57, 0.00, 0.00, 0.00, 0.00, 0.00, 0.00, 0.01, 0.01, 1.01
80, 0.00, 33182.08, 0.00, 0.00, 0.00, 0.00, 0.00, 0.00, 0.01, 0.01, 1.01
81, 0.00, 33219.47, 0.00, 0.00, 0.00, 0.00, 0.00, 0.00, 0.01, 0.01, 1.01
82, 0.00, 33242.92, 0.00, 0.00, 0.00, 0.00, 0.00, 0.00, 0.01, 0.01, 1.02
83, 0.00, 33258.14, 0.00, 0.00, 0.00, 0.00, 0.00, 0.00, 0.01, 0.01, 1.02
84, 0.00, 33258.93, 0.00, 0.00, 0.00, 0.00, 0.00, 0.00, 0.01, 0.01, 1.02
85, 0.00, 33287.58, 0.00, 0.00, 0.00, 0.00, 0.00, 0.00, 0.01, 0.01, 1.02
86, 0.00, 33315.88, 0.00, 0.00, 0.00, 0.00, 0.00, 0.00, 0.01, 0.01, 1.02
87, 0.00, 33320.91, 0.00, 0.00, 0.00, 0.00, 0.00, 0.00, 0.01, 0.01, 1.02
88, 0.00, 33332.89, 0.00, 0.00, 0.00, 0.00, 0.00, 0.00, 0.01, 0.01, 1.02
89, 0.00, 33352.13, 0.00, 0.00, 0.00, 0.00, 0.00, 0.00, 0.01, 0.01, 1.02
90, 0.00, 33366.86, 0.00, 0.00, 0.00, 0.00, 0.00, 0.00, 0.01, 0.01, 1.02
91, 0.00, 33374.33, 0.00, 0.00, 0.00, 0.00, 0.00, 0.00, 0.01, 0.01, 1.02
92, 0.00, 33371.62, 0.00, 0.00, 0.00, 0.00, 0.00, 0.00, 0.01, 0.01, 1.02
93, 0.00, 33385.91, 0.00, 0.00, 0.00, 0.00, 0.00, 0.00, 0.01, 0.01, 1.02
94, 0.00, 33410.45, 0.00, 0.00, 0.00, 0.00, 0.00, 0.00, 0.01, 0.01, 1.02
95, 0.00, 33414.98, 0.00, 0.00, 0.00, 0.00, 0.00, 0.00, 0.01, 0.01, 1.02
96, 0.00, 33405.31, 0.00, 0.00, 0.00, 0.00, 0.00, 0.00, 0.01, 0.01, 1.02
97, 0.00, 33413.09, 0.00, 0.00, 0.00, 0.00, 0.00, 0.00, 0.01, 0.01, 1.02
98, 0.00, 33438.61, 0.00, 0.00, 0.00, 0.00, 0.00, 0.00, 0.01, 0.01, 1.02
99, 0.00, 33455.06, 0.00, 0.00, 0.00, 0.00, 0.00, 0.00, 0.01, 0.01, 1.02
100, 0.00, 33449.70, 0.00, 0.00, 0.00, 0.00, 0.00, 0.00, 0.01, 0.01, 1.02
101, 0.00, 33449.86, 0.00, 0.00, 0.00, 0.00, 0.00, 0.00, 0.01, 0.01, 1.02
102, 0.00, 33471.40, 0.00, 0.00, 0.00, 0.00, 0.00, 0.00, 0.01, 0.01, 1.02
103, 0.00, 33490.82, 0.00, 0.00, 0.00, 0.00, 0.00, 0.00, 0.01, 0.01, 1.02
104, 0.00, 33480.92, 0.00, 0.00, 0.00, 0.00, 0.00, 0.00, 0.01, 0.01, 1.02
105, 0.00, 33479.00, 0.00, 0.00, 0.00, 0.00, 0.00, 0.00, 0.01, 0.01, 1.02
106, 0.00, 33504.06, 0.00, 0.00, 0.00, 0.00, 0.00, 0.00, 0.01, 0.01, 1.02
107, 0.00, 33513.89, 0.00, 0.00, 0.00, 0.00, 0.00, 0.00, 0.01, 0.01, 1.02
108, 0.00, 33513.55, 0.00, 0.00, 0.00, 0.00, 0.00, 0.00, 0.01, 0.01, 1.02
109, 0.00, 33522.25, 0.00, 0.00, 0.00, 0.00, 0.00, 0.00, 0.01, 0.01, 1.02
110, 0.00, 33527.84, 0.00, 0.00, 0.00, 0.00, 0.00, 0.00, 0.01, 0.01, 1.02
111, 0.00, 33545.90, 0.00, 0.00, 0.00, 0.00, 0.00, 0.00, 0.01, 0.01, 1.02
112, 0.00, 33554.46, 0.00, 0.00, 0.00, 0.00, 0.00, 0.00, 0.01, 0.01, 1.02
113, 0.00, 33551.33, 0.00, 0.00, 0.00, 0.00, 0.00, 0.00, 0.01, 0.01, 1.02
114, 0.00, 33564.03, 0.00, 0.00, 0.00, 0.00, 0.00, 0.00, 0.01, 0.01, 1.02
115, 0.00, 33591.05, 0.00, 0.00, 0.00, 0.00, 0.00, 0.00, 0.01, 0.01, 1.02
116, 0.00, 33594.18, 0.00, 0.00, 0.00, 0.00, 0.00, 0.00, 0.01, 0.01, 1.02
117, 0.00, 33589.91, 0.00, 0.00, 0.00, 0.00, 0.00, 0.00, 0.01, 0.00, 1.02
118, 0.00, 33602.63, 0.00, 0.00, 0.00, 0.00, 0.00, 0.00, 0.01, 0.00, 1.02
119, 0.00, 33624.84, 0.00, 0.00, 0.00, 0.00, 0.00, 0.00, 0.01, 0.00, 1.02
120, 0.00, 33634.88, 0.00, 0.00, 0.00, 0.00, 0.00, 0.00, 0.01, 0.00, 1.02
121, 0.00, 33625.70, 0.00, 0.00, 0.00, 0.00, 0.00, 0.00, 0.01, 0.00, 1.02
122, 0.00, 33630.84, 0.00, 0.00, 0.00, 0.00, 0.00, 0.00, 0.01, 0.01, 1.02
123, 0.00, 33658.21, 0.00, 0.00, 0.00, 0.00, 0.00, 0.00, 0.01, 0.01, 1.02
124, 0.00, 33666.58, 0.00, 0.00, 0.00, 0.00, 0.00, 0.00, 0.01, 0.01, 1.02
125, 0.00, 33662.93, 0.00, 0.00, 0.00, 0.00, 0.00, 0.00, 0.01, 0.01, 1.02
126, 0.00, 33671.88, 0.00, 0.00, 0.00, 0.00, 0.00, 0.00, 0.01, 0.01, 1.02
127, 0.00, 33696.13, 0.00, 0.00, 0.00, 0.00, 0.00, 0.00, 0.00, 0.01, 1.02
128, 0.00, 33709.96, 0.00, 0.00, 0.00, 0.00, 0.00, 0.00, 0.00, 0.01, 1.02
129, 0.00, 33706.83, 0.00, 0.00, 0.00, 0.00, 0.00, 0.00, 0.00, 0.01, 1.02
130, 0.00, 33707.12, 0.00, 0.00, 0.00, 0.00, 0.00, 0.00, 0.00, 0.01, 1.02
131, 0.00, 33723.55, 0.00, 0.00, 0.00, 0.00, 0.00, 0.00, 0.00, 0.01, 1.02
132, 0.00, 33746.35, 0.00, 0.00, 0.00, 0.00, 0.00, 0.00, 0.01, 0.01, 1.02
133, 0.00, 33744.52, 0.00, 0.00, 0.00, 0.00, 0.00, 0.00, 0.01, 0.01, 1.02
134, 0.00, 33739.31, 0.00, 0.00, 0.00, 0.00, 0.00, 0.00, 0.01, 0.01, 1.02
135, 0.00, 33756.18, 0.00, 0.00, 0.00, 0.00, 0.00, 0.00, 0.01, 0.01, 1.02
136, 0.00, 33779.54, 0.00, 0.00, 0.00, 0.00, 0.00, 0.00, 0.01, 0.01, 1.02
137, 0.00, 33770.71, 0.00, 0.00, 0.00, 0.00, 0.00, 0.00, 0.01, 0.01, 1.03
138, 0.00, 33767.98, 0.00, 0.00, 0.00, 0.00, 0.00, 0.00, 0.01, 0.01, 1.03
139, 0.00, 33779.70, 0.00, 0.00, 0.00, 0.00, 0.00, 0.00, 0.01, 0.01, 1.03
140, 0.00, 33810.68, 0.00, 0.00, 0.00, 0.00, 0.00, 0.00, 0.01, 0.01, 1.03
141, 0.00, 33816.80, 0.00, 0.00, 0.00, 0.00, 0.00, 0.00, 0.01, 0.01, 1.03
142, 0.00, 33805.05, 0.00, 0.00, 0.00, 0.00, 0.00, 0.00, 0.01, 0.01, 1.02
143, 0.00, 33811.35, 0.00, 0.00, 0.00, 0.00, 0.00, 0.00, 0.01, 0.01, 1.02
144, 0.00, 33838.39, 0.00, 0.00, 0.00, 0.00, 0.00, 0.00, 0.01, 0.01, 1.02
145, 0.00, 33849.17, 0.00, 0.00, 0.00, 0.00, 0.00, 0.00, 0.01, 0.01, 1.02
146, 0.00, 33847.69, 0.00, 0.00, 0.00, 0.00, 0.00, 0.00, 0.01, 0.01, 1.02
147, 0.00, 33850.69, 0.00, 0.00, 0.00, 0.00, 0.00, 0.00, 0.01, 0.01, 1.01
148, 0.00, 33873.35, 0.00, 0.00, 0.00, 0.00, 0.00, 0.00, 0.01, 0.01, 1.01
149, 0.00, 33890.56, 0.00, 0.00, 0.00, 0.00, 0.00, 0.00, 0.01, 0.01, 1.01
150, 0.00, 33877.20, 0.00, 0.00, 0.00, 0.00, 0.00, 0.00, 0.01, 0.01, 1.01
151, 0.00, 33881.62, 0.00, 0.00, 0.00, 0.00, 0.00, 0.00, 0.01, 0.01, 1.01
152, 0.00, 33906.16, 0.00, 0.00, 0.00, 0.00, 0.00, 0.00, 0.01, 0.01, 1.02
153, 0.00, 33923.78, 0.00, 0.00, 0.00, 0.00, 0.00, 0.00, 0.01, 0.01, 1.02
154, 0.00, 33920.07, 0.00, 0.00, 0.00, 0.00, 0.00, 0.00, 0.01, 0.01, 1.02
155, 0.00, 33913.81, 0.00, 0.00, 0.00, 0.00, 0.00, 0.00, 0.01, 0.01, 1.02
156, 0.00, 33939.45, 0.00, 0.00, 0.00, 0.00, 0.00, 0.00, 0.01, 0.01, 1.02
157, 0.00, 33963.27, 0.00, 0.00, 0.00, 0.00, 0.00, 0.00, 0.01, 0.00, 1.02
158, 0.00, 33953.95, 0.00, 0.00, 0.00, 0.00, 0.00, 0.00, 0.01, 0.00, 1.02
159, 0.00, 33952.66, 0.00, 0.00, 0.00, 0.00, 0.00, 0.00, 0.01, 0.00, 1.02
160, 0.00, 33981.45, 0.00, 0.00, 0.00, 0.00, 0.00, 0.00, 0.01, 0.00, 1.02
161, 0.00, 34004.91, 0.00, 0.00, 0.00, 0.00, 0.00, 0.00, 0.01, 0.00, 1.02
162, 0.00, 33986.70, 0.00, 0.00, 0.00, 0.00, 0.00, 0.00, 0.01, 0.00, 1.02
163, 0.00, 33957.80, 0.00, 0.00, 0.00, 0.00, 0.00, 0.00, 0.01, 0.00, 1.02
164, 0.00, 33974.63, 0.00, 0.00, 0.00, 0.00, 0.00, 0.00, 0.01, 0.00, 1.02
165, 0.00, 34003.62, 0.00, 0.00, 0.00, 0.00, 0.00, 0.00, 0.01, 0.00, 1.02
166, 0.00, 34007.30, 0.00, 0.00, 0.00, 0.00, 0.00, 0.00, 0.01, 0.00, 1.02
167, 0.00, 34007.39, 0.00, 0.00, 0.00, 0.00, 0.00, 0.00, 0.01, 0.01, 1.02
168, 0.00, 34014.66, 0.00, 0.00, 0.00, 0.00, 0.00, 0.00, 0.01, 0.01, 1.02
169, 0.00, 34042.55, 0.00, 0.00, 0.00, 0.00, 0.00, 0.00, 0.01, 0.01, 1.02
170, 0.00, 34057.40, 0.00, 0.00, 0.00, 0.00, 0.00, 0.00, 0.01, 0.01, 1.02
171, 0.00, 34050.11, 0.00, 0.00, 0.00, 0.00, 0.00, 0.00, 0.01, 0.01, 1.02
172, 0.00, 34050.40, 0.00, 0.00, 0.00, 0.00, 0.00, 0.00, 0.01, 0.01, 1.02
173, 0.00, 34077.09, 0.00, 0.00, 0.00, 0.00, 0.00, 0.00, 0.01, 0.01, 1.02
174, 0.00, 34086.36, 0.00, 0.00, 0.00, 0.00, 0.00, 0.00, 0.01, 0.01, 1.02
175, 0.00, 34085.43, 0.00, 0.00, 0.00, 0.00, 0.00, 0.00, 0.01, 0.01, 1.02
176, 0.00, 34090.12, 0.00, 0.00, 0.00, 0.00, 0.00, 0.00, 0.01, 0.01, 1.02
177, 0.00, 34108.85, 0.00, 0.00, 0.00, 0.00, 0.00, 0.00, 0.01, 0.01, 1.02
178, 0.00, 34130.02, 0.00, 0.00, 0.00, 0.00, 0.00, 0.00, 0.01, 0.01, 1.02
179, 0.00, 34124.59, 0.00, 0.00, 0.00, 0.00, 0.00, 0.00, 0.01, 0.01, 1.02
180, 0.00, 34113.52, 0.00, 0.00, 0.00, 0.00, 0.00, 0.00, 0.01, 0.01, 1.02
181, 0.00, 34139.54, 0.00, 0.00, 0.00, 0.00, 0.00, 0.00, 0.01, 0.01, 1.02
182, 0.00, 34154.61, 0.00, 0.00, 0.00, 0.00, 0.00, 0.00, 0.00, 0.01, 1.02
183, 0.00, 34155.97, 0.00, 0.00, 0.00, 0.00, 0.00, 0.00, 0.00, 0.01, 1.02
184, 0.00, 34150.76, 0.00, 0.00, 0.00, 0.00, 0.00, 0.00, 0.00, 0.01, 1.02
185, 0.00, 34164.51, 0.00, 0.00, 0.00, 0.00, 0.00, 0.00, 0.00, 0.01, 1.02
186, 0.00, 34182.50, 0.00, 0.00, 0.00, 0.00, 0.00, 0.00, 0.00, 0.01, 1.02
187, 0.00, 34188.58, 0.00, 0.00, 0.00, 0.00, 0.00, 0.00, 0.01, 0.01, 1.01
188, 0.00, 34185.45, 0.00, 0.00, 0.00, 0.00, 0.00, 0.00, 0.01, 0.01, 1.01
189, 0.00, 34195.46, 0.00, 0.00, 0.00, 0.00, 0.00, 0.00, 0.01, 0.01, 1.01
190, 0.00, 34215.11, 0.00, 0.00, 0.00, 0.00, 0.00, 0.00, 0.01, 0.01, 1.01
191, 0.00, 34215.94, 0.00, 0.00, 0.00, 0.00, 0.00, 0.00, 0.01, 0.01, 1.01
192, 0.00, 34211.33, 0.00, 0.00, 0.00, 0.00, 0.00, 0.00, 0.01, 0.01, 1.01
193, 0.00, 34217.52, 0.00, 0.00, 0.00, 0.00, 0.00, 0.00, 0.01, 0.01, 1.01
194, 0.00, 34247.79, 0.00, 0.00, 0.00, 0.00, 0.00, 0.00, 0.01, 0.01, 1.01
195, 0.00, 34260.15, 0.00, 0.00, 0.00, 0.00, 0.00, 0.00, 0.01, 0.01, 1.01
196, 0.00, 34250.00, 0.00, 0.00, 0.00, 0.00, 0.00, 0.00, 0.01, 0.01, 1.01
197, 0.00, 34246.63, 0.00, 0.00, 0.00, 0.00, 0.00, 0.00, 0.01, 0.01, 1.01
198, 0.00, 34272.60, 0.00, 0.00, 0.00, 0.00, 0.00, 0.00, 0.01, 0.01, 1.01
199, 0.00, 34284.51, 0.00, 0.00, 0.00, 0.00, 0.00, 0.00, 0.01, 0.01, 1.01
200, 0.00, 34273.25, 0.00, 0.00, 0.00, 0.00, 0.00, 0.00, 0.01, 0.01, 1.01
201, 0.00, 34269.45, 0.00, 0.00, 0.00, 0.00, 0.00, 0.00, 0.01, 0.01, 1.01
202, 0.00, 34293.25, 0.00, 0.00, 0.00, 0.00, 0.00, 0.00, 0.01, 0.01, 1.01
203, 0.00, 34319.16, 0.00, 0.00, 0.00, 0.00, 0.00, 0.00, 0.01, 0.01, 1.01
204, 0.00, 34308.09, 0.00, 0.00, 0.00, 0.00, 0.00, 0.00, 0.01, 0.01, 1.01
205, 0.00, 34297.63, 0.00, 0.00, 0.00, 0.00, 0.00, 0.00, 0.01, 0.01, 1.01
206, 0.00, 34322.11, 0.00, 0.00, 0.00, 0.00, 0.00, 0.00, 0.01, 0.01, 1.01
207, 0.00, 34346.49, 0.00, 0.00, 0.00, 0.00, 0.00, 0.00, 0.01, 0.01, 1.01
208, 0.00, 34333.82, 0.00, 0.00, 0.00, 0.00, 0.00, 0.00, 0.00, 0.01, 1.02
209, 0.00, 34332.90, 0.00, 0.00, 0.00, 0.00, 0.00, 0.00, 0.00, 0.01, 1.02
210, 0.00, 34354.21, 0.00, 0.00, 0.00, 0.00, 0.00, 0.00, 0.00, 0.01, 1.02
211, 0.00, 34373.50, 0.00, 0.00, 0.00, 0.00, 0.00, 0.00, 0.00, 0.01, 1.02
212, 0.00, 34367.93, 0.00, 0.00, 0.00, 0.00, 0.00, 0.00, 0.00, 0.01, 1.02
213, 0.00, 34360.53, 0.00, 0.00, 0.00, 0.00, 0.00, 0.00, 0.00, 0.01, 1.02
214, 0.00, 34376.91, 0.00, 0.00, 0.00, 0.00, 0.00, 0.00, 0.00, 0.01, 1.02
215, 0.00, 34395.91, 0.00, 0.00, 0.00, 0.00, 0.00, 0.00, 0.00, 0.01, 1.02
216, 0.00, 34398.08, 0.00, 0.00, 0.00, 0.00, 0.00, 0.00, 0.00, 0.01, 1.02
217, 0.00, 34395.27, 0.00, 0.00, 0.00, 0.00, 0.00, 0.00, 0.00, 0.01, 1.02
218, 0.00, 34405.32, 0.00, 0.00, 0.00, 0.00, 0.00, 0.00, 0.01, 0.01, 1.02
219, 0.00, 34428.95, 0.00, 0.00, 0.00, 0.00, 0.00, 0.00, 0.01, 0.01, 1.02
220, 0.00, 34439.86, 0.00, 0.00, 0.00, 0.00, 0.00, 0.00, 0.01, 0.01, 1.02
221, 0.00, 34435.86, 0.00, 0.00, 0.00, 0.00, 0.00, 0.00, 0.01, 0.01, 1.02
222, 0.00, 34440.46, 0.00, 0.00, 0.00, 0.00, 0.00, 0.00, 0.01, 0.01, 1.02
223, 0.00, 34468.76, 0.00, 0.00, 0.00, 0.00, 0.00, 0.00, 0.01, 0.01, 1.01
224, 0.00, 34475.84, 0.00, 0.00, 0.00, 0.00, 0.00, 0.00, 0.01, 0.01, 1.01
225, 0.00, 34474.73, 0.00, 0.00, 0.00, 0.00, 0.00, 0.00, 0.01, 0.01, 1.01
226, 0.00, 34478.32, 0.00, 0.00, 0.00, 0.00, 0.00, 0.00, 0.01, 0.01, 1.01
227, 0.00, 34498.11, 0.00, 0.00, 0.00, 0.00, 0.00, 0.00, 0.01, 0.01, 1.01
228, 0.00, 34510.55, 0.00, 0.00, 0.00, 0.00, 0.00, 0.00, 0.00, 0.01, 1.01
229, 0.00, 34502.66, 0.00, 0.00, 0.00, 0.00, 0.00, 0.00, 0.00, 0.01, 1.01
230, 0.00, 34502.38, 0.00, 0.00, 0.00, 0.00, 0.00, 0.00, 0.00, 0.01, 1.01
231, 0.00, 34521.78, 0.00, 0.00, 0.00, 0.00, 0.00, 0.00, 0.00, 0.01, 1.01
232, 0.00, 34538.16, 0.00, 0.00, 0.00, 0.00, 0.00, 0.00, 0.00, 0.01, 1.01
233, 0.00, 34533.13, 0.00, 0.00, 0.00, 0.00, 0.00, 0.00, 0.01, 0.01, 1.01
234, 0.00, 34522.22, 0.00, 0.00, 0.00, 0.00, 0.00, 0.00, 0.01, 0.01, 1.01
235, 0.00, 34532.91, 0.00, 0.00, 0.00, 0.00, 0.00, 0.00, 0.01, 0.01, 1.01
236, 0.00, 34557.83, 0.00, 0.00, 0.00, 0.00, 0.00, 0.00, 0.01, 0.01, 1.01
237, 0.00, 34564.20, 0.00, 0.00, 0.00, 0.00, 0.00, 0.00, 0.01, 0.01, 1.01
238, 0.00, 34551.48, 0.00, 0.00, 0.00, 0.00, 0.00, 0.00, 0.00, 0.01, 1.03
239, 0.00, 34559.44, 0.00, 0.00, 0.00, 0.00, 0.00, 0.00, 0.00, 0.01, 1.03
240, 0.00, 34578.13, 0.00, 0.00, 0.00, 0.00, 0.00, 0.00, 0.00, 0.01, 1.03
241, 0.00, 34582.71, 0.00, 0.00, 0.00, 0.00, 0.00, 0.00, 0.00, 0.01, 1.03
242, 0.00, 34578.89, 0.00, 0.00, 0.00, 0.00, 0.00, 0.00, 0.00, 0.01, 1.03
243, 0.00, 34588.56, 0.00, 0.00, 0.00, 0.00, 0.00, 0.00, 0.01, 0.01, 1.02
244, 0.00, 34609.26, 0.00, 0.00, 0.00, 0.00, 0.00, 0.00, 0.01, 0.01, 1.02
245, 0.00, 34620.08, 0.00, 0.00, 0.00, 0.00, 0.00, 0.00, 0.01, 0.01, 1.02
246, 0.00, 34606.42, 0.00, 0.00, 0.00, 0.00, 0.00, 0.00, 0.01, 0.01, 1.02
247, 0.00, 34613.24, 0.00, 0.00, 0.00, 0.00, 0.00, 0.00, 0.01, 0.01, 1.02
248, 0.00, 34641.52, 0.00, 0.00, 0.00, 0.00, 0.00, 0.00, 0.00, 0.01, 1.02
249, 0.00, 34653.09, 0.00, 0.00, 0.00, 0.00, 0.00, 0.00, 0.00, 0.01, 1.02
250, 0.00, 34641.45, 0.00, 0.00, 0.00, 0.00, 0.00, 0.00, 0.00, 0.01, 1.02
251, 0.00, 34636.71, 0.00, 0.00, 0.00, 0.00, 0.00, 0.00, 0.00, 0.01, 1.02
252, 0.00, 34657.90, 0.00, 0.00, 0.00, 0.00, 0.00, 0.00, 0.00, 0.01, 1.02
253, 0.00, 34677.84, 0.00, 0.00, 0.00, 0.00, 0.00, 0.00, 0.01, 0.01, 1.02
254, 0.00, 34671.24, 0.00, 0.00, 0.00, 0.00, 0.00, 0.00, 0.01, 0.01, 1.02
255, 0.00, 34659.30, 0.00, 0.00, 0.00, 0.00, 0.00, 0.00, 0.01, 0.01, 1.02
0, 0.00, 34678.04, 0.00, 0.00, 0.00, 0.00, 0.00, 0.00, 0.01, 0.01, 1.02
1, 0.00, 34707.32, 0.00, 0.00, 0.00, 0.00, 0.00, 0.00, 0.01, 0.01, 1.02
2, 0.00, 34705.73, 0.00, 0.00, 0.00, 0.00, 0.00, 0.00, 0.01, 0.01, 1.02
3, 0.00, 34693.19, 0.00, 0.00, 0.00, 0.00, 0.00, 0.00, 0.01, 0.01, 1.02
4, 0.00, 34715.34, 0.00, 0.00, 0.00, 0.00, 0.00, 0.00, 0.01, 0.01, 1.02
5, 0.00, 34733.54, 0.00, 0.00, 0.00, 0.00, 0.00, 0.00, 0.01, 0.01, 1.02
6, 0.00, 34738.21, 0.00, 0.00, 0.00, 0.00, 0.00, 0.00, 0.01, 0.01, 1.02
7, 0.00, 34734.81, 0.00, 0.00, 0.00, 0.00, 0.00, 0.00, 0.01, 0.01, 1.02
8, 0.00, 34736.46, 0.00, 0.00, 0.00, 0.00, 0.00, 0.00, 0.01, 0.01, 1.02
9, 0.00, 34760.98, 0.00, 0.00, 0.00, 0.00, 0.00, 0.00, 0.01, 0.01, 1.02
10, 0.00, 34769.84, 0.00, 0.00, 0.00, 0.00, 0.00, 0.00, 0.01, 0.01, 1.02
11, 0.00, 34756.40, 0.00, 0.00, 0.00, 0.00, 0.00, 0.00, 0.01, 0.01, 1.02
12, 0.00, 34758.53, 0.00, 0.00, 0.00, 0.00, 0.00, 0.00, 0.01, 0.02, 1.02
13, 0.00, 34789.02, 0.00, 0.00, 0.00, 0.00, 0.00, 0.00, 0.01, 0.02, 1.02
14, 0.00, 34804.19, 0.00, 0.00, 0.00, 0.00, 0.00, 0.00, 0.01, 0.02, 1.02
15, 0.00, 34791.90, 0.00, 0.00, 0.00, 0.00, 0.00, 0.00, 0.01, 0.02, 1.02
16, 0.00, 34791.18, 0.00, 0.00, 0.00, 0.00, 0.00, 0.00, 0.01, 0.02, 1.02
17, 0.00, 34814.00, 0.00, 0.00, 0.00, 0.00, 0.00, 0.00, 0.02, 0.02, 1.02
18, 0.00, 34830.01, 0.00, 0.00, 0.00, 0.00, 0.00, 0.00, 0.02, 0.02, 1.02
19, 0.00, 34823.91, 0.00, 0.00, 0.00, 0.00, 0.00, 0.00, 0.02, 0.02, 1.02
20, 0.00, 34827.84, 0.00, 0.00, 0.00, 0.00, 0.00, 0.00, 0.02, 0.02, 1.02
21, 0.00, 34846.79, 0.00, 0.00, 0.00, 0.00, 0.00, 0.00, 0.02, 0.02, 1.02
22, 0.00, 34859.18, 0.00, 0.00, 0.00, 0.00, 0.00, 0.00, 0.01, 0.01, 1.02
23, 0.00, 34864.32, 0.00, 0.00, 0.00, 0.00, 0.00, 0.00, 0.01, 0.01, 1.02
24, 0.00, 34855.11, 0.00, 0.00, 0.00, 0.00, 0.00, 0.00, 0.01, 0.01, 1.02
25, 0.00, 34865.17, 0.00, 0.00, 0.00, 0.00, 0.00, 0.00, 0.01, 0.01, 1.02
26, 0.00, 34884.81, 0.00, 0.00, 0.00, 0.00, 0.00, 0.00, 0.01, 0.01, 1.02
27, 0.00, 34883.23, 0.00, 0.00, 0.00, 0.00, 0.00, 0.00, 0.01, 0.01, 1.01
28, 0.00, 34876.63, 0.00, 0.00, 0.00, 0.00, 0.00, 0.00, 0.01, 0.01, 1.01
29, 0.00, 34884.01, 0.00, 0.00, 0.00, 0.00, 0.00, 0.00, 0.01, 0.01, 1.01
30, 0.00, 34912.35, 0.00, 0.00, 0.00, 0.00, 0.00, 0.00, 0.01, 0.01, 1.01
31, 0.00, 34921.89, 0.00, 0.00, 0.00, 0.00, 0.00, 0.00, 0.01, 0.01, 1.01
32, 0.00, 34912.11, 0.00, 0.00, 0.00, 0.00, 0.00, 0.00, 0.01, 0.01, 1.02
33, 0.00, 34911.32, 0.00, 0.00, 0.00, 0.00, 0.00, 0.00, 0.01, 0.01, 1.02
34, 0.00, 34925.70, 0.00, 0.00, 0.00, 0.00, 0.00, 0.00, 0.01, 0.01, 1.02
35, 0.00, 34929.05, 0.00, 0.00, 0.00, 0.00, 0.00, 0.00, 0.01, 0.01, 1.02
36, 0.00, 34922.90, 0.00, 0.00, 0.00, 0.00, 0.00, 0.00, 0.01, 0.01, 1.02
37, 0.00, 34936.89, 0.00, 0.00, 0.00, 0.00, 0.00, 0.00, 0.01, 0.01, 1.02
38, 0.00, 34967.52, 0.00, 0.00, 0.00, 0.00, 0.00, 0.00, 0.01, 0.01, 1.02
39, 0.00, 34974.45, 0.00, 0.00, 0.00, 0.00, 0.00, 0.00, 0.01, 0.01, 1.02
40, 0.00, 34967.31, 0.00, 0.00, 0.00, 0.00, 0.00, 0.00, 0.01, 0.01, 1.02
41, 0.00, 34965.53, 0.00, 0.00, 0.00, 0.00, 0.00, 0.00, 0.01, 0.01, 1.02
42, 0.00, 34994.98, 0.00, 0.00, 0.00, 0.00, 0.00, 0.00, 0.02, 0.01, 1.02
43, 0.00, 35007.64, 0.00, 0.00, 0.00, 0.00, 0.00, 0.00, 0.02, 0.01, 1.02
44, 0.00, 34994.25, 0.00, 0.00, 0.00, 0.00, 0.00, 0.00, 0.02, 0.01, 1.02
45, 0.00, 34990.58, 0.00, 0.00, 0.00, 0.00, 0.00, 0.00, 0.02, 0.01, 1.02
46, 0.00, 35003.75, 0.00, 0.00, 0.00, 0.00, 0.00, 0.00, 0.02, 0.01, 1.02
47, 0.00, 35018.72, 0.00, 0.00, 0.00, 0.00, 0.00, 0.00, 0.01, 0.01, 1.02
48, 0.00, 35015.28, 0.00, 0.00, 0.00, 0.00, 0.00, 0.00, 0.01, 0.01, 1.02
49, 0.00, 35013.78, 0.00, 0.00, 0.00, 0.00, 0.00, 0.00, 0.01, 0.01, 1.02
50, 0.00, 35038.14, 0.00, 0.00, 0.00, 0.00, 0.00, 0.00, 0.01, 0.01, 1.02
51, 0.00, 35061.01, 0.00, 0.00, 0.00, 0.00, 0.00, 0.00, 0.01, 0.01, 1.02
52, 0.00, 35064.92, 0.00, 0.00, 0.00, 0.00, 0.00, 0.00, 0.02, 0.01, 1.02
53, 0.00, 35064.03, 0.00, 0.00, 0.00, 0.00, 0.00, 0.00, 0.02, 0.01, 1.02
54, 0.00, 35073.98, 0.00, 0.00, 0.00, 0.00, 0.00, 0.00, 0.02, 0.01, 1.02
55, 0.00, 35096.30, 0.00, 0.00, 0.00, 0.00, 0.00, 0.00, 0.02, 0.01, 1.02
56, 0.00, 35101.11, 0.00, 0.00, 0.00, 0.00, 0.00, 0.00, 0.02, 0.01, 1.02
57, 0.00, 35090.07, 0.00, 0.00, 0.00, 0.00, 0.00, 0.00, 0.01, 0.02, 1.02
58, 0.00, 35099.14, 0.00, 0.00, 0.00, 0.00, 0.00, 0.00, 0.01, 0.02, 1.02
59, 0.00, 35118.48, 0.00, 0.00, 0.00, 0.00, 0.00, 0.00, 0.01, 0.02, 1.02
60, 0.00, 35124.20, 0.00, 0.00, 0.00, 0.00, 0.00, 0.00, 0.01, 0.02, 1.02
61, 0.00, 35120.71, 0.00, 0.00, 0.00, 0.00, 0.00, 0.00, 0.01, 0.02, 1.02
62, 0.00, 35127.11, 0.00, 0.00, 0.00, 0.00, 0.00, 0.00, 0.01, 0.01, 1.02
63, 0.00, 35152.18, 0.00, 0.00, 0.00, 0.00, 0.00, 0.00, 0.01, 0.01, 1.02
64, 0.00, 35162.55, 0.00, 0.00, 0.00, 0.00, 0.00, 0.00, 0.01, 0.01, 1.02
65, 0.00, 35160.45, 0.00, 0.00, 0.00, 0.00, 0.00, 0.00, 0.01, 0.01, 1.02
66, 0.00, 35152.92, 0.00, 0.00, 0.00, 0.00, 0.00, 0.00, 0.01, 0.01, 1.02
67, 0.00, 35171.34, 0.00, 0.00, 0.00, 0.00, 0.00, 0.00, 0.01, 0.02, 1.02
68, 0.00, 35186.07, 0.00, 0.00, 0.00, 0.00, 0.00, 0.00, 0.01, 0.02, 1.02
69, 0.00, 35175.30, 0.00, 0.00, 0.00, 0.00, 0.00, 0.00, 0.01, 0.02, 1.02
70, 0.00, 35169.80, 0.00, 0.00, 0.00, 0.00, 0.00, 0.00, 0.01, 0.02, 1.02
71, 0.00, 35183.97, 0.00, 0.00, 0.00, 0.00, 0.00, 0.00, 0.01, 0.02, 1.02
72, 0.00, 35199.37, 0.00, 0.00, 0.00, 0.00, 0.00, 0.00, 0.01, 0.01, 1.02
73, 0.00, 35197.92, 0.00, 0.00, 0.00, 0.00, 0.00, 0.00, 0.01, 0.01, 1.02
74, 0.00, 35199.10, 0.00, 0.00, 0.00, 0.00, 0.00, 0.00, 0.01, 0.01, 1.02
75, 0.00, 35215.95, 0.00, 0.00, 0.00, 0.00, 0.00, 0.00, 0.01, 0.01, 1.02
76, 0.00, 35231.98, 0.00, 0.00, 0.00, 0.00, 0.00, 0.00, 0.01, 0.01, 1.02
77, 0.00, 35231.24, 0.00, 0.00, 0.00, 0.00, 0.00, 0.00, 0.01, 0.01, 1.02
78, 0.00, 35227.33, 0.00, 0.00, 0.00, 0.00, 0.00, 0.00, 0.01, 0.01, 1.02
79, 0.00, 35240.27, 0.00, 0.00, 0.00, 0.00, 0.00, 0.00, 0.01, 0.01, 1.02
80, 0.00, 35263.95, 0.00, 0.00, 0.00, 0.00, 0.00, 0.00, 0.01, 0.01, 1.02
81, 0.00, 35262.74, 0.00, 0.00, 0.00, 0.00, 0.00, 0.00, 0.01, 0.01, 1.02
82, 0.00, 35254.42, 0.00, 0.00, 0.00, 0.00, 0.00, 0.00, 0.01, 0.01, 1.02
83, 0.00, 35256.55, 0.00, 0.00, 0.00, 0.00, 0.00, 0.00, 0.01, 0.01, 1.02
84, 0.00, 35279.10, 0.00, 0.00, 0.00, 0.00, 0.00, 0.00, 0.01, 0.01, 1.02
85, 0.00, 35284.71, 0.00, 0.00, 0.00, 0.00, 0.00, 0.00, 0.01, 0.01, 1.02
86, 0.00, 35280.91, 0.00, 0.00, 0.00, 0.00, 0.00, 0.00, 0.01, 0.01, 1.02
87, 0.00, 35280.28, 0.00, 0.00, 0.00, 0.00, 0.00, 0.00, 0.01, 0.01, 1.02
88, 0.00, 35302.79, 0.00, 0.00, 0.00, 0.00, 0.00, 0.00, 0.01, 0.01, 1.02
89, 0.00, 35320.32, 0.00, 0.00, 0.00, 0.00, 0.00, 0.00, 0.01, 0.01, 1.02
90, 0.00, 35310.84, 0.00, 0.00, 0.00, 0.00, 0.00, 0.00, 0.01, 0.01, 1.02
91, 0.00, 35301.92, 0.00, 0.00, 0.00, 0.00, 0.00, 0.00, 0.01, 0.01, 1.02
92, 0.00, 35319.33, 0.00, 0.00, 0.00, 0.00, 0.00, 0.00, 0.01, 0.01, 1.02
93, 0.00, 35335.38, 0.00, 0.00, 0.00, 0.00, 0.00, 0.00, 0.01, 0.01, 1.02
94, 0.00, 35333.84, 0.00, 0.00, 0.00, 0.00, 0.00, 0.00, 0.01, 0.01, 1.02
95, 0.00, 35318.79, 0.00, 0.00, 0.00, 0.00, 0.00, 0.00, 0.01, 0.01, 1.02
96, 0.00, 35331.31, 0.00, 0.00, 0.00, 0.00, 0.00, 0.00, 0.01, 0.01, 1.02
97, 0.00, 35372.73, 0.00, 0.00, 0.00, 0.00, 0.00, 0.00, 0.01, 0.01, 1.03
98, 0.00, 35358.07, 0.00, 0.00, 0.00, 0.00, 0.00, 0.00, 0.01, 0.01, 1.03
99, 0.00, 35318.95, 0.00, 0.00, 0.00, 0.00, 0.00, 0.00, 0.01, 0.01, 1.03
100, 0.00, 35327.85, 0.00, 0.00, 0.00, 0.00, 0.00, 0.00, 0.01, 0.01, 1.03
101, 0.00, 35360.59, 0.00, 0.00, 0.00, 0.00, 0.00, 0.00, 0.01, 0.01, 1.03
102, 0.00, 35361.75, 0.00, 0.00, 0.00, 0.00, 0.00, 0.00, 0.01, 0.01, 1.02
103, 0.00, 35342.09, 0.00, 0.00, 0.00, 0.00, 0.00, 0.00, 0.01, 0.01, 1.02
104, 0.00, 35356.84, 0.00, 0.00, 0.00, 0.00, 0.00, 0.00, 0.01, 0.01, 1.02
105, 0.00, 35381.40, 0.00, 0.00, 0.00, 0.00, 0.00, 0.00, 0.01, 0.01, 1.02
106, 0.00, 35381.00, 0.00, 0.00, 0.00, 0.00, 0.00, 0.00, 0.01, 0.01, 1.02
107, 0.00, 35366.23, 0.00, 0.00, 0.00, 0.00, 0.00, 0.00, 0.01, 0.01, 1.01
108, 0.00, 35363.21, 0.00, 0.00, 0.00, 0.00, 0.00, 0.00, 0.01, 0.01, 1.01
109, 0.00, 35395.46, 0.00, 0.00, 0.00, 0.00, 0.00, 0.00, 0.01, 0.01, 1.01
110, 0.00, 35410.84, 0.00, 0.00, 0.00, 0.00, 0.00, 0.00, 0.01, 0.01, 1.01
111, 0.00, 35406.73, 0.00, 0.00, 0.00, 0.00, 0.00, 0.00, 0.01, 0.01, 1.01
112, 0.00, 35409.66, 0.00, 0.00, 0.00, 0.00, 0.00, 0.00, 0.01, 0.01, 1.01
113, 0.00, 35422.62, 0.00, 0.00, 0.00, 0.00, 0.00, 0.00, 0.01, 0.01, 1.01
114, 0.00, 35447.25, 0.00, 0.00, 0.00, 0.00, 0.00, 0.00, 0.01, 0.01, 1.01
115, 0.00, 35443.11, 0.00, 0.00, 0.00, 0.00, 0.00, 0.00, 0.01, 0.01, 1.01
116, 0.00, 35436.30, 0.00, 0.00, 0.00, 0.00, 0.00, 0.00, 0.01, 0.01, 1.01
117, 0.00, 35455.10, 0.00, 0.00, 0.00, 0.00, 0.00, 0.00, 0.01, 0.01, 1.01
118, 0.00, 35467.90, 0.00, 0.00, 0.00, 0.00, 0.00, 0.00, 0.01, 0.01, 1.01
119, 0.00, 35465.82, 0.00, 0.00, 0.00, 0.00, 0.00, 0.00, 0.01, 0.01, 1.01
120, 0.00, 35463.14, 0.00, 0.00, 0.00, 0.00, 0.00, 0.00, 0.01, 0.01, 1.01
121, 0.00, 35480.24, 0.00, 0.00, 0.00, 0.00, 0.00, 0.00, 0.01, 0.01, 1.01
122, 0.00, 35496.27, 0.00, 0.00, 0.00, 0.00, 0.00, 0.00, 0.01, 0.01, 1.01
123, 0.00, 35495.22, 0.00, 0.00, 0.00, 0.00, 0.00, 0.00, 0.01, 0.01, 1.01
124, 0.00, 35492.07, 0.00, 0.00, 0.00, 0.00, 0.00, 0.00, 0.01, 0.01, 1.01
125, 0.00, 35507.27, 0.00, 0.00, 0.00, 0.00, 0.00, 0.00, 0.01, 0.01, 1.01
126, 0.00, 35524.92, 0.00, 0.00, 0.00, 0.00, 0.00, 0.00, 0.01, 0.01, 1.01
127, 0.00, 35525.17, 0.00, 0.00, 0.00, 0.00, 0.00, 0.00, 0.01, 0.01, 1.01
128, 0.00, 35523.25, 0.00, 0.00, 0.00, 0.00, 0.00, 0.00, 0.01, 0.01, 1.01
129, 0.00, 35529.30, 0.00, 0.00, 0.00, 0.00, 0.00, 0.00, 0.01, 0.01, 1.01
130, 0.00, 35547.14, 0.00, 0.00, 0.00, 0.00, 0.00, 0.00, 0.01, 0.01, 1.01
131, 0.00, 35552.93, 0.00, 0.00, 0.00, 0.00, 0.00, 0.00, 0.01, 0.01, 1.01
132, 0.00, 35550.92, 0.00, 0.00, 0.00, 0.00, 0.00, 0.00, 0.01, 0.01, 1.01
133, 0.00, 35550.02, 0.00, 0.00, 0.00, 0.00, 0.00, 0.00, 0.01, 0.01, 1.01
134, 0.00, 35571.77, 0.00, 0.00, 0.00, 0.00, 0.00, 0.00, 0.01, 0.01, 1.01
135, 0.00, 35587.80, 0.00, 0.00, 0.00, 0.00, 0.00, 0.00, 0.01, 0.01, 1.01
136, 0.00, 35578.07, 0.00, 0.00, 0.00, 0.00, 0.00, 0.00, 0.01, 0.01, 1.01
137, 0.00, 35575.32, 0.00, 0.00, 0.00, 0.00, 0.00, 0.00, 0.01, 0.01, 1.01
138, 0.00, 35594.91, 0.00, 0.00, 0.00, 0.00, 0.00, 0.00, 0.01, 0.01, 1.01
139, 0.00, 35619.43, 0.00, 0.00, 0.00, 0.00, 0.00, 0.00, 0.01, 0.01, 1.01
140, 0.00, 35617.04, 0.00, 0.00, 0.00, 0.00, 0.00, 0.00, 0.01, 0.01, 1.01
141, 0.00, 35604.56, 0.00, 0.00, 0.00, 0.00, 0.00, 0.00, 0.01, 0.01, 1.01
142, 0.00, 35623.67, 0.00, 0.00, 0.00, 0.00, 0.00, 0.00, 0.01, 0.01, 1.01
143, 0.00, 35638.69, 0.00, 0.00, 0.00, 0.00, 0.00, 0.00, 0.01, 0.01, 1.01
144, 0.00, 35632.05, 0.00, 0.00, 0.00, 0.00, 0.00, 0.00, 0.01, 0.01, 1.01
145, 0.00, 35621.62, 0.00, 0.00, 0.00, 0.00, 0.00, 0.00, 0.01, 0.01, 1.01
146, 0.00, 35635.07, 0.00, 0.00, 0.00, 0.00, 0.00, 0.00, 0.01, 0.01, 1.01
147, 0.00, 35653.89, 0.00, 0.00, 0.00, 0.00, 0.00, 0.00, 0.01, 0.01, 1.02
148, 0.00, 35656.02, 0.00, 0.00, 0.00, 0.00, 0.00, 0.00, 0.01, 0.01, 1.02
149, 0.00, 35650.74, 0.00, 0.00, 0.00, 0.00, 0.00, 0.00, 0.01, 0.01, 1.02
150, 0.00, 35660.17, 0.00, 0.00, 0.00, 0.00, 0.00, 0.00, 0.01, 0.01, 1.02
151, 0.00, 35683.15, 0.00, 0.00, 0.00, 0.00, 0.00, 0.00, 0.01, 0.01, 1.02
152, 0.00, 35689.14, 0.00, 0.00, 0.00, 0.00, 0.00, 0.00, 0.01, 0.01, 1.01
153, 0.00, 35686.55, 0.00, 0.00, 0.00, 0.00, 0.00, 0.00, 0.01, 0.01, 1.01
154, 0.00, 35681.77, 0.00, 0.00, 0.00, 0.00, 0.00, 0.00, 0.01, 0.01, 1.01
155, 0.00, 35699.13, 0.00, 0.00, 0.00, 0.00, 0.00, 0.00, 0.01, 0.01, 1.01
156, 0.00, 35707.43, 0.00, 0.00, 0.00, 0.00, 0.00, 0.00, 0.01, 0.01, 1.01
157, 0.00, 35700.07, 0.00, 0.00, 0.00, 0.00, 0.00, 0.00, 0.01, 0.01, 1.01
158, 0.00, 35706.82, 0.00, 0.00, 0.00, 0.00, 0.00, 0.00, 0.01, 0.01, 1.01
159, 0.00, 35731.16, 0.00, 0.00, 0.00, 0.00, 0.00, 0.00, 0.01, 0.01, 1.01
160, 0.00, 35741.51, 0.00, 0.00, 0.00, 0.00, 0.00, 0.00, 0.01, 0.01, 1.01
161, 0.00, 35731.03, 0.00, 0.00, 0.00, 0.00, 0.00, 0.00, 0.01, 0.01, 1.01
162, 0.00, 35728.39, 0.00, 0.00, 0.00, 0.00, 0.00, 0.00, 0.01, 0.01, 1.01
163, 0.00, 35757.22, 0.00, 0.00, 0.00, 0.00, 0.00, 0.00, 0.01, 0.01, 1.01
164, 0.00, 35773.61, 0.00, 0.00, 0.00, 0.00, 0.00, 0.00, 0.01, 0.01, 1.01
165, 0.00, 35762.19, 0.00, 0.00, 0.00, 0.00, 0.00, 0.00, 0.01, 0.01, 1.01
166, 0.00, 35757.74, 0.00, 0.00, 0.00, 0.00, 0.00, 0.00, 0.01, 0.01, 1.01
167, 0.00, 35776.92, 0.00, 0.00, 0.00, 0.00, 0.00, 0.00, 0.01, 0.01, 1.01
168, 0.00, 35793.10, 0.00, 0.00, 0.00, 0.00, 0.00, 0.00, 0.01, 0.01, 1.01
169, 0.00, 35787.29, 0.00, 0.00, 0.00, 0.00, 0.00, 0.00, 0.01, 0.01, 1.01
170, 0.00, 35785.05, 0.00, 0.00, 0.00, 0.00, 0.00, 0.00, 0.01, 0.01, 1.01
171, 0.00, 35802.26, 0.00, 0.00, 0.00, 0.00, 0.00, 0.00, 0.01, 0.01, 1.01
172, 0.00, 35822.36, 0.00, 0.00, 0.00, 0.00, 0.00, 0.00, 0.01, 0.01, 1.02
173, 0.00, 35818.25, 0.00, 0.00, 0.00, 0.00, 0.00, 0.00, 0.01, 0.01, 1.02
174, 0.00, 35812.95, 0.00, 0.00, 0.00, 0.00, 0.00, 0.00, 0.01, 0.01, 1.02
175, 0.00, 35822.63, 0.00, 0.00, 0.00, 0.00, 0.00, 0.00, 0.01, 0.01, 1.02
176, 0.00, 35846.79, 0.00, 0.00, 0.00, 0.00, 0.00, 0.00, 0.01, 0.01, 1.02
177, 0.00, 35851.95, 0.00, 0.00, 0.00, 0.00, 0.00, 0.00, 0.02, 0.00, 1.02
178, 0.00, 35841.94, 0.00, 0.00, 0.00, 0.00, 0.00, 0.00, 0.02, 0.00, 1.02
179, 0.00, 35847.23, 0.00, 0.00, 0.00, 0.00, 0.00, 0.00, 0.02, 0.00, 1.02
180, 0.00, 35870.79, 0.00, 0.00, 0.00, 0.00, 0.00, 0.00, 0.02, 0.00, 1.02
181, 0.00, 35877.32, 0.00, 0.00, 0.00, 0.00, 0.00, 0.00, 0.02, 0.00, 1.02
182, 0.00, 35860.89, 0.00, 0.00, 0.00, 0.00, 0.00, 0.00, 0.01, 0.00, 1.02
183, 0.00, 35868.43, 0.00, 0.00, 0.00, 0.00, 0.00, 0.00, 0.01, 0.00, 1.02
184, 0.00, 35895.40, 0.00, 0.00, 0.00, 0.00, 0.00, 0.00, 0.01, 0.00, 1.02
185, 0.00, 35912.26, 0.00, 0.00, 0.00, 0.00, 0.00, 0.00, 0.01, 0.00, 1.02
186, 0.00, 35904.48, 0.00, 0.00, 0.00, 0.00, 0.00, 0.00, 0.01, 0.00, 1.02
187, 0.00, 35904.79, 0.00, 0.00, 0.00, 0.00, 0.00, 0.00, 0.01, 0.00, 1.02
188, 0.00, 35921.78, 0.00, 0.00, 0.00, 0.00, 0.00, 0.00, 0.01, 0.01, 1.01
189, 0.00, 35937.25, 0.00, 0.00, 0.00, 0.00, 0.00, 0.00, 0.01, 0.01, 1.01
190, 0.00, 35932.57, 0.00, 0.00, 0.00, 0.00, 0.00, 0.00, 0.01, 0.01, 1.01
191, 0.00, 35925.22, 0.00, 0.00, 0.00, 0.00, 0.00, 0.00, 0.01, 0.01, 1.01
192, 0.00, 35940.91, 0.00, 0.00, 0.00, 0.00, 0.00, 0.00, 0.01, 0.01, 1.01
193, 0.00, 35956.96, 0.00, 0.00, 0.00, 0.00, 0.00, 0.00, 0.01, 0.01, 1.01
194, 0.00, 35953.32, 0.00, 0.00, 0.00, 0.00, 0.00, 0.00, 0.01, 0.01, 1.01
195, 0.00, 35950.19, 0.00, 0.00, 0.00, 0.00, 0.00, 0.00, 0.01, 0.01, 1.01
196, 0.00, 35960.74, 0.00, 0.00, 0.00, 0.00, 0.00, 0.00, 0.01, 0.01, 1.01
197, 0.00, 35978.68, 0.00, 0.00, 0.00, 0.00, 0.00, 0.00, 0.01, 0.01, 1.01
198, 0.00, 35977.34, 0.00, 0.00, 0.00, 0.00, 0.00, 0.00, 0.01, 0.01, 1.02
199, 0.00, 35963.75, 0.00, 0.00, 0.00, 0.00, 0.00, 0.00, 0.01, 0.01, 1.02
200, 0.00, 35978.28, 0.00, 0.00, 0.00, 0.00, 0.00, 0.00, 0.01, 0.01, 1.02
201, 0.00, 36001.84, 0.00, 0.00, 0.00, 0.00, 0.00, 0.00, 0.01, 0.01, 1.02
202, 0.00, 36005.53, 0.00, 0.00, 0.00, 0.00, 0.00, 0.00, 0.01, 0.01, 1.02
203, 0.00, 35998.85, 0.00, 0.00, 0.00, 0.00, 0.00, 0.00, 0.01, 0.02, 1.02
204, 0.00, 35996.57, 0.00, 0.00, 0.00, 0.00, 0.00, 0.00, 0.01, 0.02, 1.02
205, 0.00, 36023.32, 0.00, 0.00, 0.00, 0.00, 0.00, 0.00, 0.01, 0.02, 1.02
206, 0.00, 36037.79, 0.00, 0.00, 0.00, 0.00, 0.00, 0.00, 0.01, 0.02, 1.02
207, 0.00, 36028.24, 0.00, 0.00, 0.00, 0.00, 0.00, 0.00, 0.01, 0.02, 1.02
208, 0.00, 36028.75, 0.00, 0.00, 0.00, 0.00, 0.00, 0.00, 0.01, 0.01, 1.02
209, 0.00, 36052.38, 0.00, 0.00, 0.00, 0.00, 0.00, 0.00, 0.01, 0.01, 1.02
210, 0.00, 36072.54, 0.00, 0.00, 0.00, 0.00, 0.00, 0.00, 0.01, 0.01, 1.02
211, 0.00, 36054.12, 0.00, 0.00, 0.00, 0.00, 0.00, 0.00, 0.01, 0.01, 1.02
212, 0.00, 36046.68, 0.00, 0.00, 0.00, 0.00, 0.00, 0.00, 0.01, 0.01, 1.02
213, 0.00, 36071.54, 0.00, 0.00, 0.00, 0.00, 0.00, 0.00, 0.01, 0.01, 1.02
214, 0.00, 36086.98, 0.00, 0.00, 0.00, 0.00, 0.00, 0.00, 0.01, 0.01, 1.02
215, 0.00, 36073.57, 0.00, 0.00, 0.00, 0.00, 0.00, 0.00, 0.01, 0.01, 1.02
216, 0.00, 36064.07, 0.00, 0.00, 0.00, 0.00, 0.00, 0.00, 0.01, 0.01, 1.02
217, 0.00, 36087.61, 0.00, 0.00, 0.00, 0.00, 0.00, 0.00, 0.01, 0.01, 1.02
218, 0.00, 36121.96, 0.00, 0.00, 0.00, 0.00, 0.00, 0.00, 0.01, 0.01, 1.02
219, 0.00, 36114.11, 0.00, 0.00, 0.00, 0.00, 0.00, 0.00, 0.01, 0.01, 1.02
220, 0.00, 36103.61, 0.00, 0.00, 0.00, 0.00, 0.00, 0.00, 0.01, 0.01, 1.02
221, 0.00, 36115.01, 0.00, 0.00, 0.00, 0.00, 0.00, 0.00, 0.01, 0.01, 1.02
222, 0.00, 36140.18, 0.00, 0.00, 0.00, 0.00, 0.00, 0.00, 0.01, 0.01, 1.02
223, 0.00, 36137.83, 0.00, 0.00, 0.00, 0.00, 0.00, 0.00, 0.01, 0.01, 1.02
224, 0.00, 36122.12, 0.00, 0.00, 0.00, 0.00, 0.00, 0.00, 0.01, 0.01, 1.02
225, 0.00, 36133.18, 0.00, 0.00, 0.00, 0.00, 0.00, 0.00, 0.01, 0.01, 1.02
226, 0.00, 36158.39, 0.00, 0.00, 0.00, 0.00, 0.00, 0.00, 0.01, 0.01, 1.02
227, 0.00, 36159.46, 0.00, 0.00, 0.00, 0.00, 0.00, 0.00, 0.01, 0.01, 1.02
228, 0.00, 36144.89, 0.00, 0.00, 0.00, 0.00, 0.00, 0.00, 0.01, 0.01, 1.02
229, 0.00, 36158.97, 0.00, 0.00, 0.00, 0.00, 0.00, 0.00, 0.01, 0.01, 1.02
230, 0.00, 36179.29, 0.00, 0.00, 0.00, 0.00, 0.00, 0.00, 0.01, 0.01, 1.02
231, 0.00, 36187.96, 0.00, 0.00, 0.00, 0.00, 0.00, 0.00, 0.01, 0.01, 1.02
232, 0.00, 36183.34, 0.00, 0.00, 0.00, 0.00, 0.00, 0.00, 0.01, 0.01, 1.02
233, 0.00, 36184.95, 0.00, 0.00, 0.00, 0.00, 0.00, 0.00, 0.01, 0.00, 1.02
234, 0.00, 36213.76, 0.00, 0.00, 0.00, 0.00, 0.00, 0.00, 0.01, 0.00, 1.02
235, 0.00, 36228.45, 0.00, 0.00, 0.00, 0.00, 0.00, 0.00, 0.01, 0.00, 1.02
236, 0.00, 36218.63, 0.00, 0.00, 0.00, 0.00, 0.00, 0.00, 0.01, 0.00, 1.02
237, 0.00, 36213.18, 0.00, 0.00, 0.00, 0.00, 0.00, 0.00, 0.01, 0.00, 1.02
238, 0.00, 36235.39, 0.00, 0.00, 0.00, 0.00, 0.00, 0.00, 0.01, 0.01, 1.02
239, 0.00, 36251.60, 0.00, 0.00, 0.00, 0.00, 0.00, 0.00, 0.01, 0.01, 1.02
240, 0.00, 36245.54, 0.00, 0.00, 0.00, 0.00, 0.00, 0.00, 0.01, 0.01, 1.02
241, 0.00, 36242.97, 0.00, 0.00, 0.00, 0.00, 0.00, 0.00, 0.01, 0.01, 1.02
242, 0.00, 36259.87, 0.00, 0.00, 0.00, 0.00, 0.00, 0.00, 0.01, 0.01, 1.02
243, 0.00, 36275.25, 0.00, 0.00, 0.00, 0.00, 0.00, 0.00, 0.01, 0.01, 1.02
244, 0.00, 36280.64, 0.00, 0.00, 0.00, 0.00, 0.00, 0.00, 0.01, 0.01, 1.02
245, 0.00, 36269.48, 0.00, 0.00, 0.00, 0.00, 0.00, 0.00, 0.01, 0.01, 1.02
246, 0.00, 36272.25, 0.00, 0.00, 0.00, 0.00, 0.00, 0.00, 0.01, 0.01, 1.02
247, 0.00, 36295.12, 0.00, 0.00, 0.00, 0.00, 0.00, 0.00, 0.01, 0.01, 1.02
248, 0.00, 36300.48, 0.00, 0.00, 0.00, 0.00, 0.00, 0.00, 0.01, 0.01, 1.02
249, 0.00, 36288.48, 0.00, 0.00, 0.00, 0.00, 0.00, 0.00, 0.01, 0.01, 1.02
250, 0.00, 36300.15, 0.00, 0.00, 0.00, 0.00, 0.00, 0.00, 0.01, 0.01, 1.02
251, 0.00, 36333.07, 0.00, 0.00, 0.00, 0.00, 0.00, 0.00, 0.01, 0.01, 1.02
252, 0.00, 36330.14, 0.00, 0.00, 0.00, 0.00, 0.00, 0.00, 0.01, 0.01, 1.02
253, 0.00, 36319.93, 0.00, 0.00, 0.00, 0.00, 0.00, 0.00, 0.01, 0.01, 1.01
254, 0.00, 36323.95, 0.00, 0.00, 0.00, 0.00, 0.00, 0.00, 0.01, 0.01, 1.01
255, 0.00, 36351.31, 0.00, 0.00, 0.00, 0.00, 0.00, 0.00, 0.01, 0.01, 1.01
0, 0.00, 36360.48, 0.00, 0.00, 0.00, 0.00, 0.00, 0.00, 0.01, 0.01, 1.01
1, 0.00, 36351.09, 0.00, 0.00, 0.00, 0.00, 0.00, 0.00, 0.01, 0.01, 1.01
2, 0.00, 36350.84, 0.00, 0.00, 0.00, 0.00, 0.00, 0.00, 0.01, 0.01, 1.01
3, 0.00, 36376.08, 0.00, 0.00, 0.00, 0.00, 0.00, 0.00, 0.01, 0.01, 1.01
4, 0.00, 36386.61, 0.00, 0.00, 0.00, 0.00, 0.00, 0.00, 0.01, 0.01, 1.01
5, 0.00, 36382.67, 0.00, 0.00, 0.00, 0.00, 0.00, 0.00, 0.01, 0.01, 1.01
6, 0.00, 36379.92, 0.00, 0.00, 0.00, 0.00, 0.00, 0.00, 0.01, 0.01, 1.01
7, 0.00, 36400.08, 0.00, 0.00, 0.00, 0.00, 0.00, 0.00, 0.01, 0.01, 1.02
8, 0.00, 36413.74, 0.00, 0.00, 0.00, 0.00, 0.00, 0.00, 0.01, 0.01, 1.02
9, 0.00, 36415.66, 0.00, 0.00, 0.00, 0.00, 0.00, 0.00, 0.01, 0.01, 1.02
10, 0.00, 36429.05, 0.00, 0.00, 0.00, 0.00, 0.00, 0.00, 0.01, 0.01, 1.02
11, 0.00, 36440.45, 0.00, 0.00, 0.00, 0.00, 0.00, 0.00, 0.01, 0.01, 1.02
12, 0.00, 36430.64, 0.00, 0.00, 0.00, 0.00, 0.00, 0.00, 0.01, 0.01, 1.02
13, 0.00, 36437.70, 0.00, 0.00, 0.00, 0.00, 0.00, 0.00, 0.01, 0.01, 1.02
14, 0.00, 36450.48, 0.00, 0.00, 0.00, 0.00, 0.00, 0.00, 0.01, 0.01, 1.02
15, 0.00, 36462.02, 0.00, 0.00, 0.00, 0.00, 0.00, 0.00, 0.01, 0.01, 1.02
16, 0.00, 36482.32, 0.00, 0.00, 0.00, 0.00, 0.00, 0.00, 0.01, 0.01, 1.02
17, 0.00, 36480.08, 0.00, 0.00, 0.00, 0.00, 0.00, 0.00, 0.01, 0.01, 1.01
18, 0.00, 36479.54, 0.00, 0.00, 0.00, 0.00, 0.00, 0.00, 0.01, 0.01, 1.01
19, 0.00, 36482.54, 0.00, 0.00, 0.00, 0.00, 0.00, 0.00, 0.01, 0.01, 1.01
20, 0.00, 36506.19, 0.00, 0.00, 0.00, 0.00, 0.00, 0.00, 0.01, 0.01, 1.01
21, 0.00, 36516.31, 0.00, 0.00, 0.00, 0.00, 0.00, 0.00, 0.01, 0.01, 1.01
22, 0.00, 36501.31, 0.00, 0.00, 0.00, 0.00, 0.00, 0.00, 0.01, 0.01, 1.02
23, 0.00, 36502.54, 0.00, 0.00, 0.00, 0.00, 0.00, 0.00, 0.01, 0.01, 1.02
24, 0.00, 36529.57, 0.00, 0.00, 0.00, 0.00, 0.00, 0.00, 0.01, 0.01, 1.02
25, 0.00, 36546.75, 0.00, 0.00, 0.00, 0.00, 0.00, 0.00, 0.01, 0.01, 1.02
26, 0.00, 36538.08, 0.00, 0.00, 0.00, 0.00, 0.00, 0.00, 0.01, 0.01, 1.02
27, 0.00, 36531.64, 0.00, 0.00, 0.00, 0.00, 0.00, 0.00, 0.01, 0.01, 1.01
28, 0.00, 36554.13, 0.00, 0.00, 0.00, 0.00, 0.00, 0.00, 0.01, 0.01, 1.01
29, 0.00, 36571.83, 0.00, 0.00, 0.00, 0.00, 0.00, 0.00, 0.01, 0.01, 1.01
30, 0.00, 36568.44, 0.00, 0.00, 0.00, 0.00, 0.00, 0.00, 0.01, 0.01, 1.01
31, 0.00, 36564.73, 0.00, 0.00, 0.00, 0.00, 0.00, 0.00, 0.01, 0.01, 1.01
32, 0.00, 36586.63, 0.00, 0.00, 0.00, 0.00, 0.00, 0.00, 0.01, 0.01, 1.02
33, 0.00, 36608.45, 0.00, 0.00, 0.00, 0.00, 0.00, 0.00, 0.01, 0.01, 1.02
34, 0.00, 36605.99, 0.00, 0.00, 0.00, 0.00, 0.00, 0.00, 0.01, 0.01, 1.02
35, 0.00, 36599.33, 0.00, 0.00, 0.00, 0.00, 0.00, 0.00, 0.01, 0.01, 1.02
36, 0.00, 36602.68, 0.00, 0.00, 0.00, 0.00, 0.00, 0.00, 0.01, 0.01, 1.02
37, 0.00, 36628.54, 0.00, 0.00, 0.00, 0.00, 0.00, 0.00, 0.01, 0.01, 1.02
38, 0.00, 36631.16, 0.00, 0.00, 0.00, 0.00, 0.00, 0.00, 0.01, 0.01, 1.02
39, 0.00, 36619.93, 0.00, 0.00, 0.00, 0.00, 0.00, 0.00, 0.01, 0.01, 1.02
40, 0.00, 36633.34, 0.00, 0.00, 0.00, 0.00, 0.00, 0.00, 0.01, 0.01, 1.02
41, 0.00, 36653.82, 0.00, 0.00, 0.00, 0.00, 0.00, 0.00, 0.01, 0.01, 1.02
42, 0.00, 36656.30, 0.00, 0.00, 0.00, 0.00, 0.00, 0.00, 0.00, 0.01, 1.01
43, 0.00, 36644.70, 0.00, 0.00, 0.00, 0.00, 0.00, 0.00, 0.00, 0.01, 1.01
44, 0.00, 36649.24, 0.00, 0.00, 0.00, 0.00, 0.00, 0.00, 0.00, 0.01, 1.01
45, 0.00, 36668.30, 0.00, 0.00, 0.00, 0.00, 0.00, 0.00, 0.00, 0.01, 1.01
46, 0.00, 36669.96, 0.00, 0.00, 0.00, 0.00, 0.00, 0.00, 0.00, 0.01, 1.01
47, 0.00, 36668.55, 0.00, 0.00, 0.00, 0.00, 0.00, 0.00, 0.00, 0.01, 1.02
48, 0.00, 36681.94, 0.00, 0.00, 0.00, 0.00, 0.00, 0.00, 0.00, 0.01, 1.02
49, 0.00, 36698.05, 0.00, 0.00, 0.00, 0.00, 0.00, 0.00, 0.00, 0.01, 1.02
50, 0.00, 36706.91, 0.00, 0.00, 0.00, 0.00, 0.00, 0.00, 0.00, 0.01, 1.02
51, 0.00, 36700.67, 0.00, 0.00, 0.00, 0.00, 0.00, 0.00, 0.00, 0.01, 1.02
52, 0.00, 36703.62, 0.00, 0.00, 0.00, 0.00, 0.00, 0.00, 0.01, 0.01, 1.02
53, 0.00, 36721.19, 0.00, 0.00, 0.00, 0.00, 0.00, 0.00, 0.01, 0.01, 1.02
54, 0.00, 36732.09, 0.00, 0.00, 0.00, 0.00, 0.00, 0.00, 0.01, 0.01, 1.02
55, 0.00, 36725.66, 0.00, 0.00, 0.00, 0.00, 0.00, 0.00, 0.01, 0.01, 1.02
56, 0.00, 36721.84, 0.00, 0.00, 0.00, 0.00, 0.00, 0.00, 0.01, 0.01, 1.02
57, 0.00, 36744.01, 0.00, 0.00, 0.00, 0.00, 0.00, 0.00, 0.01, 0.00, 1.02
58, 0.00, 36763.72, 0.00, 0.00, 0.00, 0.00, 0.00, 0.00, 0.01, 0.00, 1.02
59, 0.00, 36760.66, 0.00, 0.00, 0.00, 0.00, 0.00, 0.00, 0.01, 0.00, 1.02
60, 0.00, 36754.49, 0.00, 0.00, 0.00, 0.00, 0.00, 0.00, 0.01, 0.00, 1.02
61, 0.00, 36758.14, 0.00, 0.00, 0.00, 0.00, 0.00, 0.00, 0.01, 0.00, 1.02
62, 0.00, 36780.98, 0.00, 0.00, 0.00, 0.00, 0.00, 0.00, 0.01, 0.01, 1.02
63, 0.00, 36779.97, 0.00, 0.00, 0.00, 0.00, 0.00, 0.00, 0.01, 0.01, 1.02
64, 0.00, 36768.24, 0.00, 0.00, 0.00, 0.00, 0.00, 0.00, 0.01, 0.01, 1.02
65, 0.00, 36776.35, 0.00, 0.00, 0.00, 0.00, 0.00, 0.00, 0.01, 0.01, 1.02
66, 0.00, 36800.00, 0.00, 0.00, 0.00, 0.00, 0.00, 0.00, 0.01, 0.01, 1.02
67, 0.00, 36802.91, 0.00, 0.00, 0.00, 0.00, 0.00, 0.00, 0.01, 0.01, 1.02
68, 0.00, 36799.75, 0.00, 0.00, 0.00, 0.00, 0.00, 0.00, 0.01, 0.01, 1.02
69, 0.00, 36806.32, 0.00, 0.00, 0.00, 0.00, 0.00, 0.00, 0.01, 0.01, 1.02
70, 0.00, 36827.31, 0.00, 0.00, 0.00, 0.00, 0.00, 0.00, 0.01, 0.01, 1.02
71, 0.00, 36838.91, 0.00, 0.00, 0.00, 0.00, 0.00, 0.00, 0.01, 0.01, 1.02
72, 0.00, 36828.59, 0.00, 0.00, 0.00, 0.00, 0.00, 0.00, 0.01, 0.01, 1.02
73, 0.00, 36823.34, 0.00, 0.00, 0.00, 0.00, 0.00, 0.00, 0.01, 0.01, 1.02
74, 0.00, 36845.93, 0.00, 0.00, 0.00, 0.00, 0.00, 0.00, 0.01, 0.01, 1.02
75, 0.00, 36857.20, 0.00, 0.00, 0.00, 0.00, 0.00, 0.00, 0.01, 0.01, 1.02
76, 0.00, 36851.30, 0.00, 0.00, 0.00, 0.00, 0.00, 0.00, 0.01, 0.01, 1.02
77, 0.00, 36844.35, 0.00, 0.00, 0.00, 0.00, 0.00, 0.00, 0.01, 0.01, 1.02
78, 0.00, 36861.24, 0.00, 0.00, 0.00, 0.00, 0.00, 0.00, 0.01, 0.01, 1.02
79, 0.00, 36878.77, 0.00, 0.00, 0.00, 0.00, 0.00, 0.00, 0.01, 0.01, 1.02
80, 0.00, 36874.16, 0.00, 0.00, 0.00, 0.00, 0.00, 0.00, 0.01, 0.01, 1.02
81, 0.00, 36874.16, 0.00, 0.00, 0.00, 0.00, 0.00, 0.00, 0.01, 0.01, 1.02
82, 0.00, 36891.53, 0.00, 0.00, 0.00, 0.00, 0.00, 0.00, 0.01, 0.01, 1.02
83, 0.00, 36904.14, 0.00, 0.00, 0.00, 0.00, 0.00, 0.00, 0.01, 0.01, 1.02
84, 0.00, 36894.26, 0.00, 0.00, 0.00, 0.00, 0.00, 0.00, 0.01, 0.01, 1.02
85, 0.00, 36892.43, 0.00, 0.00, 0.00, 0.00, 0.00, 0.00, 0.01, 0.01, 1.02
86, 0.00, 36906.17, 0.00, 0.00, 0.00, 0.00, 0.00, 0.00, 0.01, 0.01, 1.02
87, 0.00, 36924.25, 0.00, 0.00, 0.00, 0.00, 0.00, 0.00, 0.01, 0.01, 1.02
88, 0.00, 36926.54, 0.00, 0.00, 0.00, 0.00, 0.00, 0.00, 0.01, 0.01, 1.02
89, 0.00, 36917.73, 0.00, 0.00, 0.00, 0.00, 0.00, 0.00, 0.01, 0.01, 1.02
90, 0.00, 36923.05, 0.00, 0.00, 0.00, 0.00, 0.00, 0.00, 0.01, 0.01, 1.02
91, 0.00, 36951.46, 0.00, 0.00, 0.00, 0.00, 0.00, 0.00, 0.01, 0.01, 1.02
92, 0.00, 36954.61, 0.00, 0.00, 0.00, 0.00, 0.00, 0.00, 0.01, 0.01, 1.02
93, 0.00, 36950.85, 0.00, 0.00, 0.00, 0.00, 0.00, 0.00, 0.01, 0.01, 1.02
94, 0.00, 36957.18, 0.00, 0.00, 0.00, 0.00, 0.00, 0.00, 0.01, 0.01, 1.02
95, 0.00, 36980.58, 0.00, 0.00, 0.00, 0.00, 0.00, 0.00, 0.01, 0.01, 1.02
96, 0.00, 36986.75, 0.00, 0.00, 0.00, 0.00, 0.00, 0.00, 0.01, 0.01, 1.02
97, 0.00, 36979.30, 0.00, 0.00, 0.00, 0.00, 0.00, 0.00, 0.01, 0.02, 1.02
98, 0.00, 36981.12, 0.00, 0.00, 0.00, 0.00, 0.00, 0.00, 0.01, 0.02, 1.02
99, 0.00, 37005.68, 0.00, 0.00, 0.00, 0.00, 0.00, 0.00, 0.01, 0.02, 1.02
100, 0.00, 37018.76, 0.00, 0.00, 0.00, 0.00, 0.00, 0.00, 0.01, 0.02, 1.02
101, 0.00, 37015.36, 0.00, 0.00, 0.00, 0.00, 0.00, 0.00, 0.01, 0.02, 1.02
102, 0.00, 37008.14, 0.00, 0.00, 0.00, 0.00, 0.00, 0.00, 0.00, 0.02, 1.01
103, 0.00, 37023.63, 0.00, 0.00, 0.00, 0.00, 0.00, 0.00, 0.00, 0.02, 1.01
104, 0.00, 37039.90, 0.00, 0.00, 0.00, 0.00, 0.00, 0.00, 0.00, 0.02, 1.01
105, 0.00, 37056.35, 0.00, 0.00, 0.00, 0.00, 0.00, 0.00, 0.00, 0.02, 1.01
106, 0.00, 37055.91, 0.00, 0.00, 0.00, 0.00, 0.00, 0.00, 0.00, 0.02, 1.01
107, 0.00, 37043.48, 0.00, 0.00, 0.00, 0.00, 0.00, 0.00, 0.00, 0.02, 1.02
108, 0.00, 37041.38, 0.00, 0.00, 0.00, 0.00, 0.00, 0.00, 0.00, 0.02, 1.02
109, 0.00, 37043.10, 0.00, 0.00, 0.00, 0.00, 0.00, 0.00, 0.00, 0.02, 1.02
110, 0.00, 37044.35, 0.00, 0.00, 0.00, 0.00, 0.00, 0.00, 0.00, 0.02, 1.02
111, 0.00, 37052.39, 0.00, 0.00, 0.00, 0.00, 0.00, 0.00, 0.00, 0.02, 1.02
112, 0.00, 37073.36, 0.00, 0.00, 0.00, 0.00, 0.00, 0.00, 0.01, 0.01, 1.02
113, 0.00, 37066.81, 0.00, 0.00, 0.00, 0.00, 0.00, 0.00, 0.01, 0.01, 1.02
114, 0.00, 37057.34, 0.00, 0.00, 0.00, 0.00, 0.00, 0.00, 0.01, 0.01, 1.02
115, 0.00, 37068.67, 0.00, 0.00, 0.00, 0.00, 0.00, 0.00, 0.01, 0.01, 1.02
116, 0.00, 37091.85, 0.00, 0.00, 0.00, 0.00, 0.00, 0.00, 0.01, 0.01, 1.02
117, 0.00, 37097.57, 0.00, 0.00, 0.00, 0.00, 0.00, 0.00, 0.01, 0.01, 1.02
118, 0.00, 37087.62, 0.00, 0.00, 0.00, 0.00, 0.00, 0.00, 0.01, 0.01, 1.02
119, 0.00, 37087.62, 0.00, 0.00, 0.00, 0.00, 0.00, 0.00, 0.01, 0.01, 1.02
120, 0.00, 37105.19, 0.00, 0.00, 0.00, 0.00, 0.00, 0.00, 0.01, 0.01, 1.02
121, 0.00, 37120.73, 0.00, 0.00, 0.00, 0.00, 0.00, 0.00, 0.01, 0.01, 1.02
122, 0.00, 37115.38, 0.00, 0.00, 0.00, 0.00, 0.00, 0.00, 0.01, 0.01, 1.01
123, 0.00, 37112.79, 0.00, 0.00, 0.00, 0.00, 0.00, 0.00, 0.01, 0.01, 1.01
124, 0.00, 37131.66, 0.00, 0.00, 0.00, 0.00, 0.00, 0.00, 0.01, 0.01, 1.01
125, 0.00, 37146.39, 0.00, 0.00, 0.00, 0.00, 0.00, 0.00, 0.01, 0.01, 1.01
126, 0.00, 37145.69, 0.00, 0.00, 0.00, 0.00, 0.00, 0.00, 0.01, 0.01, 1.01
127, 0.00, 37137.46, 0.00, 0.00, 0.00, 0.00, 0.00, 0.00, 0.01, 0.02, 1.01
128, 0.00, 37147.59, 0.00, 0.00, 0.00, 0.00, 0.00, 0.00, 0.01, 0.02, 1.01
129, 0.00, 37171.31, 0.00, 0.00, 0.00, 0.00, 0.00, 0.00, 0.01, 0.02, 1.01
130, 0.00, 37171.69, 0.00, 0.00, 0.00, 0.00, 0.00, 0.00, 0.01, 0.02, 1.01
131, 0.00, 37167.35, 0.00, 0.00, 0.00, 0.00, 0.00, 0.00, 0.01, 0.02, 1.01
132, 0.00, 37182.75, 0.00, 0.00, 0.00, 0.00, 0.00, 0.00, 0.01, 0.02, 1.01
133, 0.00, 37203.05, 0.00, 0.00, 0.00, 0.00, 0.00, 0.00, 0.01, 0.02, 1.01
134, 0.00, 37199.34, 0.00, 0.00, 0.00, 0.00, 0.00, 0.00, 0.01, 0.02, 1.01
135, 0.00, 37189.82, 0.00, 0.00, 0.00, 0.00, 0.00, 0.00, 0.01, 0.02, 1.01
136, 0.00, 37200.72, 0.00, 0.00, 0.00, 0.00, 0.00, 0.00, 0.01, 0.02, 1.01
137, 0.00, 37218.36, 0.00, 0.00, 0.00, 0.00, 0.00, 0.00, 0.01, 0.01, 1.02
138, 0.00, 37222.40, 0.00, 0.00, 0.00, 0.00, 0.00, 0.00, 0.01, 0.01, 1.02
139, 0.00, 37218.54, 0.00, 0.00, 0.00, 0.00, 0.00, 0.00, 0.01, 0.01, 1.02
140, 0.00, 37224.46, 0.00, 0.00, 0.00, 0.00, 0.00, 0.00, 0.01, 0.01, 1.02
141, 0.00, 37244.51, 0.00, 0.00, 0.00, 0.00, 0.00, 0.00, 0.01, 0.01, 1.02
142, 0.00, 37256.42, 0.00, 0.00, 0.00, 0.00, 0.00, 0.00, 0.01, 0.00, 1.02
143, 0.00, 37242.81, 0.00, 0.00, 0.00, 0.00, 0.00, 0.00, 0.01, 0.00, 1.02
144, 0.00, 37245.16, 0.00, 0.00, 0.00, 0.00, 0.00, 0.00, 0.01, 0.00, 1.02
145, 0.00, 37268.63, 0.00, 0.00, 0.00, 0.00, 0.00, 0.00, 0.01, 0.00, 1.02
146, 0.00, 37279.98, 0.00, 0.00, 0.00, 0.00, 0.00, 0.00, 0.01, 0.00, 1.02
147, 0.00, 37268.09, 0.00, 0.00, 0.00, 0.00, 0.00, 0.00, 0.01, 0.01, 1.02
148, 0.00, 37262.21, 0.00, 0.00, 0.00, 0.00, 0.00, 0.00, 0.01, 0.01, 1.02
149, 0.00, 37284.25, 0.00, 0.00, 0.00, 0.00, 0.00, 0.00, 0.01, 0.01, 1.02
150, 0.00, 37306.31, 0.00, 0.00, 0.00, 0.00, 0.00, 0.00, 0.01, 0.01, 1.02
151, 0.00, 37303.23, 0.00, 0.00, 0.00, 0.00, 0.00, 0.00, 0.01, 0.01, 1.02
152, 0.00, 37293.26, 0.00, 0.00, 0.00, 0.00, 0.00, 0.00, 0.01, 0.00, 1.02
153, 0.00, 37311.61, 0.00, 0.00, 0.00, 0.00, 0.00, 0.00, 0.01, 0.00, 1.02
154, 0.00, 37331.30, 0.00, 0.00, 0.00, 0.00, 0.00, 0.00, 0.01, 0.00, 1.02
155, 0.00, 37328.21, 0.00, 0.00, 0.00, 0.00, 0.00, 0.00, 0.01, 0.00, 1.02
156, 0.00, 37320.01, 0.00, 0.00, 0.00, 0.00, 0.00, 0.00, 0.01, 0.00, 1.02
157, 0.00, 37331.46, 0.00, 0.00, 0.00, 0.00, 0.00, 0.00, 0.01, 0.00, 1.02
158, 0.00, 37361.59, 0.00, 0.00, 0.00, 0.00, 0.00, 0.00, 0.01, 0.01, 1.02
159, 0.00, 37367.18, 0.00, 0.00, 0.00, 0.00, 0.00, 0.00, 0.01, 0.01, 1.02
160, 0.00, 37366.50, 0.00, 0.00, 0.00, 0.00, 0.00, 0.00, 0.01, 0.01, 1.02
161, 0.00, 37372.16, 0.00, 0.00, 0.00, 0.00, 0.00, 0.00, 0.01, 0.01, 1.02
162, 0.00, 37379.58, 0.00, 0.00, 0.00, 0.00, 0.00, 0.00, 0.01, 0.01, 1.02
163, 0.00, 37387.27, 0.00, 0.00, 0.00, 0.00, 0.00, 0.00, 0.01, 0.01, 1.01
164, 0.00, 37380.56, 0.00, 0.00, 0.00, 0.00, 0.00, 0.00, 0.01, 0.01, 1.01
165, 0.00, 37381.14, 0.00, 0.00, 0.00, 0.00, 0.00, 0.00, 0.01, 0.01, 1.01
166, 0.00, 37405.17, 0.00, 0.00, 0.00, 0.00, 0.00, 0.00, 0.01, 0.01, 1.01
167, 0.00, 37414.54, 0.00, 0.00, 0.00, 0.00, 0.00, 0.00, 0.01, 0.01, 1.01
168, 0.00, 37407.79, 0.00, 0.00, 0.00, 0.00, 0.00, 0.00, 0.01, 0.01, 1.01
169, 0.00, 37409.46, 0.00, 0.00, 0.00, 0.00, 0.00, 0.00, 0.01, 0.01, 1.01
170, 0.00, 37427.41, 0.00, 0.00, 0.00, 0.00, 0.00, 0.00, 0.01, 0.01, 1.01
171, 0.00, 37429.22, 0.00, 0.00, 0.00, 0.00, 0.00, 0.00, 0.01, 0.01, 1.01
172, 0.00, 37421.27, 0.00, 0.00, 0.00, 0.00, 0.00, 0.00, 0.01, 0.01, 1.01
173, 0.00, 37419.12, 0.00, 0.00, 0.00, 0.00, 0.00, 0.00, 0.00, 0.01, 1.01
174, 0.00, 37448.11, 0.00, 0.00, 0.00, 0.00, 0.00, 0.00, 0.00, 0.01, 1.01
175, 0.00, 37460.98, 0.00, 0.00, 0.00, 0.00, 0.00, 0.00, 0.00, 0.01, 1.01
176, 0.00, 37454.62, 0.00, 0.00, 0.00, 0.00, 0.00, 0.00, 0.00, 0.01, 1.01
177, 0.00, 37455.96, 0.00, 0.00, 0.00, 0.00, 0.00, 0.00, 0.00, 0.01, 1.01
178, 0.00, 37465.57, 0.00, 0.00, 0.00, 0.00, 0.00, 0.00, 0.00, 0.01, 1.02
179, 0.00, 37486.13, 0.00, 0.00, 0.00, 0.00, 0.00, 0.00, 0.00, 0.01, 1.02
180, 0.00, 37480.75, 0.00, 0.00, 0.00, 0.00, 0.00, 0.00, 0.00, 0.01, 1.02
181, 0.00, 37477.01, 0.00, 0.00, 0.00, 0.00, 0.00, 0.00, 0.00, 0.01, 1.02
182, 0.00, 37494.80, 0.00, 0.00, 0.00, 0.00, 0.00, 0.00, 0.00, 0.01, 1.02
183, 0.00, 37509.40, 0.00, 0.00, 0.00, 0.00, 0.00, 0.00, 0.01, 0.01, 1.02
184, 0.00, 37509.80, 0.00, 0.00, 0.00, 0.00, 0.00, 0.00, 0.01, 0.01, 1.02
185, 0.00, 37506.92, 0.00, 0.00, 0.00, 0.00, 0.00, 0.00, 0.01, 0.01, 1.02
186, 0.00, 37516.20, 0.00, 0.00, 0.00, 0.00, 0.00, 0.00, 0.01, 0.01, 1.02
187, 0.00, 37532.87, 0.00, 0.00, 0.00, 0.00, 0.00, 0.00, 0.01, 0.01, 1.02
188, 0.00, 37534.43, 0.00, 0.00, 0.00, 0.00, 0.00, 0.00, 0.01, 0.01, 1.02
189, 0.00, 37517.31, 0.00, 0.00, 0.00, 0.00, 0.00, 0.00, 0.01, 0.01, 1.02
190, 0.00, 37523.08, 0.00, 0.00, 0.00, 0.00, 0.00, 0.00, 0.01, 0.01, 1.02
191, 0.00, 37550.80, 0.00, 0.00, 0.00, 0.00, 0.00, 0.00, 0.01, 0.01, 1.02
192, 0.00, 37561.57, 0.00, 0.00, 0.00, 0.00, 0.00, 0.00, 0.01, 0.01, 1.02
193, 0.00, 37552.85, 0.00, 0.00, 0.00, 0.00, 0.00, 0.00, 0.01, 0.00, 1.02
194, 0.00, 37556.34, 0.00, 0.00, 0.00, 0.00, 0.00, 0.00, 0.01, 0.00, 1.02
195, 0.00, 37580.48, 0.00, 0.00, 0.00, 0.00, 0.00, 0.00, 0.01, 0.00, 1.02
196, 0.00, 37590.34, 0.00, 0.00, 0.00, 0.00, 0.00, 0.00, 0.01, 0.00, 1.02
197, 0.00, 37578.49, 0.00, 0.00, 0.00, 0.00, 0.00, 0.00, 0.01, 0.00, 1.02
198, 0.00, 37573.01, 0.00, 0.00, 0.00, 0.00, 0.00, 0.00, 0.01, 0.00, 1.02
199, 0.00, 37591.70, 0.00, 0.00, 0.00, 0.00, 0.00, 0.00, 0.01, 0.00, 1.02
200, 0.00, 37614.27, 0.00, 0.00, 0.00, 0.00, 0.00, 0.00, 0.01, 0.00, 1.02
201, 0.00, 37607.10, 0.00, 0.00, 0.00, 0.00, 0.00, 0.00, 0.01, 0.00, 1.02
202, 0.00, 37601.76, 0.00, 0.00, 0.00, 0.00, 0.00, 0.00, 0.01, 0.00, 1.02
203, 0.00, 37616.04, 0.00, 0.00, 0.00, 0.00, 0.00, 0.00, 0.01, 0.00, 1.02
204, 0.00, 37638.55, 0.00, 0.00, 0.00, 0.00, 0.00, 0.00, 0.01, 0.00, 1.02
205, 0.00, 37633.72, 0.00, 0.00, 0.00, 0.00, 0.00, 0.00, 0.01, 0.00, 1.02
206, 0.00, 37627.02, 0.00, 0.00, 0.00, 0.00, 0.00, 0.00, 0.01, 0.00, 1.02
207, 0.00, 37640.83, 0.00, 0.00, 0.00, 0.00, 0.00, 0.00, 0.01, 0.00, 1.02
208, 0.00, 37661.50, 0.00, 0.00, 0.00, 0.00, 0.00, 0.00, 0.01, 0.01, 1.01
209, 0.00, 37664.66, 0.00, 0.00, 0.00, 0.00, 0.00, 0.00, 0.01, 0.01, 1.01
210, 0.00, 37649.86, 0.00, 0.00, 0.00, 0.00, 0.00, 0.00, 0.01, 0.01, 1.01
211, 0.00, 37655.82, 0.00, 0.00, 0.00, 0.00, 0.00, 0.00, 0.01, 0.01, 1.01
212, 0.00, 37687.75, 0.00, 0.00, 0.00, 0.00, 0.00, 0.00, 0.01, 0.01, 1.01
213, 0.00, 37684.35, 0.00, 0.00, 0.00, 0.00, 0.00, 0.00, 0.01, 0.01, 1.02
214, 0.00, 37673.71, 0.00, 0.00, 0.00, 0.00, 0.00, 0.00, 0.01, 0.01, 1.02
215, 0.00, 37675.96, 0.00, 0.00, 0.00, 0.00, 0.00, 0.00, 0.01, 0.01, 1.02
216, 0.00, 37701.16, 0.00, 0.00, 0.00, 0.00, 0.00, 0.00, 0.01, 0.01, 1.02
217, 0.00, 37719.30, 0.00, 0.00, 0.00, 0.00, 0.00, 0.00, 0.01, 0.01, 1.02
218, 0.00, 37707.64, 0.00, 0.00, 0.00, 0.00, 0.00, 0.00, 0.01, 0.01, 1.01
219, 0.00, 37692.66, 0.00, 0.00, 0.00, 0.00, 0.00, 0.00, 0.01, 0.01, 1.01
220, 0.00, 37714.39, 0.00, 0.00, 0.00, 0.00, 0.00, 0.00, 0.01, 0.01, 1.01
221, 0.00, 37740.41, 0.00, 0.00, 0.00, 0.00, 0.00, 0.00, 0.01, 0.01, 1.01
222, 0.00, 37736.80, 0.00, 0.00, 0.00, 0.00, 0.00, 0.00, 0.01, 0.01, 1.01
223, 0.00, 37725.27, 0.00, 0.00, 0.00, 0.00, 0.00, 0.00, 0.01, 0.02, 1.01
224, 0.00, 37745.81, 0.00, 0.00, 0.00, 0.00, 0.00, 0.00, 0.01, 0.02, 1.01
225, 0.00, 37770.40, 0.00, 0.00, 0.00, 0.00, 0.00, 0.00, 0.01, 0.02, 1.01
226, 0.00, 37765.02, 0.00, 0.00, 0.00, 0.00, 0.00, 0.00, 0.01, 0.02, 1.01
227, 0.00, 37761.68, 0.00, 0.00, 0.00, 0.00, 0.00, 0.00, 0.01, 0.02, 1.01
228, 0.00, 37774.25, 0.00, 0.00, 0.00, 0.00, 0.00, 0.00, 0.01, 0.02, 1.01
229, 0.00, 37784.71, 0.00, 0.00, 0.00, 0.00, 0.00, 0.00, 0.01, 0.02, 1.01
230, 0.00, 37779.27, 0.00, 0.00, 0.00, 0.00, 0.00, 0.00, 0.01, 0.02, 1.01
231, 0.00, 37765.51, 0.00, 0.00, 0.00, 0.00, 0.00, 0.00, 0.01, 0.02, 1.01
232, 0.00, 37787.72, 0.00, 0.00, 0.00, 0.00, 0.00, 0.00, 0.01, 0.02, 1.01
233, 0.00, 37807.15, 0.00, 0.00, 0.00, 0.00, 0.00, 0.00, 0.01, 0.02, 1.01
234, 0.00, 37804.62, 0.00, 0.00, 0.00, 0.00, 0.00, 0.00, 0.01, 0.02, 1.01
235, 0.00, 37799.59, 0.00, 0.00, 0.00, 0.00, 0.00, 0.00, 0.01, 0.02, 1.01
236, 0.00, 37811.39, 0.00, 0.00, 0.00, 0.00, 0.00, 0.00, 0.01, 0.02, 1.01
237, 0.00, 37829.50, 0.00, 0.00, 0.00, 0.00, 0.00, 0.00, 0.01, 0.02, 1.01
238, 0.00, 37830.71, 0.00, 0.00, 0.00, 0.00, 0.00, 0.00, 0.01, 0.01, 1.02
239, 0.00, 37826.73, 0.00, 0.00, 0.00, 0.00, 0.00, 0.00, 0.01, 0.01, 1.02
240, 0.00, 37829.68, 0.00, 0.00, 0.00, 0.00, 0.00, 0.00, 0.01, 0.01, 1.02
241, 0.00, 37853.39, 0.00, 0.00, 0.00, 0.00, 0.00, 0.00, 0.01, 0.01, 1.02
242, 0.00, 37865.75, 0.00, 0.00, 0.00, 0.00, 0.00, 0.00, 0.01, 0.01, 1.02
243, 0.00, 37853.68, 0.00, 0.00, 0.00, 0.00, 0.00, 0.00, 0.01, 0.01, 1.01
244, 0.00, 37855.02, 0.00, 0.00, 0.00, 0.00, 0.00, 0.00, 0.01, 0.01, 1.01
245, 0.00, 37872.91, 0.00, 0.00, 0.00, 0.00, 0.00, 0.00, 0.01, 0.01, 1.01
246, 0.00, 37884.35, 0.00, 0.00, 0.00, 0.00, 0.00, 0.00, 0.01, 0.01, 1.01
247, 0.00, 37880.02, 0.00, 0.00, 0.00, 0.00, 0.00, 0.00, 0.01, 0.01, 1.01
248, 0.00, 37876.77, 0.00, 0.00, 0.00, 0.00, 0.00, 0.00, 0.01, 0.01, 1.01
249, 0.00, 37890.48, 0.00, 0.00, 0.00, 0.00, 0.00, 0.00, 0.01, 0.01, 1.01
250, 0.00, 37906.70, 0.00, 0.00, 0.00, 0.00, 0.00, 0.00, 0.01, 0.01, 1.01
251, 0.00, 37900.27, 0.00, 0.00, 0.00, 0.00, 0.00, 0.00, 0.01, 0.01, 1.01
252, 0.00, 37888.02, 0.00, 0.00, 0.00, 0.00, 0.00, 0.00, 0.01, 0.01, 1.01
253, 0.00, 37906.64, 0.00, 0.00, 0.00, 0.00, 0.00, 0.00, 0.01, 0.01, 1.01
254, 0.00, 37936.03, 0.00, 0.00, 0.00, 0.00, 0.00, 0.00, 0.01, 0.01, 1.01
255, 0.00, 37939.36, 0.00, 0.00, 0.00, 0.00, 0.00, 0.00, 0.01, 0.01, 1.01
0, 0.00, 37928.94, 0.00, 0.00, 0.00, 0.00, 0.00, 0.00, 0.01, 0.01, 1.01
1, 0.00, 37941.44, 0.00, 0.00, 0.00, 0.00, 0.00, 0.00, 0.01, 0.01, 1.01
2, 0.00, 37960.55, 0.00, 0.00, 0.00, 0.00, 0.00, 0.00, 0.01, 0.01, 1.01
3, 0.00, 37959.03, 0.00, 0.00, 0.00, 0.00, 0.00, 0.00, 0.01, 0.01, 1.01
4, 0.00, 37949.37, 0.00, 0.00, 0.00, 0.00, 0.00, 0.00, 0.01, 0.01, 1.01
5, 0.00, 37957.71, 0.00, 0.00, 0.00, 0.00, 0.00, 0.00, 0.01, 0.01, 1.01
6, 0.00, 37977.73, 0.00, 0.00, 0.00, 0.00, 0.00, 0.00, 0.01, 0.01, 1.01
7, 0.00, 37985.09, 0.00, 0.00, 0.00, 0.00, 0.00, 0.00, 0.01, 0.01, 1.02
8, 0.00, 37966.43, 0.00, 0.00, 0.00, 0.00, 0.00, 0.00, 0.01, 0.01, 1.02
9, 0.00, 37968.71, 0.00, 0.00, 0.00, 0.00, 0.00, 0.00, 0.01, 0.01, 1.02
10, 0.00, 37998.72, 0.00, 0.00, 0.00, 0.00, 0.00, 0.00, 0.01, 0.01, 1.02
11, 0.00, 38013.41, 0.00, 0.00, 0.00, 0.00, 0.00, 0.00, 0.01, 0.01, 1.02
12, 0.00, 38007.15, 0.00, 0.00, 0.00, 0.00, 0.00, 0.00, 0.01, 0.01, 1.02
13, 0.00, 37998.37, 0.00, 0.00, 0.00, 0.00, 0.00, 0.00, 0.01, 0.01, 1.02
14, 0.00, 38021.19, 0.00, 0.00, 0.00, 0.00, 0.00, 0.00, 0.01, 0.01, 1.02
15, 0.00, 38035.54, 0.00, 0.00, 0.00, 0.00, 0.00, 0.00, 0.01, 0.01, 1.02
16, 0.00, 38030.62, 0.00, 0.00, 0.00, 0.00, 0.00, 0.00, 0.01, 0.01, 1.02
17, 0.00, 38026.78, 0.00, 0.00, 0.00, 0.00, 0.00, 0.00, 0.01, 0.01, 1.01
18, 0.00, 38041.57, 0.00, 0.00, 0.00, 0.00, 0.00, 0.00, 0.01, 0.01, 1.01
19, 0.00, 38063.39, 0.00, 0.00, 0.00, 0.00, 0.00, 0.00, 0.01, 0.01, 1.01
20, 0.00, 38059.72, 0.00, 0.00, 0.00, 0.00, 0.00, 0.00, 0.01, 0.01, 1.01
21, 0.00, 38048.14, 0.00, 0.00, 0.00, 0.00, 0.00, 0.00, 0.01, 0.01, 1.01
22, 0.00, 38063.97, 0.00, 0.00, 0.00, 0.00, 0.00, 0.00, 0.01, 0.01, 1.02
23, 0.00, 38086.07, 0.00, 0.00, 0.00, 0.00, 0.00, 0.00, 0.01, 0.01, 1.02
24, 0.00, 38085.11, 0.00, 0.00, 0.00, 0.00, 0.00, 0.00, 0.01, 0.01, 1.02
25, 0.00, 38072.93, 0.00, 0.00, 0.00, 0.00, 0.00, 0.00, 0.01, 0.01, 1.02
26, 0.00, 38085.09, 0.00, 0.00, 0.00, 0.00, 0.00, 0.00, 0.01, 0.01, 1.02
27, 0.00, 38113.14, 0.00, 0.00, 0.00, 0.00, 0.00, 0.00, 0.01, 0.01, 1.02
28, 0.00, 38113.16, 0.00, 0.00, 0.00, 0.00, 0.00, 0.00, 0.01, 0.01, 1.02
29, 0.00, 38106.46, 0.00, 0.00, 0.00, 0.00, 0.00, 0.00, 0.01, 0.01, 1.02
30, 0.00, 38108.65, 0.00, 0.00, 0.00, 0.00, 0.00, 0.00, 0.01, 0.01, 1.02
31, 0.00, 38126.80, 0.00, 0.00, 0.00, 0.00, 0.00, 0.00, 0.01, 0.01, 1.02
32, 0.00, 38133.53, 0.00, 0.00, 0.00, 0.00, 0.00, 0.00, 0.01, 0.02, 1.02
33, 0.00, 38133.28, 0.00, 0.00, 0.00, 0.00, 0.00, 0.00, 0.01, 0.02, 1.02
34, 0.00, 38137.98, 0.00, 0.00, 0.00, 0.00, 0.00, 0.00, 0.01, 0.02, 1.02
35, 0.00, 38158.58, 0.00, 0.00, 0.00, 0.00, 0.00, 0.00, 0.01, 0.02, 1.02
36, 0.00, 38173.45, 0.00, 0.00, 0.00, 0.00, 0.00, 0.00, 0.01, 0.02, 1.02
37, 0.00, 38161.09, 0.00, 0.00, 0.00, 0.00, 0.00, 0.00, 0.01, 0.01, 1.02
38, 0.00, 38154.16, 0.00, 0.00, 0.00, 0.00, 0.00, 0.00, 0.01, 0.01, 1.02
39, 0.00, 38173.20, 0.00, 0.00, 0.00, 0.00, 0.00, 0.00, 0.01, 0.01, 1.02
40, 0.00, 38187.37, 0.00, 0.00, 0.00, 0.00, 0.00, 0.00, 0.01, 0.01, 1.02
41, 0.00, 38177.76, 0.00, 0.00, 0.00, 0.00, 0.00, 0.00, 0.01, 0.01, 1.02
42, 0.00, 38172.44, 0.00, 0.00, 0.00, 0.00, 0.00, 0.00, 0.01, 0.02, 1.02
43, 0.00, 38194.75, 0.00, 0.00, 0.00, 0.00, 0.00, 0.00, 0.01, 0.02, 1.02
44, 0.00, 38216.50, 0.00, 0.00, 0.00, 0.00, 0.00, 0.00, 0.01, 0.02, 1.02
45, 0.00, 38211.60, 0.00, 0.00, 0.00, 0.00, 0.00, 0.00, 0.01, 0.02, 1.02
46, 0.00, 38204.07, 0.00, 0.00, 0.00, 0.00, 0.00, 0.00, 0.01, 0.02, 1.02
47, 0.00, 38225.32, 0.00, 0.00, 0.00, 0.00, 0.00, 0.00, 0.01, 0.02, 1.02
48, 0.00, 38241.60, 0.00, 0.00, 0.00, 0.00, 0.00, 0.00, 0.01, 0.02, 1.02
49, 0.00, 38241.35, 0.00, 0.00, 0.00, 0.00, 0.00, 0.00, 0.01, 0.02, 1.02
50, 0.00, 38228.48, 0.00, 0.00, 0.00, 0.00, 0.00, 0.00, 0.01, 0.02, 1.02
51, 0.00, 38241.91, 0.00, 0.00, 0.00, 0.00, 0.00, 0.00, 0.01, 0.02, 1.02
52, 0.00, 38266.14, 0.00, 0.00, 0.00, 0.00, 0.00, 0.00, 0.01, 0.02, 1.02
53, 0.00, 38271.01, 0.00, 0.00, 0.00, 0.00, 0.00, 0.00, 0.01, 0.02, 1.02
54, 0.00, 38263.59, 0.00, 0.00, 0.00, 0.00, 0.00, 0.00, 0.01, 0.02, 1.02
55, 0.00, 38264.62, 0.00, 0.00, 0.00, 0.00, 0.00, 0.00, 0.01, 0.02, 1.02
56, 0.00, 38280.45, 0.00, 0.00, 0.00, 0.00, 0.00, 0.00, 0.01, 0.02, 1.02
57, 0.00, 38286.23, 0.00, 0.00, 0.00, 0.00, 0.00, 0.00, 0.01, 0.02, 1.02
58, 0.00, 38280.76, 0.00, 0.00, 0.00, 0.00, 0.00, 0.00, 0.01, 0.02, 1.02
59, 0.00, 38279.21, 0.00, 0.00, 0.00, 0.00, 0.00, 0.00, 0.01, 0.02, 1.02
60, 0.00, 38305.57, 0.00, 0.00, 0.00, 0.00, 0.00, 0.00, 0.01, 0.02, 1.02
61, 0.00, 38324.75, 0.00, 0.00, 0.00, 0.00, 0.00, 0.00, 0.01, 0.02, 1.02
62, 0.00, 38310.69, 0.00, 0.00, 0.00, 0.00, 0.00, 0.00, 0.01, 0.01, 1.02
63, 0.00, 38309.39, 0.00, 0.00, 0.00, 0.00, 0.00, 0.00, 0.01, 0.01, 1.02
64, 0.00, 38325.11, 0.00, 0.00, 0.00, 0.00, 0.00, 0.00, 0.01, 0.01, 1.02
65, 0.00, 38349.54, 0.00, 0.00, 0.00, 0.00, 0.00, 0.00, 0.01, 0.01, 1.02
66, 0.00, 38345.94, 0.00, 0.00, 0.00, 0.00, 0.00, 0.00, 0.01, 0.01, 1.02
67, 0.00, 38333.55, 0.00, 0.00, 0.00, 0.00, 0.00, 0.00, 0.01, 0.02, 1.02
68, 0.00, 38346.85, 0.00, 0.00, 0.00, 0.00, 0.00, 0.00, 0.01, 0.02, 1.02
69, 0.00, 38363.44, 0.00, 0.00, 0.00, 0.00, 0.00, 0.00, 0.01, 0.02, 1.02
70, 0.00, 38361.80, 0.00, 0.00, 0.00, 0.00, 0.00, 0.00, 0.01, 0.02, 1.02
71, 0.00, 38354.81, 0.00, 0.00, 0.00, 0.00, 0.00, 0.00, 0.01, 0.02, 1.02
72, 0.00, 38363.01, 0.00, 0.00, 0.00, 0.00, 0.00, 0.00, 0.00, 0.01, 1.02
73, 0.00, 38380.63, 0.00, 0.00, 0.00, 0.00, 0.00, 0.00, 0.00, 0.01, 1.02
74, 0.00, 38380.49, 0.00, 0.00, 0.00, 0.00, 0.00, 0.00, 0.00, 0.01, 1.02
75, 0.00, 38372.65, 0.00, 0.00, 0.00, 0.00, 0.00, 0.00, 0.00, 0.01, 1.02
76, 0.00, 38384.74, 0.00, 0.00, 0.00, 0.00, 0.00, 0.00, 0.00, 0.01, 1.02
77, 0.00, 38399.27, 0.00, 0.00, 0.00, 0.00, 0.00, 0.00, 0.01, 0.01, 1.02
78, 0.00, 38405.64, 0.00, 0.00, 0.00, 0.00, 0.00, 0.00, 0.01, 0.01, 1.02
79, 0.00, 38408.36, 0.00, 0.00, 0.00, 0.00, 0.00, 0.00, 0.01, 0.01, 1.02
80, 0.00, 38411.72, 0.00, 0.00, 0.00, 0.00, 0.00, 0.00, 0.01, 0.01, 1.02
81, 0.00, 38429.44, 0.00, 0.00, 0.00, 0.00, 0.00, 0.00, 0.01, 0.01, 1.02
82, 0.00, 38440.82, 0.00, 0.00, 0.00, 0.00, 0.00, 0.00, 0.01, 0.01, 1.02
83, 0.00, 38431.59, 0.00, 0.00, 0.00, 0.00, 0.00, 0.00, 0.01, 0.01, 1.02
84, 0.00, 38432.06, 0.00, 0.00, 0.00, 0.00, 0.00, 0.00, 0.01, 0.01, 1.02
85, 0.00, 38457.70, 0.00, 0.00, 0.00, 0.00, 0.00, 0.00, 0.01, 0.01, 1.02
86, 0.00, 38476.40, 0.00, 0.00, 0.00, 0.00, 0.00, 0.00, 0.01, 0.01, 1.02
87, 0.00, 38463.17, 0.00, 0.00, 0.00, 0.00, 0.00, 0.00, 0.00, 0.02, 1.01
88, 0.00, 38459.68, 0.00, 0.00, 0.00, 0.00, 0.00, 0.00, 0.00, 0.02, 1.01
89, 0.00, 38481.90, 0.00, 0.00, 0.00, 0.00, 0.00, 0.00, 0.00, 0.02, 1.01
90, 0.00, 38508.86, 0.00, 0.00, 0.00, 0.00, 0.00, 0.00, 0.00, 0.02, 1.01
91, 0.00, 38497.66, 0.00, 0.00, 0.00, 0.00, 0.00, 0.00, 0.00, 0.02, 1.01
92, 0.00, 38484.50, 0.00, 0.00, 0.00, 0.00, 0.00, 0.00, 0.01, 0.01, 1.02
93, 0.00, 38499.09, 0.00, 0.00, 0.00, 0.00, 0.00, 0.00, 0.01, 0.01, 1.02
94, 0.00, 38515.70, 0.00, 0.00, 0.00, 0.00, 0.00, 0.00, 0.01, 0.01, 1.02
95, 0.00, 38519.52, 0.00, 0.00, 0.00, 0.00, 0.00, 0.00, 0.01, 0.01, 1.02
96, 0.00, 38504.28, 0.00, 0.00, 0.00, 0.00, 0.00, 0.00, 0.01, 0.01, 1.02
97, 0.00, 38513.60, 0.00, 0.00, 0.00, 0.00, 0.00, 0.00, 0.01, 0.01, 1.02
98, 0.00, 38544.66, 0.00, 0.00, 0.00, 0.00, 0.00, 0.00, 0.01, 0.01, 1.02
99, 0.00, 38543.44, 0.00, 0.00, 0.00, 0.00, 0.00, 0.00, 0.01, 0.01, 1.02
100, 0.00, 38530.74, 0.00, 0.00, 0.00, 0.00, 0.00, 0.00, 0.01, 0.01, 1.02
101, 0.00, 38538.38, 0.00, 0.00, 0.00, 0.00, 0.00, 0.00, 0.01, 0.01, 1.02
102, 0.00, 38560.78, 0.00, 0.00, 0.00, 0.00, 0.00, 0.00, 0.01, 0.02, 1.02
103, 0.00, 38566.41, 0.00, 0.00, 0.00, 0.00, 0.00, 0.00, 0.01, 0.02, 1.02
104, 0.00, 38560.47, 0.00, 0.00, 0.00, 0.00, 0.00, 0.00, 0.01, 0.02, 1.02
105, 0.00, 38563.60, 0.00, 0.00, 0.00, 0.00, 0.00, 0.00, 0.01, 0.02, 1.02
106, 0.00, 38590.60, 0.00, 0.00, 0.00, 0.00, 0.00, 0.00, 0.01, 0.02, 1.02
107, 0.00, 38601.75, 0.00, 0.00, 0.00, 0.00, 0.00, 0.00, 0.01, 0.01, 1.02
108, 0.00, 38585.97, 0.00, 0.00, 0.00, 0.00, 0.00, 0.00, 0.01, 0.01, 1.02
109, 0.00, 38590.04, 0.00, 0.00, 0.00, 0.00, 0.00, 0.00, 0.01, 0.01, 1.02
110, 0.00, 38612.32, 0.00, 0.00, 0.00, 0.00, 0.00, 0.00, 0.01, 0.01, 1.02
111, 0.00, 38628.93, 0.00, 0.00, 0.00, 0.00, 0.00, 0.00, 0.01, 0.01, 1.02
112, 0.00, 38613.66, 0.00, 0.00, 0.00, 0.00, 0.00, 0.00, 0.01, 0.02, 1.02
113, 0.00, 38604.68, 0.00, 0.00, 0.00, 0.00, 0.00, 0.00, 0.01, 0.02, 1.02
114, 0.00, 38624.64, 0.00, 0.00, 0.00, 0.00, 0.00, 0.00, 0.01, 0.02, 1.02
115, 0.00, 38652.76, 0.00, 0.00, 0.00, 0.00, 0.00, 0.00, 0.01, 0.02, 1.02
116, 0.00, 38649.25, 0.00, 0.00, 0.00, 0.00, 0.00, 0.00, 0.01, 0.02, 1.02
117, 0.00, 38638.18, 0.00, 0.00, 0.00, 0.00, 0.00, 0.00, 0.01, 0.02, 1.02
118, 0.00, 38650.01, 0.00, 0.00, 0.00, 0.00, 0.00, 0.00, 0.01, 0.02, 1.02
119, 0.00, 38670.04, 0.00, 0.00, 0.00, 0.00, 0.00, 0.00, 0.01, 0.02, 1.02
120, 0.00, 38666.91, 0.00, 0.00, 0.00, 0.00, 0.00, 0.00, 0.01, 0.02, 1.02
121, 0.00, 38656.47, 0.00, 0.00, 0.00, 0.00, 0.00, 0.00, 0.01, 0.02, 1.02
122, 0.00, 38670.37, 0.00, 0.00, 0.00, 0.00, 0.00, 0.00, 0.01, 0.01, 1.02
123, 0.00, 38695.03, 0.00, 0.00, 0.00, 0.00, 0.00, 0.00, 0.01, 0.01, 1.02
124, 0.00, 38700.50, 0.00, 0.00, 0.00, 0.00, 0.00, 0.00, 0.01, 0.01, 1.02
125, 0.00, 38691.54, 0.00, 0.00, 0.00, 0.00, 0.00, 0.00, 0.01, 0.01, 1.02
126, 0.00, 38697.95, 0.00, 0.00, 0.00, 0.00, 0.00, 0.00, 0.01, 0.01, 1.02
127, 0.00, 38720.53, 0.00, 0.00, 0.00, 0.00, 0.00, 0.00, 0.01, 0.01, 1.02
128, 0.00, 38732.31, 0.00, 0.00, 0.00, 0.00, 0.00, 0.00, 0.01, 0.01, 1.03
129, 0.00, 38720.44, 0.00, 0.00, 0.00, 0.00, 0.00, 0.00, 0.01, 0.01, 1.03
130, 0.00, 38716.66, 0.00, 0.00, 0.00, 0.00, 0.00, 0.00, 0.01, 0.01, 1.03
131, 0.00, 38737.34, 0.00, 0.00, 0.00, 0.00, 0.00, 0.00, 0.01, 0.01, 1.03
132, 0.00, 38752.63, 0.00, 0.00, 0.00, 0.00, 0.00, 0.00, 0.01, 0.01, 1.03
133, 0.00, 38736.82, 0.00, 0.00, 0.00, 0.00, 0.00, 0.00, 0.01, 0.01, 1.02
134, 0.00, 38740.54, 0.00, 0.00, 0.00, 0.00, 0.00, 0.00, 0.01, 0.01, 1.02
135, 0.00, 38763.80, 0.00, 0.00, 0.00, 0.00, 0.00, 0.00, 0.01, 0.01, 1.02
136, 0.00, 38777.01, 0.00, 0.00, 0.00, 0.00, 0.00, 0.00, 0.01, 0.01, 1.02
137, 0.00, 38767.42, 0.00, 0.00, 0.00, 0.00, 0.00, 0.00, 0.01, 0.01, 1.02
138, 0.00, 38759.96, 0.00, 0.00, 0.00, 0.00, 0.00, 0.00, 0.01, 0.01, 1.03
139, 0.00, 38775.54, 0.00, 0.00, 0.00, 0.00, 0.00, 0.00, 0.01, 0.01, 1.03
140, 0.00, 38796.35, 0.00, 0.00, 0.00, 0.00, 0.00, 0.00, 0.01, 0.01, 1.03
141, 0.00, 38795.90, 0.00, 0.00, 0.00, 0.00, 0.00, 0.00, 0.01, 0.01, 1.03
142, 0.00, 38784.16, 0.00, 0.00, 0.00, 0.00, 0.00, 0.00, 0.01, 0.01, 1.03
143, 0.00, 38799.41, 0.00, 0.00, 0.00, 0.00, 0.00, 0.00, 0.01, 0.01, 1.02
144, 0.00, 38822.52, 0.00, 0.00, 0.00, 0.00, 0.00, 0.00, 0.01, 0.01, 1.02
145, 0.00, 38818.88, 0.00, 0.00, 0.00, 0.00, 0.00, 0.00, 0.01, 0.01, 1.02
146, 0.00, 38814.16, 0.00, 0.00, 0.00, 0.00, 0.00, 0.00, 0.01, 0.01, 1.02
147, 0.00, 38820.87, 0.00, 0.00, 0.00, 0.00, 0.00, 0.00, 0.01, 0.01, 1.02
148, 0.00, 38847.84, 0.00, 0.00, 0.00, 0.00, 0.00, 0.00, 0.01, 0.01, 1.02
149, 0.00, 38851.36, 0.00, 0.00, 0.00, 0.00, 0.00, 0.00, 0.01, 0.01, 1.02
150, 0.00, 38843.62, 0.00, 0.00, 0.00, 0.00, 0.00, 0.00, 0.01, 0.01, 1.02
151, 0.00, 38848.09, 0.00, 0.00, 0.00, 0.00, 0.00, 0.00, 0.01, 0.01, 1.02
152, 0.00, 38873.66, 0.00, 0.00, 0.00, 0.00, 0.00, 0.00, 0.01, 0.01, 1.02
153, 0.00, 38880.61, 0.00, 0.00, 0.00, 0.00, 0.00, 0.00, 0.00, 0.01, 1.01
154, 0.00, 38868.99, 0.00, 0.00, 0.00, 0.00, 0.00, 0.00, 0.00, 0.01, 1.01
155, 0.00, 38870.73, 0.00, 0.00, 0.00, 0.00, 0.00, 0.00, 0.00, 0.01, 1.01
156, 0.00, 38899.88, 0.00, 0.00, 0.00, 0.00, 0.00, 0.00, 0.00, 0.01, 1.01
157, 0.00, 38909.38, 0.00, 0.00, 0.00, 0.00, 0.00, 0.00, 0.00, 0.01, 1.01
158, 0.00, 38900.06, 0.00, 0.00, 0.00, 0.00, 0.00, 0.00, 0.01, 0.01, 1.01
159, 0.00, 38897.46, 0.00, 0.00, 0.00, 0.00, 0.00, 0.00, 0.01, 0.01, 1.01
160, 0.00, 38909.87, 0.00, 0.00, 0.00, 0.00, 0.00, 0.00, 0.01, 0.01, 1.01
161, 0.00, 38928.85, 0.00, 0.00, 0.00, 0.00, 0.00, 0.00, 0.01, 0.01, 1.01
162, 0.00, 38927.73, 0.00, 0.00, 0.00, 0.00, 0.00, 0.00, 0.01, 0.01, 1.01
163, 0.00, 38918.03, 0.00, 0.00, 0.00, 0.00, 0.00, 0.00, 0.01, 0.01, 1.01
164, 0.00, 38926.59, 0.00, 0.00, 0.00, 0.00, 0.00, 0.00, 0.01, 0.01, 1.01
165, 0.00, 38946.21, 0.00, 0.00, 0.00, 0.00, 0.00, 0.00, 0.01, 0.01, 1.01
166, 0.00, 38943.69, 0.00, 0.00, 0.00, 0.00, 0.00, 0.00, 0.01, 0.01, 1.01
167, 0.00, 38935.98, 0.00, 0.00, 0.00, 0.00, 0.00, 0.00, 0.01, 0.01, 1.01
168, 0.00, 38943.02, 0.00, 0.00, 0.00, 0.00, 0.00, 0.00, 0.01, 0.01, 1.02
169, 0.00, 38969.35, 0.00, 0.00, 0.00, 0.00, 0.00, 0.00, 0.01, 0.01, 1.02
170, 0.00, 38976.01, 0.00, 0.00, 0.00, 0.00, 0.00, 0.00, 0.01, 0.01, 1.02
171, 0.00, 38960.95, 0.00, 0.00, 0.00, 0.00, 0.00, 0.00, 0.01, 0.01, 1.02
172, 0.00, 38969.71, 0.00, 0.00, 0.00, 0.00, 0.00, 0.00, 0.01, 0.01, 1.02
173, 0.00, 38994.00, 0.00, 0.00, 0.00, 0.00, 0.00, 0.00, 0.01, 0.01, 1.02
174, 0.00, 38997.29, 0.00, 0.00, 0.00, 0.00, 0.00, 0.00, 0.01, 0.01, 1.02
175, 0.00, 38987.39, 0.00, 0.00, 0.00, 0.00, 0.00, 0.00, 0.01, 0.01, 1.02
176, 0.00, 38990.92, 0.00, 0.00, 0.00, 0.00, 0.00, 0.00, 0.01, 0.01, 1.02
177, 0.00, 39013.58, 0.00, 0.00, 0.00, 0.00, 0.00, 0.00, 0.01, 0.01, 1.02
178, 0.00, 39023.08, 0.00, 0.00, 0.00, 0.00, 0.00, 0.00, 0.01, 0.01, 1.02
179, 0.00, 39009.13, 0.00, 0.00, 0.00, 0.00, 0.00, 0.00, 0.01, 0.01, 1.02
180, 0.00, 39007.88, 0.00, 0.00, 0.00, 0.00, 0.00, 0.00, 0.01, 0.01, 1.02
181, 0.00, 39027.11, 0.00, 0.00, 0.00, 0.00, 0.00, 0.00, 0.01, 0.01, 1.02
182, 0.00, 39041.70, 0.00, 0.00, 0.00, 0.00, 0.00, 0.00, 0.01, 0.01, 1.02
183, 0.00, 39038.41, 0.00, 0.00, 0.00, 0.00, 0.00, 0.00, 0.01, 0.01, 1.01
184, 0.00, 39031.35, 0.00, 0.00, 0.00, 0.00, 0.00, 0.00, 0.01, 0.01, 1.01
185, 0.00, 39048.16, 0.00, 0.00, 0.00, 0.00, 0.00, 0.00, 0.01, 0.01, 1.01
186, 0.00, 39072.08, 0.00, 0.00, 0.00, 0.00, 0.00, 0.00, 0.01, 0.01, 1.01
187, 0.00, 39061.84, 0.00, 0.00, 0.00, 0.00, 0.00, 0.00, 0.01, 0.01, 1.01
188, 0.00, 39055.11, 0.00, 0.00, 0.00, 0.00, 0.00, 0.00, 0.01, 0.00, 1.02
189, 0.00, 39073.04, 0.00, 0.00, 0.00, 0.00, 0.00, 0.00, 0.01, 0.00, 1.02
190, 0.00, 39087.68, 0.00, 0.00, 0.00, 0.00, 0.00, 0.00, 0.01, 0.00, 1.02
191, 0.00, 39081.71, 0.00, 0.00, 0.00, 0.00, 0.00, 0.00, 0.01, 0.00, 1.02
192, 0.00, 39069.51, 0.00, 0.00, 0.00, 0.00, 0.00, 0.00, 0.01, 0.00, 1.02
193, 0.00, 39084.06, 0.00, 0.00, 0.00, 0.00, 0.00, 0.00, 0.01, 0.00, 1.02
194, 0.00, 39102.88, 0.00, 0.00, 0.00, 0.00, 0.00, 0.00, 0.01, 0.00, 1.02
195, 0.00, 39104.51, 0.00, 0.00, 0.00, 0.00, 0.00, 0.00, 0.01, 0.00, 1.02
196, 0.00, 39091.28, 0.00, 0.00, 0.00, 0.00, 0.00, 0.00, 0.01, 0.00, 1.02
197, 0.00, 39098.54, 0.00, 0.00, 0.00, 0.00, 0.00, 0.00, 0.01, 0.00, 1.02
198, 0.00, 39122.73, 0.00, 0.00, 0.00, 0.00, 0.00, 0.00, 0.01, 0.01, 1.02
199, 0.00, 39130.01, 0.00, 0.00, 0.00, 0.00, 0.00, 0.00, 0.01, 0.01, 1.02
200, 0.00, 39121.79, 0.00, 0.00, 0.00, 0.00, 0.00, 0.00, 0.01, 0.01, 1.02
201, 0.00, 39118.59, 0.00, 0.00, 0.00, 0.00, 0.00, 0.00, 0.01, 0.01, 1.02
202, 0.00, 39146.80, 0.00, 0.00, 0.00, 0.00, 0.00, 0.00, 0.01, 0.01, 1.02
203, 0.00, 39152.30, 0.00, 0.00, 0.00, 0.00, 0.00, 0.00, 0.01, 0.01, 1.02
204, 0.00, 39141.93, 0.00, 0.00, 0.00, 0.00, 0.00, 0.00, 0.01, 0.01, 1.02
205, 0.00, 39147.87, 0.00, 0.00, 0.00, 0.00, 0.00, 0.00, 0.01, 0.01, 1.02
206, 0.00, 39169.48, 0.00, 0.00, 0.00, 0.00, 0.00, 0.00, 0.01, 0.01, 1.02
207, 0.00, 39184.30, 0.00, 0.00, 0.00, 0.00, 0.00, 0.00, 0.01, 0.01, 1.02
208, 0.00, 39174.20, 0.00, 0.00, 0.00, 0.00, 0.00, 0.00, 0.01, 0.01, 1.01
209, 0.00, 39167.23, 0.00, 0.00, 0.00, 0.00, 0.00, 0.00, 0.01, 0.01, 1.01
210, 0.00, 39185.09, 0.00, 0.00, 0.00, 0.00, 0.00, 0.00, 0.01, 0.01, 1.01
211, 0.00, 39196.46, 0.00, 0.00, 0.00, 0.00, 0.00, 0.00, 0.01, 0.01, 1.01
212, 0.00, 39191.12, 0.00, 0.00, 0.00, 0.00, 0.00, 0.00, 0.01, 0.01, 1.01
213, 0.00, 39189.38, 0.00, 0.00, 0.00, 0.00, 0.00, 0.00, 0.01, 0.01, 1.02
214, 0.00, 39204.46, 0.00, 0.00, 0.00, 0.00, 0.00, 0.00, 0.01, 0.01, 1.02
215, 0.00, 39229.41, 0.00, 0.00, 0.00, 0.00, 0.00, 0.00, 0.01, 0.01, 1.02
216, 0.00, 39228.74, 0.00, 0.00, 0.00, 0.00, 0.00, 0.00, 0.01, 0.01, 1.02
217, 0.00, 39218.04, 0.00, 0.00, 0.00, 0.00, 0.00, 0.00, 0.01, 0.01, 1.02
218, 0.00, 39221.77, 0.00, 0.00, 0.00, 0.00, 0.00, 0.00, 0.01, 0.01, 1.02
219, 0.00, 39240.72, 0.00, 0.00, 0.00, 0.00, 0.00, 0.00, 0.01, 0.01, 1.02
220, 0.00, 39253.80, 0.00, 0.00, 0.00, 0.00, 0.00, 0.00, 0.01, 0.01, 1.02
221, 0.00, 39241.86, 0.00, 0.00, 0.00, 0.00, 0.00, 0.00, 0.01, 0.01, 1.02
222, 0.00, 39244.92, 0.00, 0.00, 0.00, 0.00, 0.00, 0.00, 0.01, 0.01, 1.02
223, 0.00, 39266.45, 0.00, 0.00, 0.00, 0.00, 0.00, 0.00, 0.01, 0.00, 1.02
224, 0.00, 39277.63, 0.00, 0.00, 0.00, 0.00, 0.00, 0.00, 0.01, 0.00, 1.02
225, 0.00, 39274.59, 0.00, 0.00, 0.00, 0.00, 0.00, 0.00, 0.01, 0.00, 1.02
226, 0.00, 39275.46, 0.00, 0.00, 0.00, 0.00, 0.00, 0.00, 0.01, 0.00, 1.02
227, 0.00, 39291.68, 0.00, 0.00, 0.00, 0.00, 0.00, 0.00, 0.01, 0.00, 1.02
228, 0.00, 39301.99, 0.00, 0.00, 0.00, 0.00, 0.00, 0.00, 0.01, 0.01, 1.02
229, 0.00, 39297.14, 0.00, 0.00, 0.00, 0.00, 0.00, 0.00, 0.01, 0.01, 1.02
230, 0.00, 39296.85, 0.00, 0.00, 0.00, 0.00, 0.00, 0.00, 0.01, 0.01, 1.02
231, 0.00, 39307.35, 0.00, 0.00, 0.00, 0.00, 0.00, 0.00, 0.01, 0.01, 1.02
232, 0.00, 39323.67, 0.00, 0.00, 0.00, 0.00, 0.00, 0.00, 0.01, 0.01, 1.02
233, 0.00, 39318.82, 0.00, 0.00, 0.00, 0.00, 0.00, 0.00, 0.01, 0.01, 1.02
234, 0.00, 39312.87, 0.00, 0.00, 0.00, 0.00, 0.00, 0.00, 0.01, 0.01, 1.02
235, 0.00, 39323.71, 0.00, 0.00, 0.00, 0.00, 0.00, 0.00, 0.01, 0.01, 1.02
236, 0.00, 39347.50, 0.00, 0.00, 0.00, 0.00, 0.00, 0.00, 0.01, 0.01, 1.02
237, 0.00, 39343.67, 0.00, 0.00, 0.00, 0.00, 0.00, 0.00, 0.01, 0.01, 1.02
238, 0.00, 39332.50, 0.00, 0.00, 0.00, 0.00, 0.00, 0.00, 0.01, 0.01, 1.02
239, 0.00, 39342.54, 0.00, 0.00, 0.00, 0.00, 0.00, 0.00, 0.01, 0.01, 1.02
240, 0.00, 39364.46, 0.00, 0.00, 0.00, 0.00, 0.00, 0.00, 0.01, 0.01, 1.02
241, 0.00, 39363.50, 0.00, 0.00, 0.00, 0.00, 0.00, 0.00, 0.01, 0.01, 1.02
242, 0.00, 39357.38, 0.00, 0.00, 0.00, 0.00, 0.00, 0.00, 0.01, 0.01, 1.02
243, 0.00, 39364.08, 0.00, 0.00, 0.00, 0.00, 0.00, 0.00, 0.01, 0.01, 1.02
244, 0.00, 39390.99, 0.00, 0.00, 0.00, 0.00, 0.00, 0.00, 0.01, 0.01, 1.02
245, 0.00, 39394.28, 0.00, 0.00, 0.00, 0.00, 0.00, 0.00, 0.01, 0.01, 1.02
246, 0.00, 39377.40, 0.00, 0.00, 0.00, 0.00, 0.00, 0.00, 0.01, 0.01, 1.02
247, 0.00, 39382.34, 0.00, 0.00, 0.00, 0.00, 0.00, 0.00, 0.01, 0.01, 1.02
248, 0.00, 39403.06, 0.00, 0.00, 0.00, 0.00, 0.00, 0.00, 0.01, 0.01, 1.02
249, 0.00, 39404.00, 0.00, 0.00, 0.00, 0.00, 0.00, 0.00, 0.01, 0.01, 1.02
250, 0.00, 39393.96, 0.00, 0.00, 0.00, 0.00, 0.00, 0.00, 0.01, 0.01, 1.02
251, 0.00, 39395.53, 0.00, 0.00, 0.00, 0.00, 0.00, 0.00, 0.01, 0.01, 1.02
252, 0.00, 39414.68, 0.00, 0.00, 0.00, 0.00, 0.00, 0.00, 0.01, 0.01, 1.02
253, 0.00, 39428.18, 0.00, 0.00, 0.00, 0.00, 0.00, 0.00, 0.01, 0.01, 1.02
254, 0.00, 39417.73, 0.00, 0.00, 0.00, 0.00, 0.00, 0.00, 0.01, 0.01, 1.02
255, 0.00, 39408.98, 0.00, 0.00, 0.00, 0.00, 0.00, 0.00, 0.01, 0.01, 1.02
0, 0.00, 39428.05, 0.00, 0.00, 0.00, 0.00, 0.00, 0.00, 0.01, 0.01, 1.02
1, 0.00, 39448.19, 0.00, 0.00, 0.00, 0.00, 0.00, 0.00, 0.01, 0.01, 1.02
2, 0.00, 39447.21, 0.00, 0.00, 0.00, 0.00, 0.00, 0.00, 0.01, 0.01, 1.02
3, 0.00, 39447.81, 0.00, 0.00, 0.00, 0.00, 0.00, 0.00, 0.01, 0.01, 1.02
4, 0.00, 39457.33, 0.00, 0.00, 0.00, 0.00, 0.00, 0.00, 0.01, 0.01, 1.02
5, 0.00, 39473.34, 0.00, 0.00, 0.00, 0.00, 0.00, 0.00, 0.01, 0.01, 1.02
6, 0.00, 39470.81, 0.00, 0.00, 0.00, 0.00, 0.00, 0.00, 0.01, 0.01, 1.02
7, 0.00, 39472.89, 0.00, 0.00, 0.00, 0.00, 0.00, 0.00, 0.01, 0.01, 1.02
8, 0.00, 39485.45, 0.00, 0.00, 0.00, 0.00, 0.00, 0.00, 0.01, 0.01, 1.02
9, 0.00, 39503.87, 0.00, 0.00, 0.00, 0.00, 0.00, 0.00, 0.01, 0.01, 1.02
10, 0.00, 39505.72, 0.00, 0.00, 0.00, 0.00, 0.00, 0.00, 0.01, 0.01, 1.02
11, 0.00, 39490.34, 0.00, 0.00, 0.00, 0.00, 0.00, 0.00, 0.01, 0.01, 1.02
12, 0.00, 39498.95, 0.00, 0.00, 0.00, 0.00, 0.00, 0.00, 0.01, 0.01, 1.02
13, 0.00, 39521.04, 0.00, 0.00, 0.00, 0.00, 0.00, 0.00, 0.01, 0.01, 1.02
14, 0.00, 39519.31, 0.00, 0.00, 0.00, 0.00, 0.00, 0.00, 0.01, 0.01, 1.02
15, 0.00, 39505.52, 0.00, 0.00, 0.00, 0.00, 0.00, 0.00, 0.01, 0.01, 1.02
16, 0.00, 39511.11, 0.00, 0.00, 0.00, 0.00, 0.00, 0.00, 0.01, 0.01, 1.02
17, 0.00, 39540.44, 0.00, 0.00, 0.00, 0.00, 0.00, 0.00, 0.01, 0.01, 1.02
18, 0.00, 39546.67, 0.00, 0.00, 0.00, 0.00, 0.00, 0.00, 0.01, 0.01, 1.02
19, 0.00, 39538.04, 0.00, 0.00, 0.00, 0.00, 0.00, 0.00, 0.01, 0.01, 1.02
20, 0.00, 39544.62, 0.00, 0.00, 0.00, 0.00, 0.00, 0.00, 0.01, 0.01, 1.02
21, 0.00, 39566.12, 0.00, 0.00, 0.00, 0.00, 0.00, 0.00, 0.01, 0.01, 1.02
22, 0.00, 39584.63, 0.00, 0.00, 0.00, 0.00, 0.00, 0.00, 0.01, 0.01, 1.01
23, 0.00, 39573.29, 0.00, 0.00, 0.00, 0.00, 0.00, 0.00, 0.01, 0.01, 1.01
24, 0.00, 39571.44, 0.00, 0.00, 0.00, 0.00, 0.00, 0.00, 0.01, 0.01, 1.01
25, 0.00, 39586.23, 0.00, 0.00, 0.00, 0.00, 0.00, 0.00, 0.01, 0.01, 1.01
26, 0.00, 39597.30, 0.00, 0.00, 0.00, 0.00, 0.00, 0.00, 0.01, 0.01, 1.01
27, 0.00, 39587.73, 0.00, 0.00, 0.00, 0.00, 0.00, 0.00, 0.00, 0.01, 1.02
28, 0.00, 39586.97, 0.00, 0.00, 0.00, 0.00, 0.00, 0.00, 0.00, 0.01, 1.02
29, 0.00, 39608.72, 0.00, 0.00, 0.00, 0.00, 0.00, 0.00, 0.00, 0.01, 1.02
30, 0.00, 39624.79, 0.00, 0.00, 0.00, 0.00, 0.00, 0.00, 0.00, 0.01, 1.02
31, 0.00, 39621.24, 0.00, 0.00, 0.00, 0.00, 0.00, 0.00, 0.00, 0.01, 1.02
32, 0.00, 39615.96, 0.00, 0.00, 0.00, 0.00, 0.00, 0.00, 0.00, 0.01, 1.02
33, 0.00, 39624.75, 0.00, 0.00, 0.00, 0.00, 0.00, 0.00, 0.00, 0.01, 1.02
34, 0.00, 39645.04, 0.00, 0.00, 0.00, 0.00, 0.00, 0.00, 0.00, 0.01, 1.02
35, 0.00, 39643.86, 0.00, 0.00, 0.00, 0.00, 0.00, 0.00, 0.00, 0.01, 1.02
36, 0.00, 39630.42, 0.00, 0.00, 0.00, 0.00, 0.00, 0.00, 0.00, 0.01, 1.02
37, 0.00, 39638.70, 0.00, 0.00, 0.00, 0.00, 0.00, 0.00, 0.01, 0.01, 1.02
38, 0.00, 39670.39, 0.00, 0.00, 0.00, 0.00, 0.00, 0.00, 0.01, 0.01, 1.02
39, 0.00, 39671.48, 0.00, 0.00, 0.00, 0.00, 0.00, 0.00, 0.01, 0.01, 1.02
40, 0.00, 39661.40, 0.00, 0.00, 0.00, 0.00, 0.00, 0.00, 0.01, 0.01, 1.02
41, 0.00, 39665.76, 0.00, 0.00, 0.00, 0.00, 0.00, 0.00, 0.01, 0.01, 1.02
42, 0.00, 39686.88, 0.00, 0.00, 0.00, 0.00, 0.00, 0.00, 0.01, 0.01, 1.02
43, 0.00, 39695.94, 0.00, 0.00, 0.00, 0.00, 0.00, 0.00, 0.01, 0.01, 1.02
44, 0.00, 39684.25, 0.00, 0.00, 0.00, 0.00, 0.00, 0.00, 0.01, 0.01, 1.02
45, 0.00, 39683.60, 0.00, 0.00, 0.00, 0.00, 0.00, 0.00, 0.01, 0.01, 1.02
46, 0.00, 39706.84, 0.00, 0.00, 0.00, 0.00, 0.00, 0.00, 0.01, 0.01, 1.02
47, 0.00, 39716.66, 0.00, 0.00, 0.00, 0.00, 0.00, 0.00, 0.01, 0.01, 1.02
48, 0.00, 39700.03, 0.00, 0.00, 0.00, 0.00, 0.00, 0.00, 0.01, 0.01, 1.02
49, 0.00, 39694.17, 0.00, 0.00, 0.00, 0.00, 0.00, 0.00, 0.01, 0.01, 1.02
50, 0.00, 39715.50, 0.00, 0.00, 0.00, 0.00, 0.00, 0.00, 0.01, 0.01, 1.02
51, 0.00, 39738.16, 0.00, 0.00, 0.00, 0.00, 0.00, 0.00, 0.01, 0.01, 1.02
52, 0.00, 39735.61, 0.00, 0.00, 0.00, 0.00, 0.00, 0.00, 0.01, 0.01, 1.01
53, 0.00, 39726.16, 0.00, 0.00, 0.00, 0.00, 0.00, 0.00, 0.01, 0.01, 1.01
54, 0.00, 39743.48, 0.00, 0.00, 0.00, 0.00, 0.00, 0.00, 0.01, 0.01, 1.01
55, 0.00, 39757.92, 0.00, 0.00, 0.00, 0.00, 0.00, 0.00, 0.01, 0.01, 1.01
56, 0.00, 39746.12, 0.00, 0.00, 0.00, 0.00, 0.00, 0.00, 0.01, 0.01, 1.01
57, 0.00, 39743.88, 0.00, 0.00, 0.00, 0.00, 0.00, 0.00, 0.01, 0.01, 1.02
58, 0.00, 39754.77, 0.00, 0.00, 0.00, 0.00, 0.00, 0.00, 0.01, 0.01, 1.02
59, 0.00, 39778.75, 0.00, 0.00, 0.00, 0.00, 0.00, 0.00, 0.01, 0.01, 1.02
60, 0.00, 39784.11, 0.00, 0.00, 0.00, 0.00, 0.00, 0.00, 0.01, 0.01, 1.02
61, 0.00, 39771.87, 0.00, 0.00, 0.00, 0.00, 0.00, 0.00, 0.01, 0.01, 1.02
62, 0.00, 39777.23, 0.00, 0.00, 0.00, 0.00, 0.00, 0.00, 0.02, 0.01, 1.02
63, 0.00, 39801.37, 0.00, 0.00, 0.00, 0.00, 0.00, 0.00, 0.02, 0.01, 1.02
64, 0.00, 39803.38, 0.00, 0.00, 0.00, 0.00, 0.00, 0.00, 0.02, 0.01, 1.02
65, 0.00, 39793.32, 0.00, 0.00, 0.00, 0.00, 0.00, 0.00, 0.02, 0.01, 1.02
66, 0.00, 39797.75, 0.00, 0.00, 0.00, 0.00, 0.00, 0.00, 0.02, 0.01, 1.02
67, 0.00, 39812.25, 0.00, 0.00, 0.00, 0.00, 0.00, 0.00, 0.01, 0.01, 1.02
68, 0.00, 39824.79, 0.00, 0.00, 0.00, 0.00, 0.00, 0.00, 0.01, 0.01, 1.02
69, 0.00, 39815.59, 0.00, 0.00, 0.00, 0.00, 0.00, 0.00, 0.01, 0.01, 1.02
70, 0.00, 39809.71, 0.00, 0.00, 0.00, 0.00, 0.00, 0.00, 0.01, 0.01, 1.02
71, 0.00, 39826.43, 0.00, 0.00, 0.00, 0.00, 0.00, 0.00, 0.01, 0.01, 1.02
72, 0.00, 39835.41, 0.00, 0.00, 0.00, 0.00, 0.00, 0.00, 0.02, 0.01, 1.02
73, 0.00, 39834.25, 0.00, 0.00, 0.00, 0.00, 0.00, 0.00, 0.02, 0.01, 1.02
74, 0.00, 39831.54, 0.00, 0.00, 0.00, 0.00, 0.00, 0.00, 0.02, 0.01, 1.02
75, 0.00, 39845.56, 0.00, 0.00, 0.00, 0.00, 0.00, 0.00, 0.02, 0.01, 1.02
76, 0.00, 39868.87, 0.00, 0.00, 0.00, 0.00, 0.00, 0.00, 0.02, 0.01, 1.02
77, 0.00, 39867.13, 0.00, 0.00, 0.00, 0.00, 0.00, 0.00, 0.01, 0.00, 1.02
78, 0.00, 39858.41, 0.00, 0.00, 0.00, 0.00, 0.00, 0.00, 0.01, 0.00, 1.02
79, 0.00, 39871.00, 0.00, 0.00, 0.00, 0.00, 0.00, 0.00, 0.01, 0.00, 1.02
80, 0.00, 39891.69, 0.00, 0.00, 0.00, 0.00, 0.00, 0.00, 0.01, 0.00, 1.02
81, 0.00, 39888.00, 0.00, 0.00, 0.00, 0.00, 0.00, 0.00, 0.01, 0.00, 1.02
82, 0.00, 39877.61, 0.00, 0.00, 0.00, 0.00, 0.00, 0.00, 0.01, 0.00, 1.02
83, 0.00, 39885.52, 0.00, 0.00, 0.00, 0.00, 0.00, 0.00, 0.01, 0.00, 1.02
84, 0.00, 39907.12, 0.00, 0.00, 0.00, 0.00, 0.00, 0.00, 0.01, 0.00, 1.02
85, 0.00, 39906.51, 0.00, 0.00, 0.00, 0.00, 0.00, 0.00, 0.01, 0.00, 1.02
86, 0.00, 39897.37, 0.00, 0.00, 0.00, 0.00, 0.00, 0.00, 0.01, 0.00, 1.02
87, 0.00, 39898.55, 0.00, 0.00, 0.00, 0.00, 0.00, 0.00, 0.00, 0.01, 1.02
88, 0.00, 39920.57, 0.00, 0.00, 0.00, 0.00, 0.00, 0.00, 0.00, 0.01, 1.02
89, 0.00, 39935.95, 0.00, 0.00, 0.00, 0.00, 0.00, 0.00, 0.00, 0.01, 1.02
90, 0.00, 39919.66, 0.00, 0.00, 0.00, 0.00, 0.00, 0.00, 0.00, 0.01, 1.02
91, 0.00, 39912.77, 0.00, 0.00, 0.00, 0.00, 0.00, 0.00, 0.00, 0.01, 1.02
92, 0.00, 39932.64, 0.00, 0.00, 0.00, 0.00, 0.00, 0.00, 0.00, 0.01, 1.02
93, 0.00, 39941.92, 0.00, 0.00, 0.00, 0.00, 0.00, 0.00, 0.00, 0.01, 1.02
94, 0.00, 39931.90, 0.00, 0.00, 0.00, 0.00, 0.00, 0.00, 0.00, 0.01, 1.02
95, 0.00, 39926.65, 0.00, 0.00, 0.00, 0.00, 0.00, 0.00, 0.00, 0.01, 1.02
96, 0.00, 39943.15, 0.00, 0.00, 0.00, 0.00, 0.00, 0.00, 0.00, 0.01, 1.02
97, 0.00, 39958.32, 0.00, 0.00, 0.00, 0.00, 0.00, 0.00, 0.00, 0.01, 1.02
98, 0.00, 39950.97, 0.00, 0.00, 0.00, 0.00, 0.00, 0.00, 0.01, 0.01, 1.02
99, 0.00, 39947.17, 0.00, 0.00, 0.00, 0.00, 0.00, 0.00, 0.01, 0.01, 1.02
100, 0.00, 39960.09, 0.00, 0.00, 0.00, 0.00, 0.00, 0.00, 0.01, 0.01, 1.02
101, 0.00, 39981.82, 0.00, 0.00, 0.00, 0.00, 0.00, 0.00, 0.01, 0.01, 1.02
102, 0.00, 39980.70, 0.00, 0.00, 0.00, 0.00, 0.00, 0.00, 0.01, 0.01, 1.02
103, 0.00, 39971.91, 0.00, 0.00, 0.00, 0.00, 0.00, 0.00, 0.01, 0.01, 1.02
104, 0.00, 39976.41, 0.00, 0.00, 0.00, 0.00, 0.00, 0.00, 0.01, 0.01, 1.02
105, 0.00, 39998.20, 0.00, 0.00, 0.00, 0.00, 0.00, 0.00, 0.01, 0.01, 1.02
106, 0.00, 39998.94, 0.00, 0.00, 0.00, 0.00, 0.00, 0.00, 0.01, 0.01, 1.02
107, 0.00, 39992.84, 0.00, 0.00, 0.00, 0.00, 0.00, 0.00, 0.01, 0.01, 1.02
108, 0.00, 40002.83, 0.00, 0.00, 0.00, 0.00, 0.00, 0.00, 0.01, 0.02, 1.02
109, 0.00, 40027.73, 0.00, 0.00, 0.00, 0.00, 0.00, 0.00, 0.01, 0.02, 1.02
110, 0.00, 40030.50, 0.00, 0.00, 0.00, 0.00, 0.00, 0.00, 0.01, 0.02, 1.02
111, 0.00, 40018.74, 0.00, 0.00, 0.00, 0.00, 0.00, 0.00, 0.01, 0.02, 1.02
112, 0.00, 40020.11, 0.00, 0.00, 0.00, 0.00, 0.00, 0.00, 0.01, 0.02, 1.02
113, 0.00, 40045.41, 0.00, 0.00, 0.00, 0.00, 0.00, 0.00, 0.01, 0.01, 1.02
114, 0.00, 40050.08, 0.00, 0.00, 0.00, 0.00, 0.00, 0.00, 0.01, 0.01, 1.02
115, 0.00, 40038.03, 0.00, 0.00, 0.00, 0.00, 0.00, 0.00, 0.01, 0.01, 1.02
116, 0.00, 40047.44, 0.00, 0.00, 0.00, 0.00, 0.00, 0.00, 0.01, 0.01, 1.02
117, 0.00, 40069.84, 0.00, 0.00, 0.00, 0.00, 0.00, 0.00, 0.01, 0.01, 1.02
118, 0.00, 40075.13, 0.00, 0.00, 0.00, 0.00, 0.00, 0.00, 0.01, 0.01, 1.02
119, 0.00, 40066.48, 0.00, 0.00, 0.00, 0.00, 0.00, 0.00, 0.01, 0.01, 1.02
120, 0.00, 40061.32, 0.00, 0.00, 0.00, 0.00, 0.00, 0.00, 0.01, 0.01, 1.02
121, 0.00, 40084.90, 0.00, 0.00, 0.00, 0.00, 0.00, 0.00, 0.01, 0.01, 1.02
122, 0.00, 40095.63, 0.00, 0.00, 0.00, 0.00, 0.00, 0.00, 0.01, 0.01, 1.02
123, 0.00, 40087.54, 0.00, 0.00, 0.00, 0.00, 0.00, 0.00, 0.01, 0.02, 1.02
124, 0.00, 40085.75, 0.00, 0.00, 0.00, 0.00, 0.00, 0.00, 0.01, 0.02, 1.02
125, 0.00, 40100.59, 0.00, 0.00, 0.00, 0.00, 0.00, 0.00, 0.01, 0.02, 1.02
126, 0.00, 40116.89, 0.00, 0.00, 0.00, 0.00, 0.00, 0.00, 0.01, 0.02, 1.02
127, 0.00, 40114.32, 0.00, 0.00, 0.00, 0.00, 0.00, 0.00, 0.01, 0.02, 1.02
128, 0.00, 40107.37, 0.00, 0.00, 0.00, 0.00, 0.00, 0.00, 0.01, 0.02, 1.02
129, 0.00, 40118.23, 0.00, 0.00, 0.00, 0.00, 0.00, 0.00, 0.01, 0.02, 1.02
130, 0.00, 40141.00, 0.00, 0.00, 0.00, 0.00, 0.00, 0.00, 0.01, 0.02, 1.02
131, 0.00, 40137.34, 0.00, 0.00, 0.00, 0.00, 0.00, 0.00, 0.01, 0.02, 1.02
132, 0.00, 40125.94, 0.00, 0.00, 0.00, 0.00, 0.00, 0.00, 0.01, 0.02, 1.02
133, 0.00, 40136.60, 0.00, 0.00, 0.00, 0.00, 0.00, 0.00, 0.01, 0.01, 1.02
134, 0.00, 40151.96, 0.00, 0.00, 0.00, 0.00, 0.00, 0.00, 0.01, 0.01, 1.02
135, 0.00, 40153.70, 0.00, 0.00, 0.00, 0.00, 0.00, 0.00, 0.01, 0.01, 1.02
136, 0.00, 40170.02, 0.00, 0.00, 0.00, 0.00, 0.00, 0.00, 0.01, 0.01, 1.02
137, 0.00, 40177.68, 0.00, 0.00, 0.00, 0.00, 0.00, 0.00, 0.01, 0.01, 1.02
138, 0.00, 40169.01, 0.00, 0.00, 0.00, 0.00, 0.00, 0.00, 0.01, 0.01, 1.02
139, 0.00, 40169.21, 0.00, 0.00, 0.00, 0.00, 0.00, 0.00, 0.01, 0.01, 1.02
140, 0.00, 40174.60, 0.00, 0.00, 0.00, 0.00, 0.00, 0.00, 0.01, 0.01, 1.02
141, 0.00, 40197.24, 0.00, 0.00, 0.00, 0.00, 0.00, 0.00, 0.01, 0.01, 1.02
142, 0.00, 40211.86, 0.00, 0.00, 0.00, 0.00, 0.00, 0.00, 0.01, 0.01, 1.02
143, 0.00, 40218.57, 0.00, 0.00, 0.00, 0.00, 0.00, 0.00, 0.01, 0.00, 1.02
144, 0.00, 40212.13, 0.00, 0.00, 0.00, 0.00, 0.00, 0.00, 0.01, 0.00, 1.02
145, 0.00, 40216.55, 0.00, 0.00, 0.00, 0.00, 0.00, 0.00, 0.01, 0.00, 1.02
146, 0.00, 40235.15, 0.00, 0.00, 0.00, 0.00, 0.00, 0.00, 0.01, 0.00, 1.02
147, 0.00, 40245.23, 0.00, 0.00, 0.00, 0.00, 0.00, 0.00, 0.01, 0.00, 1.02
148, 0.00, 40236.56, 0.00, 0.00, 0.00, 0.00, 0.00, 0.00, 0.01, 0.01, 1.02
149, 0.00, 40233.52, 0.00, 0.00, 0.00, 0.00, 0.00, 0.00, 0.01, 0.01, 1.02
150, 0.00, 40244.67, 0.00, 0.00, 0.00, 0.00, 0.00, 0.00, 0.01, 0.01, 1.02
151, 0.00, 40262.38, 0.00, 0.00, 0.00, 0.00, 0.00, 0.00, 0.01, 0.01, 1.02
152, 0.00, 40258.13, 0.00, 0.00, 0.00, 0.00, 0.00, 0.00, 0.01, 0.01, 1.02
153, 0.00, 40251.98, 0.00, 0.00, 0.00, 0.00, 0.00, 0.00, 0.00, 0.01, 1.02
154, 0.00, 40264.41, 0.00, 0.00, 0.00, 0.00, 0.00, 0.00, 0.00, 0.01, 1.02
155, 0.00, 40278.16, 0.00, 0.00, 0.00, 0.00, 0.00, 0.00, 0.00, 0.01, 1.02
156, 0.00, 40275.74, 0.00, 0.00, 0.00, 0.00, 0.00, 0.00, 0.00, 0.01, 1.02
157, 0.00, 40271.94, 0.00, 0.00, 0.00, 0.00, 0.00, 0.00, 0.00, 0.01, 1.02
158, 0.00, 40276.14, 0.00, 0.00, 0.00, 0.00, 0.00, 0.00, 0.00, 0.00, 1.02
159, 0.00, 40295.63, 0.00, 0.00, 0.00, 0.00, 0.00, 0.00, 0.00, 0.00, 1.02
160, 0.00, 40302.77, 0.00, 0.00, 0.00, 0.00, 0.00, 0.00, 0.00, 0.00, 1.02
161, 0.00, 40294.27, 0.00, 0.00, 0.00, 0.00, 0.00, 0.00, 0.00, 0.00, 1.02
162, 0.00, 40297.85, 0.00, 0.00, 0.00, 0.00, 0.00, 0.00, 0.00, 0.00, 1.02
163, 0.00, 40318.66, 0.00, 0.00, 0.00, 0.00, 0.00, 0.00, 0.01, 0.01, 1.03
164, 0.00, 40327.71, 0.00, 0.00, 0.00, 0.00, 0.00, 0.00, 0.01, 0.01, 1.03
165, 0.00, 40319.91, 0.00, 0.00, 0.00, 0.00, 0.00, 0.00, 0.01, 0.01, 1.03
166, 0.00, 40320.40, 0.00, 0.00, 0.00, 0.00, 0.00, 0.00, 0.01, 0.01, 1.03
167, 0.00, 40341.66, 0.00, 0.00, 0.00, 0.00, 0.00, 0.00, 0.01, 0.01, 1.03
168, 0.00, 40351.71, 0.00, 0.00, 0.00, 0.00, 0.00, 0.00, 0.01, 0.01, 1.02
169, 0.00, 40348.38, 0.00, 0.00, 0.00, 0.00, 0.00, 0.00, 0.01, 0.01, 1.02
170, 0.00, 40338.73, 0.00, 0.00, 0.00, 0.00, 0.00, 0.00, 0.01, 0.01, 1.02
171, 0.00, 40351.89, 0.00, 0.00, 0.00, 0.00, 0.00, 0.00, 0.01, 0.01, 1.02
172, 0.00, 40368.32, 0.00, 0.00, 0.00, 0.00, 0.00, 0.00, 0.01, 0.01, 1.02
173, 0.00, 40361.21, 0.00, 0.00, 0.00, 0.00, 0.00, 0.00, 0.01, 0.01, 1.03
174, 0.00, 40348.09, 0.00, 0.00, 0.00, 0.00, 0.00, 0.00, 0.01, 0.01, 1.03
175, 0.00, 40364.21, 0.00, 0.00, 0.00, 0.00, 0.00, 0.00, 0.01, 0.01, 1.03
176, 0.00, 40379.86, 0.00, 0.00, 0.00, 0.00, 0.00, 0.00, 0.01, 0.01, 1.03
177, 0.00, 40376.39, 0.00, 0.00, 0.00, 0.00, 0.00, 0.00, 0.01, 0.01, 1.03
178, 0.00, 40362.31, 0.00, 0.00, 0.00, 0.00, 0.00, 0.00, 0.01, 0.01, 1.02
179, 0.00, 40366.38, 0.00, 0.00, 0.00, 0.00, 0.00, 0.00, 0.01, 0.01, 1.02
180, 0.00, 40387.95, 0.00, 0.00, 0.00, 0.00, 0.00, 0.00, 0.01, 0.01, 1.02
181, 0.00, 40388.55, 0.00, 0.00, 0.00, 0.00, 0.00, 0.00, 0.01, 0.01, 1.02
182, 0.00, 40373.11, 0.00, 0.00, 0.00, 0.00, 0.00, 0.00, 0.01, 0.01, 1.02
183, 0.00, 40382.14, 0.00, 0.00, 0.00, 0.00, 0.00, 0.00, 0.01, 0.01, 1.01
184, 0.00, 40402.50, 0.00, 0.00, 0.00, 0.00, 0.00, 0.00, 0.01, 0.01, 1.01
185, 0.00, 40408.58, 0.00, 0.00, 0.00, 0.00, 0.00, 0.00, 0.01, 0.01, 1.01
186, 0.00, 40393.18, 0.00, 0.00, 0.00, 0.00, 0.00, 0.00, 0.01, 0.01, 1.01
187, 0.00, 40393.47, 0.00, 0.00, 0.00, 0.00, 0.00, 0.00, 0.01, 0.01, 1.01
188, 0.00, 40417.50, 0.00, 0.00, 0.00, 0.00, 0.00, 0.00, 0.01, 0.01, 1.01
189, 0.00, 40427.51, 0.00, 0.00, 0.00, 0.00, 0.00, 0.00, 0.01, 0.01, 1.01
190, 0.00, 40416.51, 0.00, 0.00, 0.00, 0.00, 0.00, 0.00, 0.01, 0.01, 1.01
191, 0.00, 40407.28, 0.00, 0.00, 0.00, 0.00, 0.00, 0.00, 0.01, 0.01, 1.01
192, 0.00, 40426.57, 0.00, 0.00, 0.00, 0.00, 0.00, 0.00, 0.01, 0.01, 1.01
193, 0.00, 40434.39, 0.00, 0.00, 0.00, 0.00, 0.00, 0.00, 0.01, 0.01, 1.02
194, 0.00, 40422.64, 0.00, 0.00, 0.00, 0.00, 0.00, 0.00, 0.01, 0.01, 1.02
195, 0.00, 40418.52, 0.00, 0.00, 0.00, 0.00, 0.00, 0.00, 0.01, 0.01, 1.02
196, 0.00, 40437.19, 0.00, 0.00, 0.00, 0.00, 0.00, 0.00, 0.01, 0.01, 1.02
197, 0.00, 40455.56, 0.00, 0.00, 0.00, 0.00, 0.00, 0.00, 0.01, 0.01, 1.02
198, 0.00, 40452.59, 0.00, 0.00, 0.00, 0.00, 0.00, 0.00, 0.01, 0.01, 1.02
199, 0.00, 40448.34, 0.00, 0.00, 0.00, 0.00, 0.00, 0.00, 0.01, 0.01, 1.02
200, 0.00, 40464.61, 0.00, 0.00, 0.00, 0.00, 0.00, 0.00, 0.01, 0.01, 1.02
201, 0.00, 40478.34, 0.00, 0.00, 0.00, 0.00, 0.00, 0.00, 0.01, 0.01, 1.02
202, 0.00, 40470.96, 0.00, 0.00, 0.00, 0.00, 0.00, 0.00, 0.01, 0.01, 1.02
203, 0.00, 40463.88, 0.00, 0.00, 0.00, 0.00, 0.00, 0.00, 0.01, 0.01, 1.02
204, 0.00, 40473.44, 0.00, 0.00, 0.00, 0.00, 0.00, 0.00, 0.01, 0.01, 1.02
205, 0.00, 40496.11, 0.00, 0.00, 0.00, 0.00, 0.00, 0.00, 0.01, 0.01, 1.02
206, 0.00, 40498.63, 0.00, 0.00, 0.00, 0.00, 0.00, 0.00, 0.01, 0.01, 1.02
207, 0.00, 40488.48, 0.00, 0.00, 0.00, 0.00, 0.00, 0.00, 0.01, 0.01, 1.02
208, 0.00, 40496.13, 0.00, 0.00, 0.00, 0.00, 0.00, 0.00, 0.01, 0.01, 1.02
209, 0.00, 40509.61, 0.00, 0.00, 0.00, 0.00, 0.00, 0.00, 0.01, 0.01, 1.02
210, 0.00, 40516.00, 0.00, 0.00, 0.00, 0.00, 0.00, 0.00, 0.01, 0.01, 1.02
211, 0.00, 40508.09, 0.00, 0.00, 0.00, 0.00, 0.00, 0.00, 0.01, 0.01, 1.02
212, 0.00, 40512.11, 0.00, 0.00, 0.00, 0.00, 0.00, 0.00, 0.01, 0.01, 1.02
213, 0.00, 40530.33, 0.00, 0.00, 0.00, 0.00, 0.00, 0.00, 0.01, 0.01, 1.02
214, 0.00, 40543.40, 0.00, 0.00, 0.00, 0.00, 0.00, 0.00, 0.01, 0.01, 1.02
215, 0.00, 40538.11, 0.00, 0.00, 0.00, 0.00, 0.00, 0.00, 0.01, 0.01, 1.02
216, 0.00, 40530.48, 0.00, 0.00, 0.00, 0.00, 0.00, 0.00, 0.01, 0.01, 1.02
217, 0.00, 40548.05, 0.00, 0.00, 0.00, 0.00, 0.00, 0.00, 0.01, 0.01, 1.02
218, 0.00, 40565.38, 0.00, 0.00, 0.00, 0.00, 0.00, 0.00, 0.01, 0.01, 1.02
219, 0.00, 40563.81, 0.00, 0.00, 0.00, 0.00, 0.00, 0.00, 0.01, 0.01, 1.02
220, 0.00, 40556.88, 0.00, 0.00, 0.00, 0.00, 0.00, 0.00, 0.01, 0.01, 1.02
221, 0.00, 40570.88, 0.00, 0.00, 0.00, 0.00, 0.00, 0.00, 0.01, 0.01, 1.02
222, 0.00, 40589.16, 0.00, 0.00, 0.00, 0.00, 0.00, 0.00, 0.01, 0.01, 1.02
223, 0.00, 40584.20, 0.00, 0.00, 0.00, 0.00, 0.00, 0.00, 0.01, 0.01, 1.02
224, 0.00, 40572.57, 0.00, 0.00, 0.00, 0.00, 0.00, 0.00, 0.01, 0.01, 1.02
225, 0.00, 40578.94, 0.00, 0.00, 0.00, 0.00, 0.00, 0.00, 0.01, 0.01, 1.02
226, 0.00, 40603.44, 0.00, 0.00, 0.00, 0.00, 0.00, 0.00, 0.01, 0.01, 1.02
227, 0.00, 40598.88, 0.00, 0.00, 0.00, 0.00, 0.00, 0.00, 0.01, 0.01, 1.02
228, 0.00, 40586.45, 0.00, 0.00, 0.00, 0.00, 0.00, 0.00, 0.01, 0.01, 1.02
229, 0.00, 40591.50, 0.00, 0.00, 0.00, 0.00, 0.00, 0.00, 0.01, 0.01, 1.02
230, 0.00, 40605.47, 0.00, 0.00, 0.00, 0.00, 0.00, 0.00, 0.01, 0.01, 1.02
231, 0.00, 40609.90, 0.00, 0.00, 0.00, 0.00, 0.00, 0.00, 0.01, 0.01, 1.02
232, 0.00, 40594.99, 0.00, 0.00, 0.00, 0.00, 0.00, 0.00, 0.01, 0.01, 1.02
233, 0.00, 40597.09, 0.00, 0.00, 0.00, 0.00, 0.00, 0.00, 0.01, 0.01, 1.01
234, 0.00, 40623.04, 0.00, 0.00, 0.00, 0.00, 0.00, 0.00, 0.01, 0.01, 1.01
235, 0.00, 40630.91, 0.00, 0.00, 0.00, 0.00, 0.00, 0.00, 0.01, 0.01, 1.01
236, 0.00, 40619.85, 0.00, 0.00, 0.00, 0.00, 0.00, 0.00, 0.01, 0.01, 1.01
237, 0.00, 40622.39, 0.00, 0.00, 0.00, 0.00, 0.00, 0.00, 0.01, 0.01, 1.01
238, 0.00, 40641.71, 0.00, 0.00, 0.00, 0.00, 0.00, 0.00, 0.02, 0.01, 1.01
239, 0.00, 40655.65, 0.00, 0.00, 0.00, 0.00, 0.00, 0.00, 0.02, 0.01, 1.01
240, 0.00, 40644.14, 0.00, 0.00, 0.00, 0.00, 0.00, 0.00, 0.02, 0.01, 1.01
241, 0.00, 40645.93, 0.00, 0.00, 0.00, 0.00, 0.00, 0.00, 0.02, 0.01, 1.01
242, 0.00, 40661.02, 0.00, 0.00, 0.00, 0.00, 0.00, 0.00, 0.02, 0.01, 1.01
243, 0.00, 40674.99, 0.00, 0.00, 0.00, 0.00, 0.00, 0.00, 0.02, 0.02, 1.02
244, 0.00, 40666.02, 0.00, 0.00, 0.00, 0.00, 0.00, 0.00, 0.02, 0.02, 1.02
245, 0.00, 40660.44, 0.00, 0.00, 0.00, 0.00, 0.00, 0.00, 0.02, 0.02, 1.02
246, 0.00, 40674.09, 0.00, 0.00, 0.00, 0.00, 0.00, 0.00, 0.02, 0.02, 1.02
247, 0.00, 40688.22, 0.00, 0.00, 0.00, 0.00, 0.00, 0.00, 0.02, 0.02, 1.02
248, 0.00, 40677.85, 0.00, 0.00, 0.00, 0.00, 0.00, 0.00, 0.02, 0.02, 1.02
249, 0.00, 40670.65, 0.00, 0.00, 0.00, 0.00, 0.00, 0.00, 0.02, 0.02, 1.02
250, 0.00, 40687.17, 0.00, 0.00, 0.00, 0.00, 0.00, 0.00, 0.02, 0.02, 1.02
251, 0.00, 40703.17, 0.00, 0.00, 0.00, 0.00, 0.00, 0.00, 0.02, 0.02, 1.02
252, 0.00, 40697.00, 0.00, 0.00, 0.00, 0.00, 0.00, 0.00, 0.02, 0.02, 1.02
253, 0.00, 40686.21, 0.00, 0.00, 0.00, 0.00, 0.00, 0.00, 0.02, 0.02, 1.02
254, 0.00, 40694.79, 0.00, 0.00, 0.00, 0.00, 0.00, 0.00, 0.02, 0.02, 1.02
255, 0.00, 40718.28, 0.00, 0.00, 0.00, 0.00, 0.00, 0.00, 0.02, 0.02, 1.02
0, 0.00, 40716.74, 0.00, 0.00, 0.00, 0.00, 0.00, 0.00, 0.02, 0.02, 1.02
1, 0.00, 40708.54, 0.00, 0.00, 0.00, 0.00, 0.00, 0.00, 0.02, 0.02, 1.02
2, 0.00, 40719.13, 0.00, 0.00, 0.00, 0.00, 0.00, 0.00, 0.01, 0.02, 1.01
3, 0.00, 40735.07, 0.00, 0.00, 0.00, 0.00, 0.00, 0.00, 0.01, 0.02, 1.01
4, 0.00, 40741.82, 0.00, 0.00, 0.00, 0.00, 0.00, 0.00, 0.01, 0.02, 1.01
5, 0.00, 40733.84, 0.00, 0.00, 0.00, 0.00, 0.00, 0.00, 0.01, 0.02, 1.01
6, 0.00, 40729.35, 0.00, 0.00, 0.00, 0.00, 0.00, 0.00, 0.01, 0.02, 1.01
7, 0.00, 40749.26, 0.00, 0.00, 0.00, 0.00, 0.00, 0.00, 0.00, 0.02, 1.02
8, 0.00, 40757.24, 0.00, 0.00, 0.00, 0.00, 0.00, 0.00, 0.00, 0.02, 1.02
9, 0.00, 40750.05, 0.00, 0.00, 0.00, 0.00, 0.00, 0.00, 0.00, 0.02, 1.02
10, 0.00, 40748.86, 0.00, 0.00, 0.00, 0.00, 0.00, 0.00, 0.00, 0.02, 1.02
11, 0.00, 40767.25, 0.00, 0.00, 0.00, 0.00, 0.00, 0.00, 0.00, 0.02, 1.02
12, 0.00, 40776.26, 0.00, 0.00, 0.00, 0.00, 0.00, 0.00, 0.01, 0.01, 1.02
13, 0.00, 40764.68, 0.00, 0.00, 0.00, 0.00, 0.00, 0.00, 0.01, 0.01, 1.02
14, 0.00, 40756.17, 0.00, 0.00, 0.00, 0.00, 0.00, 0.00, 0.01, 0.01, 1.02
15, 0.00, 40773.38, 0.00, 0.00, 0.00, 0.00, 0.00, 0.00, 0.01, 0.01, 1.02
16, 0.00, 40792.87, 0.00, 0.00, 0.00, 0.00, 0.00, 0.00, 0.01, 0.01, 1.02
17, 0.00, 40787.89, 0.00, 0.00, 0.00, 0.00, 0.00, 0.00, 0.01, 0.01, 1.03
18, 0.00, 40782.95, 0.00, 0.00, 0.00, 0.00, 0.00, 0.00, 0.01, 0.01, 1.03
19, 0.00, 40791.91, 0.00, 0.00, 0.00, 0.00, 0.00, 0.00, 0.01, 0.01, 1.03
20, 0.00, 40804.65, 0.00, 0.00, 0.00, 0.00, 0.00, 0.00, 0.01, 0.01, 1.03
21, 0.00, 40799.18, 0.00, 0.00, 0.00, 0.00, 0.00, 0.00, 0.01, 0.01, 1.03
22, 0.00, 40792.13, 0.00, 0.00, 0.00, 0.00, 0.00, 0.00, 0.01, 0.01, 1.02
23, 0.00, 40801.90, 0.00, 0.00, 0.00, 0.00, 0.00, 0.00, 0.01, 0.01, 1.02
24, 0.00, 40816.36, 0.00, 0.00, 0.00, 0.00, 0.00, 0.00, 0.01, 0.01, 1.02
25, 0.00, 40821.41, 0.00, 0.00, 0.00, 0.00, 0.00, 0.00, 0.01, 0.01, 1.02
26, 0.00, 40808.90, 0.00, 0.00, 0.00, 0.00, 0.00, 0.00, 0.01, 0.01, 1.02
27, 0.00, 40811.73, 0.00, 0.00, 0.00, 0.00, 0.00, 0.00, 0.01, 0.01, 1.01
28, 0.00, 40836.50, 0.00, 0.00, 0.00, 0.00, 0.00, 0.00, 0.01, 0.01, 1.01
29, 0.00, 40841.78, 0.00, 0.00, 0.00, 0.00, 0.00, 0.00, 0.01, 0.01, 1.01
30, 0.00, 40831.67, 0.00, 0.00, 0.00, 0.00, 0.00, 0.00, 0.01, 0.01, 1.01
31, 0.00, 40829.28, 0.00, 0.00, 0.00, 0.00, 0.00, 0.00, 0.01, 0.01, 1.01
32, 0.00, 40852.01, 0.00, 0.00, 0.00, 0.00, 0.00, 0.00, 0.01, 0.01, 1.02
33, 0.00, 40860.51, 0.00, 0.00, 0.00, 0.00, 0.00, 0.00, 0.01, 0.01, 1.02
34, 0.00, 40850.88, 0.00, 0.00, 0.00, 0.00, 0.00, 0.00, 0.01, 0.01, 1.02
35, 0.00, 40844.86, 0.00, 0.00, 0.00, 0.00, 0.00, 0.00, 0.01, 0.01, 1.02
36, 0.00, 40855.90, 0.00, 0.00, 0.00, 0.00, 0.00, 0.00, 0.01, 0.01, 1.02
37, 0.00, 40872.42, 0.00, 0.00, 0.00, 0.00, 0.00, 0.00, 0.01, 0.01, 1.01
38, 0.00, 40871.93, 0.00, 0.00, 0.00, 0.00, 0.00, 0.00, 0.01, 0.01, 1.01
39, 0.00, 40865.78, 0.00, 0.00, 0.00, 0.00, 0.00, 0.00, 0.01, 0.01, 1.01
40, 0.00, 40882.39, 0.00, 0.00, 0.00, 0.00, 0.00, 0.00, 0.01, 0.01, 1.01
41, 0.00, 40896.76, 0.00, 0.00, 0.00, 0.00, 0.00, 0.00, 0.01, 0.01, 1.01
42, 0.00, 40887.93, 0.00, 0.00, 0.00, 0.00, 0.00, 0.00, 0.00, 0.01, 1.01
43, 0.00, 40878.41, 0.00, 0.00, 0.00, 0.00, 0.00, 0.00, 0.00, 0.01, 1.01
44, 0.00, 40883.57, 0.00, 0.00, 0.00, 0.00, 0.00, 0.00, 0.00, 0.01, 1.01
45, 0.00, 40900.07, 0.00, 0.00, 0.00, 0.00, 0.00, 0.00, 0.00, 0.01, 1.01
46, 0.00, 40899.69, 0.00, 0.00, 0.00, 0.00, 0.00, 0.00, 0.00, 0.01, 1.01
47, 0.00, 40887.17, 0.00, 0.00, 0.00, 0.00, 0.00, 0.00, 0.00, 0.01, 1.01
48, 0.00, 40894.66, 0.00, 0.00, 0.00, 0.00, 0.00, 0.00, 0.00, 0.01, 1.01
49, 0.00, 40916.48, 0.00, 0.00, 0.00, 0.00, 0.00, 0.00, 0.00, 0.01, 1.01
50, 0.00, 40932.86, 0.00, 0.00, 0.00, 0.00, 0.00, 0.00, 0.00, 0.01, 1.01
51, 0.00, 40920.88, 0.00, 0.00, 0.00, 0.00, 0.00, 0.00, 0.00, 0.01, 1.01
52, 0.00, 40901.46, 0.00, 0.00, 0.00, 0.00, 0.00, 0.00, 0.01, 0.01, 1.01
53, 0.00, 40919.96, 0.00, 0.00, 0.00, 0.00, 0.00, 0.00, 0.01, 0.01, 1.01
54, 0.00, 40935.18, 0.00, 0.00, 0.00, 0.00, 0.00, 0.00, 0.01, 0.01, 1.01
55, 0.00, 40923.94, 0.00, 0.00, 0.00, 0.00, 0.00, 0.00, 0.01, 0.01, 1.01
56, 0.00, 40926.07, 0.00, 0.00, 0.00, 0.00, 0.00, 0.00, 0.01, 0.01, 1.01
57, 0.00, 40940.37, 0.00, 0.00, 0.00, 0.00, 0.00, 0.00, 0.01, 0.01, 1.02
58, 0.00, 40950.18, 0.00, 0.00, 0.00, 0.00, 0.00, 0.00, 0.01, 0.01, 1.02
59, 0.00, 40946.50, 0.00, 0.00, 0.00, 0.00, 0.00, 0.00, 0.01, 0.01, 1.02
60, 0.00, 40938.22, 0.00, 0.00, 0.00, 0.00, 0.00, 0.00, 0.01, 0.01, 1.02
61, 0.00, 40955.93, 0.00, 0.00, 0.00, 0.00, 0.00, 0.00, 0.01, 0.01, 1.02
62, 0.00, 40972.40, 0.00, 0.00, 0.00, 0.00, 0.00, 0.00, 0.01, 0.01, 1.01
63, 0.00, 40970.93, 0.00, 0.00, 0.00, 0.00, 0.00, 0.00, 0.01, 0.01, 1.01
64, 0.00, 40962.48, 0.00, 0.00, 0.00, 0.00, 0.00, 0.00, 0.01, 0.01, 1.01
65, 0.00, 40968.51, 0.00, 0.00, 0.00, 0.00, 0.00, 0.00, 0.01, 0.01, 1.01
66, 0.00, 40989.43, 0.00, 0.00, 0.00, 0.00, 0.00, 0.00, 0.01, 0.01, 1.01
67, 0.00, 40993.23, 0.00, 0.00, 0.00, 0.00, 0.00, 0.00, 0.01, 0.02, 1.02
68, 0.00, 40982.13, 0.00, 0.00, 0.00, 0.00, 0.00, 0.00, 0.01, 0.02, 1.02
69, 0.00, 40990.01, 0.00, 0.00, 0.00, 0.00, 0.00, 0.00, 0.01, 0.02, 1.02
70, 0.00, 41015.74, 0.00, 0.00, 0.00, 0.00, 0.00, 0.00, 0.01, 0.02, 1.02
71, 0.00, 41016.14, 0.00, 0.00, 0.00, 0.00, 0.00, 0.00, 0.01, 0.02, 1.02
72, 0.00, 41003.78, 0.00, 0.00, 0.00, 0.00, 0.00, 0.00, 0.01, 0.02, 1.02
73, 0.00, 41013.57, 0.00, 0.00, 0.00, 0.00, 0.00, 0.00, 0.01, 0.02, 1.02
74, 0.00, 41031.90, 0.00, 0.00, 0.00, 0.00, 0.00, 0.00, 0.01, 0.02, 1.02
75, 0.00, 41037.73, 0.00, 0.00, 0.00, 0.00, 0.00, 0.00, 0.01, 0.02, 1.02
76, 0.00, 41026.09, 0.00, 0.00, 0.00, 0.00, 0.00, 0.00, 0.01, 0.02, 1.02
77, 0.00, 41024.79, 0.00, 0.00, 0.00, 0.00, 0.00, 0.00, 0.01, 0.02, 1.02
78, 0.00, 41046.27, 0.00, 0.00, 0.00, 0.00, 0.00, 0.00, 0.01, 0.01, 1.02
79, 0.00, 41053.92, 0.00, 0.00, 0.00, 0.00, 0.00, 0.00, 0.01, 0.01, 1.02
80, 0.00, 41042.68, 0.00, 0.00, 0.00, 0.00, 0.00, 0.00, 0.01, 0.01, 1.02
81, 0.00, 41035.41, 0.00, 0.00, 0.00, 0.00, 0.00, 0.00, 0.01, 0.01, 1.02
82, 0.00, 41042.47, 0.00, 0.00, 0.00, 0.00, 0.00, 0.00, 0.01, 0.01, 1.02
83, 0.00, 41064.11, 0.00, 0.00, 0.00, 0.00, 0.00, 0.00, 0.01, 0.01, 1.02
84, 0.00, 41060.27, 0.00, 0.00, 0.00, 0.00, 0.00, 0.00, 0.01, 0.01, 1.02
85, 0.00, 41057.29, 0.00, 0.00, 0.00, 0.00, 0.00, 0.00, 0.01, 0.01, 1.02
86, 0.00, 41065.74, 0.00, 0.00, 0.00, 0.00, 0.00, 0.00, 0.01, 0.01, 1.02
87, 0.00, 41084.16, 0.00, 0.00, 0.00, 0.00, 0.00, 0.00, 0.01, 0.01, 1.02
88, 0.00, 41080.40, 0.00, 0.00, 0.00, 0.00, 0.00, 0.00, 0.01, 0.01, 1.01
89, 0.00, 41067.08, 0.00, 0.00, 0.00, 0.00, 0.00, 0.00, 0.01, 0.01, 1.01
90, 0.00, 41072.87, 0.00, 0.00, 0.00, 0.00, 0.00, 0.00, 0.01, 0.01, 1.01
91, 0.00, 41096.34, 0.00, 0.00, 0.00, 0.00, 0.00, 0.00, 0.01, 0.01, 1.01
92, 0.00, 41090.30, 0.00, 0.00, 0.00, 0.00, 0.00, 0.00, 0.01, 0.01, 1.01
93, 0.00, 41075.49, 0.00, 0.00, 0.00, 0.00, 0.00, 0.00, 0.01, 0.01, 1.02
94, 0.00, 41089.41, 0.00, 0.00, 0.00, 0.00, 0.00, 0.00, 0.01, 0.01, 1.02
95, 0.00, 41110.38, 0.00, 0.00, 0.00, 0.00, 0.00, 0.00, 0.01, 0.01, 1.02
96, 0.00, 41111.63, 0.00, 0.00, 0.00, 0.00, 0.00, 0.00, 0.01, 0.01, 1.02
97, 0.00, 41098.40, 0.00, 0.00, 0.00, 0.00, 0.00, 0.00, 0.01, 0.01, 1.02
98, 0.00, 41097.77, 0.00, 0.00, 0.00, 0.00, 0.00, 0.00, 0.01, 0.01, 1.01
99, 0.00, 41112.16, 0.00, 0.00, 0.00, 0.00, 0.00, 0.00, 0.01, 0.01, 1.01
100, 0.00, 41118.69, 0.00, 0.00, 0.00, 0.00, 0.00, 0.00, 0.01, 0.01, 1.01
101, 0.00, 41105.80, 0.00, 0.00, 0.00, 0.00, 0.00, 0.00, 0.01, 0.01, 1.01
102, 0.00, 41110.33, 0.00, 0.00, 0.00, 0.00, 0.00, 0.00, 0.01, 0.01, 1.01
103, 0.00, 41130.20, 0.00, 0.00, 0.00, 0.00, 0.00, 0.00, 0.01, 0.01, 1.02
104, 0.00, 41140.98, 0.00, 0.00, 0.00, 0.00, 0.00, 0.00, 0.01, 0.01, 1.02
105, 0.00, 41139.99, 0.00, 0.00, 0.00, 0.00, 0.00, 0.00, 0.01, 0.01, 1.02
106, 0.00, 41136.68, 0.00, 0.00, 0.00, 0.00, 0.00, 0.00, 0.01, 0.01, 1.02
107, 0.00, 41148.69, 0.00, 0.00, 0.00, 0.00, 0.00, 0.00, 0.01, 0.01, 1.02
108, 0.00, 41155.91, 0.00, 0.00, 0.00, 0.00, 0.00, 0.00, 0.01, 0.01, 1.01
109, 0.00, 41156.18, 0.00, 0.00, 0.00, 0.00, 0.00, 0.00, 0.01, 0.01, 1.01
110, 0.00, 41149.02, 0.00, 0.00, 0.00, 0.00, 0.00, 0.00, 0.01, 0.01, 1.01
111, 0.00, 41154.28, 0.00, 0.00, 0.00, 0.00, 0.00, 0.00, 0.01, 0.01, 1.01
112, 0.00, 41169.14, 0.00, 0.00, 0.00, 0.00, 0.00, 0.00, 0.01, 0.01, 1.01
113, 0.00, 41170.10, 0.00, 0.00, 0.00, 0.00, 0.00, 0.00, 0.01, 0.01, 1.02
114, 0.00, 41155.80, 0.00, 0.00, 0.00, 0.00, 0.00, 0.00, 0.01, 0.01, 1.02
115, 0.00, 41162.52, 0.00, 0.00, 0.00, 0.00, 0.00, 0.00, 0.01, 0.01, 1.02
116, 0.00, 41179.29, 0.00, 0.00, 0.00, 0.00, 0.00, 0.00, 0.01, 0.01, 1.02
117, 0.00, 41185.75, 0.00, 0.00, 0.00, 0.00, 0.00, 0.00, 0.01, 0.01, 1.02
118, 0.00, 41173.68, 0.00, 0.00, 0.00, 0.00, 0.00, 0.00, 0.02, 0.01, 1.02
119, 0.00, 41178.02, 0.00, 0.00, 0.00, 0.00, 0.00, 0.00, 0.02, 0.01, 1.02
120, 0.00, 41194.44, 0.00, 0.00, 0.00, 0.00, 0.00, 0.00, 0.02, 0.01, 1.02
121, 0.00, 41204.23, 0.00, 0.00, 0.00, 0.00, 0.00, 0.00, 0.02, 0.01, 1.02
122, 0.00, 41195.14, 0.00, 0.00, 0.00, 0.00, 0.00, 0.00, 0.02, 0.01, 1.02
123, 0.00, 41189.05, 0.00, 0.00, 0.00, 0.00, 0.00, 0.00, 0.01, 0.01, 1.01
124, 0.00, 41208.77, 0.00, 0.00, 0.00, 0.00, 0.00, 0.00, 0.01, 0.01, 1.01
125, 0.00, 41217.49, 0.00, 0.00, 0.00, 0.00, 0.00, 0.00, 0.01, 0.01, 1.01
126, 0.00, 41211.16, 0.00, 0.00, 0.00, 0.00, 0.00, 0.00, 0.01, 0.01, 1.01
127, 0.00, 41202.29, 0.00, 0.00, 0.00, 0.00, 0.00, 0.00, 0.01, 0.01, 1.01
128, 0.00, 41220.82, 0.00, 0.00, 0.00, 0.00, 0.00, 0.00, 0.01, 0.01, 1.01
129, 0.00, 41228.57, 0.00, 0.00, 0.00, 0.00, 0.00, 0.00, 0.01, 0.01, 1.01
130, 0.00, 41215.30, 0.00, 0.00, 0.00, 0.00, 0.00, 0.00, 0.01, 0.01, 1.01
131, 0.00, 41218.80, 0.00, 0.00, 0.00, 0.00, 0.00, 0.00, 0.01, 0.01, 1.01
132, 0.00, 41235.59, 0.00, 0.00, 0.00, 0.00, 0.00, 0.00, 0.01, 0.01, 1.01
133, 0.00, 41249.27, 0.00, 0.00, 0.00, 0.00, 0.00, 0.00, 0.01, 0.01, 1.01
134, 0.00, 41243.95, 0.00, 0.00, 0.00, 0.00, 0.00, 0.00, 0.01, 0.01, 1.01
135, 0.00, 41236.24, 0.00, 0.00, 0.00, 0.00, 0.00, 0.00, 0.01, 0.01, 1.01
136, 0.00, 41249.59, 0.00, 0.00, 0.00, 0.00, 0.00, 0.00, 0.01, 0.01, 1.01
137, 0.00, 41269.45, 0.00, 0.00, 0.00, 0.00, 0.00, 0.00, 0.01, 0.01, 1.01
138, 0.00, 41249.99, 0.00, 0.00, 0.00, 0.00, 0.00, 0.00, 0.02, 0.01, 1.02
139, 0.00, 41227.52, 0.00, 0.00, 0.00, 0.00, 0.00, 0.00, 0.02, 0.01, 1.02
140, 0.00, 41245.43, 0.00, 0.00, 0.00, 0.00, 0.00, 0.00, 0.02, 0.01, 1.02
141, 0.00, 41273.30, 0.00, 0.00, 0.00, 0.00, 0.00, 0.00, 0.02, 0.01, 1.02
142, 0.00, 41272.07, 0.00, 0.00, 0.00, 0.00, 0.00, 0.00, 0.02, 0.01, 1.02
143, 0.00, 41262.91, 0.00, 0.00, 0.00, 0.00, 0.00, 0.00, 0.01, 0.01, 1.02
144, 0.00, 41260.71, 0.00, 0.00, 0.00, 0.00, 0.00, 0.00, 0.01, 0.01, 1.02
145, 0.00, 41276.12, 0.00, 0.00, 0.00, 0.00, 0.00, 0.00, 0.01, 0.01, 1.02
146, 0.00, 41281.32, 0.00, 0.00, 0.00, 0.00, 0.00, 0.00, 0.01, 0.01, 1.02
147, 0.00, 41279.58, 0.00, 0.00, 0.00, 0.00, 0.00, 0.00, 0.01, 0.01, 1.02
148, 0.00, 41277.14, 0.00, 0.00, 0.00, 0.00, 0.00, 0.00, 0.01, 0.01, 1.02
149, 0.00, 41291.83, 0.00, 0.00, 0.00, 0.00, 0.00, 0.00, 0.01, 0.01, 1.02
150, 0.00, 41298.89, 0.00, 0.00, 0.00, 0.00, 0.00, 0.00, 0.01, 0.01, 1.02
151, 0.00, 41286.98, 0.00, 0.00, 0.00, 0.00, 0.00, 0.00, 0.01, 0.01, 1.02
152, 0.00, 41278.64, 0.00, 0.00, 0.00, 0.00, 0.00, 0.00, 0.01, 0.01, 1.02
153, 0.00, 41299.05, 0.00, 0.00, 0.00, 0.00, 0.00, 0.00, 0.01, 0.01, 1.02
154, 0.00, 41308.73, 0.00, 0.00, 0.00, 0.00, 0.00, 0.00, 0.01, 0.01, 1.02
155, 0.00, 41294.00, 0.00, 0.00, 0.00, 0.00, 0.00, 0.00, 0.01, 0.01, 1.02
156, 0.00, 41296.10, 0.00, 0.00, 0.00, 0.00, 0.00, 0.00, 0.01, 0.01, 1.02
157, 0.00, 41319.14, 0.00, 0.00, 0.00, 0.00, 0.00, 0.00, 0.01, 0.01, 1.02
158, 0.00, 41320.02, 0.00, 0.00, 0.00, 0.00, 0.00, 0.00, 0.01, 0.01, 1.02
159, 0.00, 41312.79, 0.00, 0.00, 0.00, 0.00, 0.00, 0.00, 0.01, 0.01, 1.02
160, 0.00, 41304.05, 0.00, 0.00, 0.00, 0.00, 0.00, 0.00, 0.01, 0.01, 1.02
161, 0.00, 41317.67, 0.00, 0.00, 0.00, 0.00, 0.00, 0.00, 0.01, 0.01, 1.02
162, 0.00, 41334.68, 0.00, 0.00, 0.00, 0.00, 0.00, 0.00, 0.01, 0.01, 1.02
163, 0.00, 41322.52, 0.00, 0.00, 0.00, 0.00, 0.00, 0.00, 0.01, 0.01, 1.02
164, 0.00, 41307.88, 0.00, 0.00, 0.00, 0.00, 0.00, 0.00, 0.01, 0.01, 1.02
165, 0.00, 41315.30, 0.00, 0.00, 0.00, 0.00, 0.00, 0.00, 0.01, 0.01, 1.02
166, 0.00, 41335.23, 0.00, 0.00, 0.00, 0.00, 0.00, 0.00, 0.01, 0.01, 1.02
167, 0.00, 41340.42, 0.00, 0.00, 0.00, 0.00, 0.00, 0.00, 0.01, 0.01, 1.02
168, 0.00, 41338.61, 0.00, 0.00, 0.00, 0.00, 0.00, 0.00, 0.02, 0.02, 1.02
169, 0.00, 41342.55, 0.00, 0.00, 0.00, 0.00, 0.00, 0.00, 0.02, 0.02, 1.02
170, 0.00, 41355.29, 0.00, 0.00, 0.00, 0.00, 0.00, 0.00, 0.02, 0.02, 1.02
171, 0.00, 41361.81, 0.00, 0.00, 0.00, 0.00, 0.00, 0.00, 0.02, 0.02, 1.02
172, 0.00, 41352.36, 0.00, 0.00, 0.00, 0.00, 0.00, 0.00, 0.02, 0.02, 1.02
173, 0.00, 41344.31, 0.00, 0.00, 0.00, 0.00, 0.00, 0.00, 0.01, 0.01, 1.02
174, 0.00, 41356.29, 0.00, 0.00, 0.00, 0.00, 0.00, 0.00, 0.01, 0.01, 1.02
175, 0.00, 41360.56, 0.00, 0.00, 0.00, 0.00, 0.00, 0.00, 0.01, 0.01, 1.02
176, 0.00, 41355.11, 0.00, 0.00, 0.00, 0.00, 0.00, 0.00, 0.01, 0.01, 1.02
177, 0.00, 41351.87, 0.00, 0.00, 0.00, 0.00, 0.00, 0.00, 0.01, 0.01, 1.02
178, 0.00, 41357.07, 0.00, 0.00, 0.00, 0.00, 0.00, 0.00, 0.01, 0.01, 1.02
179, 0.00, 41373.10, 0.00, 0.00, 0.00, 0.00, 0.00, 0.00, 0.01, 0.01, 1.02
180, 0.00, 41364.20, 0.00, 0.00, 0.00, 0.00, 0.00, 0.00, 0.01, 0.01, 1.02
181, 0.00, 41358.86, 0.00, 0.00, 0.00, 0.00, 0.00, 0.00, 0.01, 0.01, 1.02
182, 0.00, 41371.56, 0.00, 0.00, 0.00, 0.00, 0.00, 0.00, 0.01, 0.01, 1.02
183, 0.00, 41382.71, 0.00, 0.00, 0.00, 0.00, 0.00, 0.00, 0.01, 0.01, 1.01
184, 0.00, 41369.97, 0.00, 0.00, 0.00, 0.00, 0.00, 0.00, 0.01, 0.01, 1.01
185, 0.00, 41357.63, 0.00, 0.00, 0.00, 0.00, 0.00, 0.00, 0.01, 0.01, 1.01
186, 0.00, 41379.00, 0.00, 0.00, 0.00, 0.00, 0.00, 0.00, 0.01, 0.01, 1.01
187, 0.00, 41388.46, 0.00, 0.00, 0.00, 0.00, 0.00, 0.00, 0.01, 0.01, 1.01
188, 0.00, 41379.52, 0.00, 0.00, 0.00, 0.00, 0.00, 0.00, 0.01, 0.01, 1.01
189, 0.00, 41372.70, 0.00, 0.00, 0.00, 0.00, 0.00, 0.00, 0.01, 0.01, 1.01
190, 0.00, 41380.66, 0.00, 0.00, 0.00, 0.00, 0.00, 0.00, 0.01, 0.01, 1.01
191, 0.00, 41398.92, 0.00, 0.00, 0.00, 0.00, 0.00, 0.00, 0.01, 0.01, 1.01
192, 0.00, 41396.39, 0.00, 0.00, 0.00, 0.00, 0.00, 0.00, 0.01, 0.01, 1.01
193, 0.00, 41373.43, 0.00, 0.00, 0.00, 0.00, 0.00, 0.00, 0.01, 0.01, 1.02
194, 0.00, 41371.04, 0.00, 0.00, 0.00, 0.00, 0.00, 0.00, 0.01, 0.01, 1.02
195, 0.00, 41393.51, 0.00, 0.00, 0.00, 0.00, 0.00, 0.00, 0.01, 0.01, 1.02
196, 0.00, 41397.73, 0.00, 0.00, 0.00, 0.00, 0.00, 0.00, 0.01, 0.01, 1.02
197, 0.00, 41387.00, 0.00, 0.00, 0.00, 0.00, 0.00, 0.00, 0.01, 0.01, 1.02
198, 0.00, 41391.59, 0.00, 0.00, 0.00, 0.00, 0.00, 0.00, 0.01, 0.01, 1.02
199, 0.00, 41410.58, 0.00, 0.00, 0.00, 0.00, 0.00, 0.00, 0.01, 0.01, 1.02
200, 0.00, 41413.07, 0.00, 0.00, 0.00, 0.00, 0.00, 0.00, 0.01, 0.01, 1.02
201, 0.00, 41399.07, 0.00, 0.00, 0.00, 0.00, 0.00, 0.00, 0.01, 0.01, 1.02
202, 0.00, 41395.05, 0.00, 0.00, 0.00, 0.00, 0.00, 0.00, 0.01, 0.01, 1.02
203, 0.00, 41405.38, 0.00, 0.00, 0.00, 0.00, 0.00, 0.00, 0.01, 0.01, 1.02
204, 0.00, 41413.64, 0.00, 0.00, 0.00, 0.00, 0.00, 0.00, 0.01, 0.01, 1.02
205, 0.00, 41402.87, 0.00, 0.00, 0.00, 0.00, 0.00, 0.00, 0.01, 0.01, 1.02
206, 0.00, 41404.46, 0.00, 0.00, 0.00, 0.00, 0.00, 0.00, 0.01, 0.01, 1.02
207, 0.00, 41419.48, 0.00, 0.00, 0.00, 0.00, 0.00, 0.00, 0.01, 0.01, 1.02
208, 0.00, 41432.20, 0.00, 0.00, 0.00, 0.00, 0.00, 0.00, 0.01, 0.02, 1.02
209, 0.00, 41431.26, 0.00, 0.00, 0.00, 0.00, 0.00, 0.00, 0.01, 0.02, 1.02
210, 0.00, 41424.35, 0.00, 0.00, 0.00, 0.00, 0.00, 0.00, 0.01, 0.02, 1.02
211, 0.00, 41429.09, 0.00, 0.00, 0.00, 0.00, 0.00, 0.00, 0.01, 0.02, 1.02
212, 0.00, 41448.25, 0.00, 0.00, 0.00, 0.00, 0.00, 0.00, 0.01, 0.02, 1.02
213, 0.00, 41443.71, 0.00, 0.00, 0.00, 0.00, 0.00, 0.00, 0.01, 0.01, 1.02
214, 0.00, 41429.38, 0.00, 0.00, 0.00, 0.00, 0.00, 0.00, 0.01, 0.01, 1.02
215, 0.00, 41440.54, 0.00, 0.00, 0.00, 0.00, 0.00, 0.00, 0.01, 0.01, 1.02
216, 0.00, 41474.64, 0.00, 0.00, 0.00, 0.00, 0.00, 0.00, 0.01, 0.01, 1.02
217, 0.00, 41483.41, 0.00, 0.00, 0.00, 0.00, 0.00, 0.00, 0.01, 0.01, 1.02
218, 0.00, 41430.16, 0.00, 0.00, 0.00, 0.00, 0.00, 0.00, 0.01, 0.01, 1.02
219, 0.00, 41410.61, 0.00, 0.00, 0.00, 0.00, 0.00, 0.00, 0.01, 0.01, 1.02
220, 0.00, 41408.57, 0.00, 0.00, 0.00, 0.00, 0.00, 0.00, 0.01, 0.01, 1.02
221, 0.00, 41410.23, 0.00, 0.00, 0.00, 0.00, 0.00, 0.00, 0.01, 0.01, 1.02
222, 0.00, 41392.50, 0.00, 0.00, 0.00, 0.00, 0.00, 0.00, 0.01, 0.01, 1.02
223, 0.00, 41382.80, 0.00, 0.00, 0.00, 0.00, 0.00, 0.00, 0.01, 0.01, 1.02
224, 0.00, 41387.83, 0.00, 0.00, 0.00, 0.00, 0.00, 0.00, 0.01, 0.01, 1.02
225, 0.00, 41383.98, 0.00, 0.00, 0.00, 0.00, 0.00, 0.00, 0.01, 0.01, 1.02
226, 0.00, 41369.30, 0.00, 0.00, 0.00, 0.00, 0.00, 0.00, 0.01, 0.01, 1.02
227, 0.00, 41360.79, 0.00, 0.00, 0.00, 0.00, 0.00, 0.00, 0.01, 0.01, 1.02
228, 0.00, 41380.10, 0.00, 0.00, 0.00, 0.00, 0.00, 0.00, 0.01, 0.01, 1.02
229, 0.00, 41396.28, 0.00, 0.00, 0.00, 0.00, 0.00, 0.00, 0.01, 0.01, 1.02
230, 0.00, 41388.97, 0.00, 0.00, 0.00, 0.00, 0.00, 0.00, 0.01, 0.01, 1.02
231, 0.00, 41387.70, 0.00, 0.00, 0.00, 0.00, 0.00, 0.00, 0.01, 0.01, 1.02
232, 0.00, 41403.79, 0.00, 0.00, 0.00, 0.00, 0.00, 0.00, 0.01, 0.01, 1.02
233, 0.00, 41421.89, 0.00, 0.00, 0.00, 0.00, 0.00, 0.00, 0.01, 0.02, 1.02
234, 0.00, 41414.34, 0.00, 0.00, 0.00, 0.00, 0.00, 0.00, 0.01, 0.02, 1.02
235, 0.00, 41410.18, 0.00, 0.00, 0.00, 0.00, 0.00, 0.00, 0.01, 0.02, 1.02
236, 0.00, 41423.21, 0.00, 0.00, 0.00, 0.00, 0.00, 0.00, 0.01, 0.02, 1.02
237, 0.00, 41439.89, 0.00, 0.00, 0.00, 0.00, 0.00, 0.00, 0.01, 0.02, 1.02
238, 0.00, 41435.95, 0.00, 0.00, 0.00, 0.00, 0.00, 0.00, 0.01, 0.01, 1.02
239, 0.00, 41428.13, 0.00, 0.00, 0.00, 0.00, 0.00, 0.00, 0.01, 0.01, 1.02
240, 0.00, 41428.42, 0.00, 0.00, 0.00, 0.00, 0.00, 0.00, 0.01, 0.01, 1.02
241, 0.00, 41452.56, 0.00, 0.00, 0.00, 0.00, 0.00, 0.00, 0.01, 0.01, 1.02
242, 0.00, 41459.09, 0.00, 0.00, 0.00, 0.00, 0.00, 0.00, 0.01, 0.01, 1.02
243, 0.00, 41439.66, 0.00, 0.00, 0.00, 0.00, 0.00, 0.00, 0.00, 0.01, 1.03
244, 0.00, 41448.49, 0.00, 0.00, 0.00, 0.00, 0.00, 0.00, 0.00, 0.01, 1.03
245, 0.00, 41463.18, 0.00, 0.00, 0.00, 0.00, 0.00, 0.00, 0.00, 0.01, 1.03
246, 0.00, 41474.64, 0.00, 0.00, 0.00, 0.00, 0.00, 0.00, 0.00, 0.01, 1.03
247, 0.00, 41468.32, 0.00, 0.00, 0.00, 0.00, 0.00, 0.00, 0.00, 0.01, 1.03
248, 0.00, 41460.50, 0.00, 0.00, 0.00, 0.00, 0.00, 0.00, 0.01, 0.01, 1.03
249, 0.00, 41476.14, 0.00, 0.00, 0.00, 0.00, 0.00, 0.00, 0.01, 0.01, 1.03
250, 0.00, 41488.28, 0.00, 0.00, 0.00, 0.00, 0.00, 0.00, 0.01, 0.01, 1.03
251, 0.00, 41478.46, 0.00, 0.00, 0.00, 0.00, 0.00, 0.00, 0.01, 0.01, 1.03
252, 0.00, 41477.46, 0.00, 0.00, 0.00, 0.00, 0.00, 0.00, 0.01, 0.01, 1.03
253, 0.00, 41491.65, 0.00, 0.00, 0.00, 0.00, 0.00, 0.00, 0.01, 0.01, 1.02
254, 0.00, 41502.81, 0.00, 0.00, 0.00, 0.00, 0.00, 0.00, 0.01, 0.01, 1.02
255, 0.00, 41488.37, 0.00, 0.00, 0.00, 0.00, 0.00, 0.00, 0.01, 0.01, 1.02
0, 0.00, 41480.23, 0.00, 0.00, 0.00, 0.00, 0.00, 0.00, 0.01, 0.01, 1.02
1, 0.00, 41498.38, 0.00, 0.00, 0.00, 0.00, 0.00, 0.00, 0.01, 0.01, 1.02
2, 0.00, 41506.99, 0.00, 0.00, 0.00, 0.00, 0.00, 0.00, 0.01, 0.01, 1.02
3, 0.00, 41486.54, 0.00, 0.00, 0.00, 0.00, 0.00, 0.00, 0.01, 0.01, 1.02
4, 0.00, 41471.16, 0.00, 0.00, 0.00, 0.00, 0.00, 0.00, 0.01, 0.01, 1.02
5, 0.00, 41480.28, 0.00, 0.00, 0.00, 0.00, 0.00, 0.00, 0.01, 0.01, 1.02
6, 0.00, 41500.77, 0.00, 0.00, 0.00, 0.00, 0.00, 0.00, 0.01, 0.01, 1.02
7, 0.00, 41496.39, 0.00, 0.00, 0.00, 0.00, 0.00, 0.00, 0.01, 0.01, 1.02
8, 0.00, 41467.38, 0.00, 0.00, 0.00, 0.00, 0.00, 0.00, 0.01, 0.01, 1.02
9, 0.00, 41477.41, 0.00, 0.00, 0.00, 0.00, 0.00, 0.00, 0.01, 0.01, 1.02
10, 0.00, 41494.29, 0.00, 0.00, 0.00, 0.00, 0.00, 0.00, 0.01, 0.01, 1.02
11, 0.00, 41489.17, 0.00, 0.00, 0.00, 0.00, 0.00, 0.00, 0.01, 0.01, 1.02
12, 0.00, 41479.72, 0.00, 0.00, 0.00, 0.00, 0.00, 0.00, 0.01, 0.01, 1.02
13, 0.00, 41480.68, 0.00, 0.00, 0.00, 0.00, 0.00, 0.00, 0.01, 0.01, 1.02
14, 0.00, 41504.08, 0.00, 0.00, 0.00, 0.00, 0.00, 0.00, 0.01, 0.01, 1.02
15, 0.00, 41504.59, 0.00, 0.00, 0.00, 0.00, 0.00, 0.00, 0.01, 0.01, 1.02
16, 0.00, 41487.52, 0.00, 0.00, 0.00, 0.00, 0.00, 0.00, 0.01, 0.01, 1.02
17, 0.00, 41497.15, 0.00, 0.00, 0.00, 0.00, 0.00, 0.00, 0.00, 0.01, 1.02
18, 0.00, 41526.32, 0.00, 0.00, 0.00, 0.00, 0.00, 0.00, 0.00, 0.01, 1.02
19, 0.00, 41517.05, 0.00, 0.00, 0.00, 0.00, 0.00, 0.00, 0.00, 0.01, 1.02
20, 0.00, 41511.70, 0.00, 0.00, 0.00, 0.00, 0.00, 0.00, 0.00, 0.01, 1.02
21, 0.00, 41503.23, 0.00, 0.00, 0.00, 0.00, 0.00, 0.00, 0.00, 0.01, 1.02
22, 0.00, 41513.34, 0.00, 0.00, 0.00, 0.00, 0.00, 0.00, 0.00, 0.01, 1.02
23, 0.00, 41513.47, 0.00, 0.00, 0.00, 0.00, 0.00, 0.00, 0.00, 0.01, 1.02
24, 0.00, 41509.40, 0.00, 0.00, 0.00, 0.00, 0.00, 0.00, 0.00, 0.01, 1.02
25, 0.00, 41501.00, 0.00, 0.00, 0.00, 0.00, 0.00, 0.00, 0.00, 0.01, 1.02
26, 0.00, 41518.12, 0.00, 0.00, 0.00, 0.00, 0.00, 0.00, 0.00, 0.01, 1.02
27, 0.00, 41566.64, 0.00, 0.00, 0.00, 0.00, 0.00, 0.00, 0.01, 0.01, 1.02
28, 0.00, 41555.13, 0.00, 0.00, 0.00, 0.00, 0.00, 0.00, 0.01, 0.01, 1.02
29, 0.00, 41523.15, 0.00, 0.00, 0.00, 0.00, 0.00, 0.00, 0.01, 0.01, 1.02
30, 0.00, 41526.79, 0.00, 0.00, 0.00, 0.00, 0.00, 0.00, 0.01, 0.01, 1.02
31, 0.00, 41561.93, 0.00, 0.00, 0.00, 0.00, 0.00, 0.00, 0.01, 0.01, 1.02
32, 0.00, 41563.29, 0.00, 0.00, 0.00, 0.00, 0.00, 0.00, 0.01, 0.01, 1.02
33, 0.00, 41546.55, 0.00, 0.00, 0.00, 0.00, 0.00, 0.00, 0.01, 0.01, 1.02
34, 0.00, 41561.77, 0.00, 0.00, 0.00, 0.00, 0.00, 0.00, 0.01, 0.01, 1.02
35, 0.00, 41601.04, 0.00, 0.00, 0.00, 0.00, 0.00, 0.00, 0.01, 0.01, 1.02
36, 0.00, 41613.36, 0.00, 0.00, 0.00, 0.00, 0.00, 0.00, 0.01, 0.01, 1.02
37, 0.00, 41598.25, 0.00, 0.00, 0.00, 0.00, 0.00, 0.00, 0.01, 0.01, 1.02
38, 0.00, 41611.82, 0.00, 0.00, 0.00, 0.00, 0.00, 0.00, 0.01, 0.01, 1.02
39, 0.00, 41635.80, 0.00, 0.00, 0.00, 0.00, 0.00, 0.00, 0.01, 0.01, 1.02
40, 0.00, 41635.06, 0.00, 0.00, 0.00, 0.00, 0.00, 0.00, 0.01, 0.01, 1.02
41, 0.00, 41618.30, 0.00, 0.00, 0.00, 0.00, 0.00, 0.00, 0.01, 0.01, 1.02
42, 0.00, 41620.82, 0.00, 0.00, 0.00, 0.00, 0.00, 0.00, 0.01, 0.01, 1.02
43, 0.00, 41643.15, 0.00, 0.00, 0.00, 0.00, 0.00, 0.00, 0.01, 0.01, 1.02
44, 0.00, 41650.75, 0.00, 0.00, 0.00, 0.00, 0.00, 0.00, 0.01, 0.01, 1.02
45, 0.00, 41640.23, 0.00, 0.00, 0.00, 0.00, 0.00, 0.00, 0.01, 0.01, 1.02
46, 0.00, 41633.30, 0.00, 0.00, 0.00, 0.00, 0.00, 0.00, 0.01, 0.01, 1.02
47, 0.00, 41642.19, 0.00, 0.00, 0.00, 0.00, 0.00, 0.00, 0.01, 0.01, 1.02
48, 0.00, 41660.10, 0.00, 0.00, 0.00, 0.00, 0.00, 0.00, 0.00, 0.01, 1.03
49, 0.00, 41653.37, 0.00, 0.00, 0.00, 0.00, 0.00, 0.00, 0.00, 0.01, 1.03
50, 0.00, 41644.61, 0.00, 0.00, 0.00, 0.00, 0.00, 0.00, 0.00, 0.01, 1.03
51, 0.00, 41646.86, 0.00, 0.00, 0.00, 0.00, 0.00, 0.00, 0.00, 0.01, 1.03
52, 0.00, 41662.49, 0.00, 0.00, 0.00, 0.00, 0.00, 0.00, 0.00, 0.01, 1.03
53, 0.00, 41645.63, 0.00, 0.00, 0.00, 0.00, 0.00, 0.00, 0.00, 0.01, 1.02
54, 0.00, 41627.64, 0.00, 0.00, 0.00, 0.00, 0.00, 0.00, 0.00, 0.01, 1.02
55, 0.00, 41635.11, 0.00, 0.00, 0.00, 0.00, 0.00, 0.00, 0.00, 0.01, 1.02
56, 0.00, 41652.09, 0.00, 0.00, 0.00, 0.00, 0.00, 0.00, 0.00, 0.01, 1.02
57, 0.00, 41648.41, 0.00, 0.00, 0.00, 0.00, 0.00, 0.00, 0.00, 0.01, 1.02
58, 0.00, 41635.58, 0.00, 0.00, 0.00, 0.00, 0.00, 0.00, 0.00, 0.01, 1.00
59, 0.00, 41641.16, 0.00, 0.00, 0.00, 0.00, 0.00, 0.00, 0.00, 0.01, 1.00
60, 0.00, 41659.02, 0.00, 0.00, 0.00, 0.00, 0.00, 0.00, 0.00, 0.01, 1.00
61, 0.00, 41665.48, 0.00, 0.00, 0.00, 0.00, 0.00, 0.00, 0.00, 0.01, 1.00
62, 0.00, 41645.70, 0.00, 0.00, 0.00, 0.00, 0.00, 0.00, 0.00, 0.01, 1.00
63, 0.00, 41633.36, 0.00, 0.00, 0.00, 0.00, 0.00, 0.00, 0.00, 0.02, 1.01
64, 0.00, 41654.40, 0.00, 0.00, 0.00, 0.00, 0.00, 0.00, 0.00, 0.02, 1.01
65, 0.00, 41662.40, 0.00, 0.00, 0.00, 0.00, 0.00, 0.00, 0.00, 0.02, 1.01
66, 0.00, 41658.00, 0.00, 0.00, 0.00, 0.00, 0.00, 0.00, 0.00, 0.02, 1.01
67, 0.00, 41655.02, 0.00, 0.00, 0.00, 0.00, 0.00, 0.00, 0.00, 0.02, 1.01
68, 0.00, 41670.42, 0.00, 0.00, 0.00, 0.00, 0.00, 0.00, 0.01, 0.01, 1.01
69, 0.00, 41677.69, 0.00, 0.00, 0.00, 0.00, 0.00, 0.00, 0.01, 0.01, 1.01
70, 0.00, 41673.91, 0.00, 0.00, 0.00, 0.00, 0.00, 0.00, 0.01, 0.01, 1.01
71, 0.00, 41677.24, 0.00, 0.00, 0.00, 0.00, 0.00, 0.00, 0.01, 0.01, 1.01
72, 0.00, 41669.62, 0.00, 0.00, 0.00, 0.00, 0.00, 0.00, 0.01, 0.01, 1.01
73, 0.00, 41681.49, 0.00, 0.00, 0.00, 0.00, 0.00, 0.00, 0.00, 0.01, 1.02
74, 0.00, 41696.42, 0.00, 0.00, 0.00, 0.00, 0.00, 0.00, 0.00, 0.01, 1.02
75, 0.00, 41692.48, 0.00, 0.00, 0.00, 0.00, 0.00, 0.00, 0.00, 0.01, 1.02
76, 0.00, 41700.60, 0.00, 0.00, 0.00, 0.00, 0.00, 0.00, 0.00, 0.01, 1.02
77, 0.00, 41721.34, 0.00, 0.00, 0.00, 0.00, 0.00, 0.00, 0.00, 0.01, 1.02
78, 0.00, 41715.86, 0.00, 0.00, 0.00, 0.00, 0.00, 0.00, 0.01, 0.01, 1.01
79, 0.00, 41703.68, 0.00, 0.00, 0.00, 0.00, 0.00, 0.00, 0.01, 0.01, 1.01
80, 0.00, 41708.36, 0.00, 0.00, 0.00, 0.00, 0.00, 0.00, 0.01, 0.01, 1.01
81, 0.00, 41727.15, 0.00, 0.00, 0.00, 0.00, 0.00, 0.00, 0.01, 0.01, 1.01
82, 0.00, 41741.05, 0.00, 0.00, 0.00, 0.00, 0.00, 0.00, 0.01, 0.01, 1.01
83, 0.00, 41730.32, 0.00, 0.00, 0.00, 0.00, 0.00, 0.00, 0.01, 0.01, 1.01
84, 0.00, 41719.95, 0.00, 0.00, 0.00, 0.00, 0.00, 0.00, 0.01, 0.01, 1.01
85, 0.00, 41710.66, 0.00, 0.00, 0.00, 0.00, 0.00, 0.00, 0.01, 0.01, 1.01
86, 0.00, 41721.38, 0.00, 0.00, 0.00, 0.00, 0.00, 0.00, 0.01, 0.01, 1.01
87, 0.00, 41707.32, 0.00, 0.00, 0.00, 0.00, 0.00, 0.00, 0.01, 0.01, 1.01
88, 0.00, 41701.27, 0.00, 0.00, 0.00, 0.00, 0.00, 0.00, 0.01, 0.01, 1.02
89, 0.00, 41703.10, 0.00, 0.00, 0.00, 0.00, 0.00, 0.00, 0.01, 0.01, 1.02
90, 0.00, 41707.55, 0.00, 0.00, 0.00, 0.00, 0.00, 0.00, 0.01, 0.01, 1.02
91, 0.00, 41690.27, 0.00, 0.00, 0.00, 0.00, 0.00, 0.00, 0.01, 0.01, 1.02
92, 0.00, 41691.86, 0.00, 0.00, 0.00, 0.00, 0.00, 0.00, 0.01, 0.01, 1.02
