%OpenBCI Raw EEG Data
%
%Sample Rate = 250.0 Hz
%First Column = SampleIndex
%Other Columns = EEG data in microvolts followed by Accel Data (in G) interleaved with Aux Data
0, -187500.02, 13683.11, -30224.30, -6492.62, -14855.21, -14965.65, -13539.88, -30.76, 0.00, 0.00, 0.00
1, -187500.02, 13178.79, -29342.79, -6961.99, -14458.69, -14051.76, -2958.66, 3891.89, 0.00, 0.00, 0.00
2, -187500.02, 13587.27, -29904.44, -6629.53, -15162.06, -14619.20, -9456.82, 4935.58, 0.00, 0.00, 0.00
3, -187500.02, 14027.49, -30898.96, -6155.02, -15655.09, -15639.89, -20981.96, 812.80, 0.00, 0.00, 0.00
4, -187500.02, 13588.65, -30428.35, -6420.81, -14979.27, -15161.46, -15285.28, -863.36, 0.00, 0.00, 0.00
5, -187500.02, 12982.59, -29400.72, -6922.69, -14412.72, -14100.64, -2897.77, 2951.12, 0.00, 0.00, 0.00
6, -187500.02, 13249.71, -29675.31, -6754.83, -14967.76, -14377.25, -6189.13, 5237.01, 0.00, 0.00, 0.00
7, -187500.02, 14128.94, -30693.10, -6119.66, -15588.62, -15426.15, -18467.66, 1999.43, 0.00, 0.01, 0.00
8, -187500.02, 14072.19, -30528.86, -6219.80, -15110.47, -15264.23, -16482.40, -477.37, 0.00, 0.00, 0.00
9, -187500.02, 13231.38, -29475.85, -6850.83, -14425.55, -14180.15, -3706.61, 2588.85, 0.00, 0.00, 0.00
10, -187500.02, 13229.97, -29488.07, -6810.89, -14808.43, -14186.67, -3949.46, 5552.15, 0.00, 0.00, 0.00
11, -187500.02, 13756.47, -30585.90, -6259.70, -15574.94, -15312.46, -16776.37, 2828.05, 0.00, 0.00, 0.00
12, -187500.02, 13776.36, -30721.76, -6236.65, -15289.64, -15457.46, -18371.17, -643.15, 0.00, 0.00, 0.00
13, -187500.02, 13255.05, -29674.94, -6803.11, -14502.50, -14379.01, -5482.03, 1539.72, 0.00, 0.00, 0.00
14, -187500.02, 13208.67, -29422.88, -6866.25, -14686.35, -14110.79, -2510.86, 5131.83, 0.00, 0.00, 0.00
15, -187500.02, 13810.49, -30436.91, -6269.26, -15482.74, -15152.67, -14740.62, 3245.50, 0.00, 0.00, 0.00
16, -187500.02, 13945.86, -30825.33, -6095.90, -15394.07, -15557.53, -19308.71, -695.47, 0.00, 0.00, 0.00
17, -187500.02, 13321.44, -29837.81, -6627.72, -14560.19, -14541.42, -7261.46, 696.21, 0.00, 0.00, 0.00
18, -187500.02, 13073.16, -29294.22, -6879.35, -14522.64, -13976.54, -1288.33, 4769.33, 0.00, 0.01, 0.00
19, -187500.02, 13581.95, -30222.91, -6381.02, -15365.39, -14926.36, -11973.02, 3938.53, 0.00, 0.00, 0.00
20, -187500.02, 14027.91, -30881.15, -6067.58, -15502.86, -15607.26, -19521.10, -131.47, 0.00, 0.00, 0.00
21, -187500.02, 13610.07, -30075.41, -6510.08, -14704.36, -14783.64, -9879.72, 26.13, 0.00, 0.00, 0.00
22, -187500.02, 13086.05, -29348.17, -6906.69, -14469.45, -14031.13, -1375.35, 3923.33, 0.00, 0.00, 0.00
23, -187500.02, 13525.91, -30060.46, -6450.89, -15223.50, -14757.16, -10068.46, 3937.21, 0.00, 0.00, 0.00
24, -187500.02, 14179.21, -30895.85, -5960.81, -15550.64, -15615.73, -19885.59, -322.69, 0.00, 0.00, 0.00
25, -187500.02, 13603.23, -30320.34, -6348.54, -14840.33, -15023.70, -12354.64, -1186.81, 0.00, 0.00, 0.00
26, -187500.02, 12975.21, -29375.27, -6834.31, -14378.47, -14047.40, -1437.19, 2806.91, 0.00, 0.00, 0.00
27, -187500.02, 13430.63, -29816.24, -6548.41, -15019.52, -14495.89, -7209.71, 4162.81, 0.00, 0.00, 0.00
28, -187500.02, 14036.34, -30811.74, -6058.17, -15560.90, -15518.57, -18699.04, 419.90, 0.00, 0.01, 0.00
29, -187500.02, 13791.27, -30475.87, -6258.22, -14973.21, -15175.94, -14289.13, -1328.68, 0.00, 0.00, 0.00
30, -187500.02, 13251.25, -29428.66, -6767.73, -14355.50, -14095.50, -1964.96, 2333.39, 0.00, 0.00, 0.00
31, -187500.02, 13293.79, -29661.55, -6626.20, -14881.99, -14323.87, -4703.30, 4744.81, 0.00, 0.00, 0.00
32, -187500.02, 13846.97, -30735.19, -6053.79, -15553.62, -15428.04, -17338.52, 1560.55, 0.00, 0.00, 0.00
33, -187500.02, 13883.16, -30642.32, -6089.49, -15107.57, -15340.36, -16304.05, -1128.54, 0.00, 0.00, 0.00
34, -187500.02, 13222.80, -29564.92, -6701.32, -14376.19, -14231.56, -3629.30, 1742.83, 0.00, 0.00, 0.00
35, -187500.02, 13270.21, -29506.78, -6689.07, -14710.67, -14160.97, -2916.37, 4905.94, 0.00, 0.00, 0.00
36, -187500.02, 14022.54, -30576.65, -6084.55, -15480.01, -15256.32, -15522.01, 2556.97, 0.00, 0.00, 0.00
37, -187500.02, 14033.21, -30778.51, -6028.06, -15244.34, -15468.73, -17819.08, -799.54, 0.00, 0.00, 0.00
38, -187500.02, 13235.90, -29749.19, -6676.29, -14449.44, -14412.94, -5523.36, 1231.83, 0.00, 0.01, 0.00
39, -187500.02, 13087.08, -29421.31, -6802.78, -14582.63, -14069.77, -1463.44, 5050.67, 0.00, 0.00, 0.00
40, -187500.02, 13827.75, -30401.46, -6243.67, -15388.10, -15075.13, -13312.41, 3703.86, 0.00, 0.00, 0.00
41, -187500.02, 14069.62, -30859.51, -5993.49, -15364.72, -15551.94, -18709.33, -87.10, 0.00, 0.00, 0.00
42, -187500.02, 13341.29, -29930.30, -6562.56, -14543.70, -14599.69, -7594.88, 1064.23, 0.00, 0.00, 0.00
43, -187500.02, 12906.99, -29326.31, -6902.20, -14450.87, -13974.18, -615.16, 5222.24, 0.00, 0.00, 0.00
44, -187500.02, 13597.17, -30141.64, -6385.20, -15238.90, -14810.22, -10800.83, 4946.84, 0.00, 0.00, 0.00
45, -187500.02, 14057.37, -30818.23, -6051.33, -15433.07, -15513.92, -19065.26, 947.07, 0.00, 0.00, 0.00
46, -187500.02, 13450.03, -30053.01, -6513.28, -14659.26, -14735.59, -10013.78, 961.21, 0.00, 0.00, 0.00
47, -187500.02, 12899.53, -29271.26, -6969.79, -14385.18, -13927.93, -502.18, 5117.92, 0.00, 0.00, 0.00
48, -187500.02, 13353.96, -29941.37, -6561.69, -15134.75, -14607.83, -8450.99, 5859.62, 0.00, 0.00, 0.00
49, -187500.02, 13975.61, -30836.38, -6042.44, -15529.86, -15531.98, -19315.44, 1774.15, 0.00, 0.01, 0.00
50, -187500.02, 13513.64, -30348.84, -6447.18, -14866.90, -15033.07, -12914.73, 474.82, 0.00, 0.00, 0.00
51, -187500.02, 12911.55, -29409.24, -6936.22, -14380.35, -14063.81, -1657.18, 4242.23, 0.00, 0.00, 0.00
52, -187500.02, 13221.03, -29832.22, -6655.05, -15002.54, -14493.61, -6764.55, 5779.51, 0.00, 0.00, 0.00
53, -187500.02, 13954.26, -30849.03, -6053.90, -15560.43, -15541.84, -18908.12, 1994.04, 0.00, 0.00, 0.00
54, -187500.02, 13795.63, -30579.85, -6239.91, -15004.21, -15270.96, -15600.53, -317.46, 0.00, 0.00, 0.00
55, -187500.02, 13070.41, -29560.20, -6819.18, -14376.53, -14217.90, -3104.93, 2880.80, 0.00, 0.00, 0.00
56, -187500.02, 13161.11, -29738.79, -6707.36, -14852.71, -14389.20, -5001.94, 5317.28, 0.00, 0.00, 0.00
57, -187500.02, 13812.13, -30790.91, -6120.22, -15531.56, -15467.23, -17491.27, 2254.22, 0.00, 0.00, 0.00
58, -187500.02, 13787.99, -30793.42, -6127.69, -15151.06, -15474.04, -17388.96, -711.48, 0.00, 0.00, 0.00
59, -187500.02, 13122.44, -29725.40, -6745.35, -14396.56, -14375.55, -4628.80, 1888.19, 0.00, 0.01, 0.00
60, -187500.02, 13152.53, -29585.19, -6726.67, -14667.44, -14221.68, -2997.21, 5215.13, 0.00, 0.00, 0.00
61, -187500.02, 13845.32, -30629.09, -6120.00, -15446.44, -15291.52, -15658.42, 2958.77, 0.00, 0.00, 0.00
62, -187500.02, 13840.89, -30920.57, -6050.13, -15279.63, -15595.73, -18937.76, -802.09, 0.00, 0.00, 0.00
63, -187500.02, 13240.14, -29921.52, -6577.98, -14469.87, -14566.74, -6599.60, 904.87, 0.00, 0.00, 0.00
64, -187500.02, 12973.02, -29512.84, -6731.16, -14528.19, -14137.30, -1671.80, 4838.46, 0.00, 0.00, 0.00
65, -187500.02, 13584.56, -30482.08, -6204.44, -15347.49, -15127.64, -13153.71, 3705.92, 0.00, 0.00, 0.00
66, -187500.02, 13937.92, -31007.93, -5940.40, -15374.78, -15675.81, -19641.24, -324.26, 0.00, 0.00, 0.00
67, -187500.02, 13343.05, -30142.76, -6446.60, -14575.04, -14789.10, -8908.20, 335.48, 0.00, 0.00, 0.00
68, -187500.02, 12972.53, -29500.70, -6809.88, -14423.13, -14120.49, -1278.43, 4462.08, 0.00, 0.00, 0.00
69, -187500.02, 13525.33, -30296.54, -6329.70, -15210.85, -14934.23, -11078.91, 4242.29, 0.00, 0.00, 0.00
70, -187500.02, 13932.09, -31072.77, -5903.14, -15471.70, -15736.77, -20286.82, -10.64, 0.00, 0.01, 0.00
71, -187500.02, 13589.30, -30341.64, -6239.87, -14675.60, -14990.62, -11901.28, -563.78, 0.00, 0.00, 0.00
72, -187500.02, 12979.14, -29488.25, -6734.92, -14323.47, -14106.32, -1480.65, 3550.98, 0.00, 0.00, 0.00
73, -187500.02, 13251.41, -30092.85, -6442.60, -15047.44, -14719.16, -8642.55, 4612.06, 0.00, 0.00, 0.00
74, -187500.02, 13944.85, -31003.86, -5862.91, -15478.47, -15660.46, -19795.40, 718.90, 0.00, 0.00, 0.00
75, -187500.02, 13725.85, -30534.81, -6153.59, -14819.88, -15187.92, -14271.45, -724.55, 0.00, 0.00, 0.00
76, -187500.02, 13125.26, -29564.03, -6742.40, -14300.74, -14188.73, -2693.41, 2947.99, 0.00, 0.00, 0.00
77, -187500.02, 13283.62, -29924.45, -6556.39, -14897.73, -14549.58, -6831.68, 4854.20, 0.00, 0.00, 0.00
78, -187500.02, 13924.35, -30959.94, -5981.15, -15499.28, -15613.36, -19249.68, 1372.20, 0.00, 0.00, 0.00
79, -187500.02, 13853.88, -30748.31, -6045.79, -14982.84, -15401.63, -16689.67, -977.13, 0.00, 0.00, 0.00
80, -187500.02, 12995.26, -29724.29, -6634.94, -14324.65, -14344.25, -3873.71, 2366.40, 0.00, 0.01, 0.00
81, -187500.02, 13042.40, -29784.77, -6598.61, -14726.76, -14397.88, -4856.45, 5360.98, 0.00, 0.00, 0.00
82, -187500.02, 13764.41, -30853.70, -6024.49, -15456.70, -15495.17, -17651.98, 2618.71, 0.00, 0.00, 0.00
83, -187500.02, 13892.70, -30938.52, -5986.00, -15131.84, -15586.70, -18459.68, -440.24, 0.00, 0.00, 0.00
84, -187500.02, 13211.76, -29876.17, -6566.50, -14352.30, -14495.42, -5876.16, 2036.02, 0.00, 0.00, 0.00
85, -187500.02, 13024.96, -29663.36, -6683.28, -14571.73, -14269.26, -3557.28, 5559.50, 0.00, 0.00, 0.00
86, -187500.02, 13721.51, -30686.42, -6054.62, -15365.91, -15320.04, -15928.79, 3578.51, 0.00, 0.00, 0.00
87, -187500.02, 13912.15, -31058.84, -5937.00, -15262.64, -15708.25, -20085.08, -213.95, 0.00, 0.00, 0.00
88, -187500.02, 13280.74, -30098.72, -6526.80, -14455.97, -14724.08, -8321.15, 1200.80, 0.00, 0.00, 0.00
89, -187500.02, 12877.60, -29627.28, -6770.32, -14462.29, -14234.13, -2769.54, 5081.18, 0.00, 0.00, 0.00
90, -187500.02, 13574.91, -30536.19, -6178.40, -15262.78, -15164.81, -13813.69, 4098.73, 0.00, 0.00, 0.00
91, -187500.02, 13989.60, -31143.00, -5878.82, -15366.42, -15793.12, -20747.56, 9.48, 0.00, 0.01, 0.00
92, -187500.02, 13430.85, -30318.96, -6344.34, -14567.39, -14949.09, -10592.02, 461.54, 0.00, 0.00, 0.00
93, -187500.02, 12914.39, -29620.06, -6765.29, -14362.94, -14223.96, -2267.92, 4530.68, 0.00, 0.00, 0.00
94, -187500.02, 13404.43, -30376.82, -6346.71, -15139.51, -14994.80, -11211.63, 4642.03, 0.00, 0.00, 0.00
95, -187500.02, 14043.44, -31184.28, -5909.29, -15444.65, -15829.86, -20830.19, 519.92, 0.00, 0.00, 0.00
96, -187500.02, 13602.42, -30537.04, -6250.11, -14697.70, -15170.89, -13359.10, -331.63, 0.00, 0.00, 0.00
97, -187500.02, 12843.71, -29622.43, -6797.95, -14282.29, -14228.05, -2307.86, 3619.06, 0.00, 0.00, 0.00
98, -187500.02, 13300.99, -30133.86, -6421.81, -14959.24, -14745.71, -8343.50, 5036.38, 0.00, 0.00, 0.00
99, -187500.02, 13932.49, -31095.66, -5833.67, -15451.58, -15735.76, -19794.06, 1324.99, 0.00, 0.00, 0.00
100, -187500.02, 13622.54, -30718.92, -6073.44, -14839.86, -15353.70, -14996.30, -345.78, 0.00, 0.00, 0.00
101, -187500.02, 12985.22, -29711.75, -6652.37, -14260.39, -14314.57, -2987.13, 3270.31, 0.00, 0.01, 0.00
102, -187500.02, 13226.55, -29966.11, -6477.54, -14794.71, -14568.84, -6296.40, 5384.27, 0.00, 0.00, 0.00
103, -187500.02, 13945.90, -31016.93, -5926.19, -15442.37, -15647.92, -18792.99, 1989.10, 0.00, 0.00, 0.00
104, -187500.02, 13815.28, -30895.94, -5986.31, -14983.87, -15526.28, -17263.06, -714.90, 0.00, 0.00, 0.00
105, -187500.02, 13095.84, -29834.53, -6554.36, -14275.10, -14431.72, -4413.60, 2202.38, 0.00, 0.00, 0.00
106, -187500.02, 13076.33, -29827.02, -6592.98, -14640.10, -14415.49, -4347.19, 5208.25, 0.00, 0.00, 0.00
107, -187500.02, 13865.35, -30877.75, -5965.61, -15385.38, -15495.08, -17065.00, 2547.90, 0.00, 0.00, 0.00
108, -187500.02, 13993.26, -31034.68, -5836.33, -15116.57, -15661.55, -18723.14, -849.52, 0.00, 0.00, 0.00
109, -187500.02, 13224.63, -30005.88, -6485.02, -14334.31, -14604.99, -6198.00, 1263.75, 0.00, 0.00, 0.00
110, -187500.02, 12886.14, -29729.29, -6709.19, -14504.76, -14312.40, -2794.75, 4875.12, 0.00, 0.00, 0.00
111, -187500.02, 13565.45, -30707.99, -6107.50, -15297.80, -15315.82, -14574.01, 3288.97, 0.00, 0.00, 0.00
112, -187500.02, 13927.35, -31100.98, -5877.03, -15226.92, -15727.80, -19342.24, -410.74, 0.00, 0.01, 0.01
113, -187500.02, 13190.75, -30151.47, -6408.51, -14413.99, -14755.82, -7807.51, 917.67, 0.00, 0.00, 0.00
114, -187500.02, 12832.56, -29578.60, -6696.49, -14346.76, -14160.99, -1357.31, 5051.74, 0.00, 0.00, 0.00
115, -187500.02, 13454.36, -30436.23, -6198.72, -15156.63, -15037.38, -11755.45, 4519.32, 0.00, 0.00, 0.00
116, -187500.02, 13907.23, -31101.96, -5870.60, -15325.36, -15725.17, -19560.05, 548.82, 0.00, 0.00, 0.00
117, -187500.02, 13453.54, -30316.61, -6294.16, -14539.18, -14922.94, -10195.73, 673.55, 0.00, 0.00, 0.00
118, -187500.02, 12993.47, -29563.29, -6711.92, -14281.29, -14141.25, -1121.30, 4778.78, 0.00, 0.00, 0.00
119, -187500.02, 13339.10, -30270.56, -6332.88, -15047.48, -14860.78, -9568.22, 5173.83, 0.00, 0.00, 0.00
120, -187500.02, 13762.26, -31161.04, -5838.34, -15424.71, -15776.24, -19821.79, 1042.51, 0.00, 0.00, 0.00
121, -187500.02, 13396.85, -30614.69, -6201.87, -14721.44, -15216.42, -12970.52, -10.48, 0.00, 0.00, 0.00
122, -187500.02, 12868.75, -29687.00, -6705.39, -14257.08, -14256.86, -2025.11, 3788.60, 0.00, 0.01, 0.01
123, -187500.02, 13327.96, -30124.90, -6354.27, -14885.86, -14699.94, -7615.19, 5118.50, 0.00, 0.00, 0.00
124, -187500.02, 14042.06, -31144.52, -5740.08, -15436.02, -15748.44, -19403.64, 1262.40, 0.00, 0.00, 0.00
125, -187500.02, 13687.96, -30859.82, -6030.70, -14868.42, -15459.74, -15571.19, -840.02, 0.00, 0.00, 0.00
126, -187500.02, 13084.33, -29834.82, -6590.72, -14246.60, -14401.99, -3385.98, 2452.48, 0.00, 0.00, 0.00
127, -187500.02, 13292.98, -30033.28, -6372.35, -14738.36, -14595.62, -5700.19, 4725.69, 0.00, 0.00, 0.00
128, -187500.02, 13996.28, -31113.20, -5774.55, -15415.80, -15702.68, -18434.18, 1453.40, 0.00, 0.00, 0.00
129, -187500.02, 13979.83, -31089.06, -5868.70, -15011.19, -15683.10, -17834.72, -1551.30, 0.00, 0.00, 0.00
130, -187500.02, 13285.21, -30046.20, -6503.44, -14279.97, -14609.23, -5236.54, 1032.00, 0.00, 0.00, 0.00
131, -187500.02, 13308.65, -29934.97, -6354.00, -14558.85, -14485.99, -4226.92, 4086.93, 0.00, 0.00, 0.00
132, -187500.02, 13978.40, -30996.15, -5725.33, -15327.57, -15571.92, -16875.54, 1585.12, 0.00, 0.00, 0.00
133, -187500.02, 13969.82, -31261.46, -5675.60, -15129.63, -15847.30, -19602.43, -2096.64, 0.00, 0.01, 0.01
134, -187500.02, 13223.63, -30254.65, -6276.46, -14322.89, -14811.74, -7424.78, -363.04, 0.00, 0.00, 0.00
135, -187500.02, 13046.36, -29900.91, -6471.52, -14420.47, -14436.79, -3030.65, 3362.33, 0.00, 0.00, 0.00
136, -187500.02, 13737.92, -30875.51, -5961.63, -15230.90, -15431.64, -14554.16, 2023.19, 0.00, 0.00, 0.00
137, -187500.02, 14100.28, -31366.98, -5699.83, -15231.06, -15938.56, -20227.90, -1809.53, 0.00, 0.00, 0.00
138, -187500.02, 13431.48, -30453.22, -6201.94, -14408.96, -14998.38, -9251.45, -883.65, 0.00, 0.00, 0.00
139, -187500.02, 13115.04, -29814.50, -6444.05, -14271.88, -14332.92, -2027.64, 3266.95, 0.00, 0.00, 0.00
140, -187500.02, 13698.36, -30617.13, -6022.36, -15060.87, -15150.97, -11977.76, 2945.85, 0.00, 0.00, 0.00
141, -187500.02, 13975.67, -31347.18, -5701.77, -15292.19, -15904.81, -20250.37, -1073.69, 0.00, 0.00, 0.00
142, -187500.02, 13485.48, -30599.25, -6090.56, -14510.64, -15140.04, -11329.52, -1110.97, 0.00, 0.00, 0.00
143, -187500.02, 13057.51, -29745.86, -6483.48, -14175.45, -14261.04, -1695.76, 3046.41, 0.00, 0.01, 0.01
144, -187500.02, 13505.73, -30355.48, -6169.33, -14906.45, -14884.05, -9165.76, 3825.26, 0.00, 0.00, 0.00
145, -187500.02, 14079.88, -31238.86, -5740.20, -15319.30, -15794.21, -19647.56, -10.10, 0.00, 0.00, 0.00
146, -187500.02, 13627.14, -30733.51, -6012.57, -14658.21, -15280.81, -13438.45, -1152.39, 0.00, 0.00, 0.00
147, -187500.02, 12989.92, -29775.41, -6560.73, -14162.33, -14293.47, -2024.49, 2763.39, 0.00, 0.00, 0.00
148, -187500.02, 13345.64, -30158.96, -6293.92, -14774.53, -14682.08, -6696.56, 4552.33, 0.00, 0.00, 0.00
149, -187500.02, 13948.65, -31198.97, -5755.89, -15366.06, -15751.92, -18858.48, 993.27, 0.00, 0.00, 0.00
150, -187500.02, 13763.73, -30971.29, -5923.30, -14844.82, -15523.67, -15916.59, -1344.39, 0.00, 0.00, 0.00
151, -187500.02, 13050.69, -29975.03, -6484.60, -14216.09, -14494.17, -3382.62, 1881.19, 0.00, 0.00, 0.00
152, -187500.02, 13176.71, -30081.63, -6357.98, -14638.63, -14593.92, -4943.02, 4494.40, 0.00, 0.00, 0.00
153, -187500.02, 13924.38, -31132.20, -5767.98, -15332.51, -15673.80, -17659.38, 1408.18, 0.00, 0.01, 0.01
154, -187500.02, 13979.29, -31163.18, -5762.10, -14976.54, -15711.98, -17778.73, -1716.30, 0.00, 0.00, 0.00
155, -187500.02, 13240.97, -30123.36, -6357.93, -14228.47, -14641.49, -5047.43, 761.50, 0.00, 0.00, 0.00
156, -187500.02, 13125.01, -29973.38, -6440.36, -14482.16, -14473.58, -3061.90, 4143.48, 0.00, 0.00, 0.00
157, -187500.02, 13848.92, -30998.11, -5815.16, -15255.22, -15520.09, -15408.93, 2057.21, 0.00, 0.00, 0.00
158, -187500.02, 14106.01, -31290.70, -5665.52, -15097.44, -15824.05, -18785.88, -1582.28, 0.00, 0.00, 0.00
159, -187500.02, 13406.22, -30307.40, -6261.33, -14298.43, -14812.41, -6764.78, 58.92, 0.00, 0.00, 0.00
160, -187500.02, 13097.05, -29855.00, -6471.77, -14326.17, -14341.48, -1655.91, 3978.25, 0.00, 0.00, 0.00
161, -187500.02, 13683.63, -30751.44, -5934.75, -15117.02, -15261.55, -12817.54, 2933.29, 0.00, 0.00, 0.00
162, -187500.02, 14128.16, -31272.97, -5655.91, -15168.61, -15803.91, -19162.91, -946.78, 0.00, 0.00, 0.00
163, -187500.02, 13477.59, -30408.41, -6185.53, -14378.12, -14917.82, -8572.03, -188.54, 0.00, 0.00, 0.00
164, -187500.02, 13012.69, -29738.23, -6578.83, -14214.64, -14220.89, -560.78, 4144.53, 0.00, 0.01, 0.01
165, -187500.02, 13501.03, -30484.85, -6129.47, -14985.88, -14983.87, -9862.28, 4320.44, 0.00, 0.00, 0.00
166, -187500.02, 14052.61, -31237.37, -5703.67, -15256.34, -15763.99, -19018.61, 423.65, 0.00, 0.00, 0.00
167, -187500.02, 13491.62, -30575.82, -6144.72, -14529.21, -15089.80, -10962.90, 32.86, 0.00, 0.00, 0.00
168, -187500.02, 12881.47, -29712.66, -6635.50, -14162.85, -14200.84, -951.42, 4089.90, 0.00, 0.00, 0.00
169, -187500.02, 13165.78, -30298.06, -6328.16, -14882.89, -14795.45, -7737.75, 5145.24, 0.00, 0.00, 0.00
170, -187500.02, 13864.85, -31239.27, -5762.82, -15340.72, -15767.05, -18950.52, 1353.53, 0.00, 0.00, 0.00
171, -187500.02, 13625.53, -30828.91, -6043.67, -14716.59, -15352.79, -13877.44, -234.89, 0.00, 0.00, 0.00
172, -187500.02, 13057.08, -29862.58, -6605.90, -14177.40, -14356.39, -2320.63, 3342.68, 0.00, 0.00, 0.00
173, -187500.02, 13198.15, -30210.33, -6460.77, -14765.94, -14705.53, -6535.31, 5111.62, 0.00, 0.00, 0.00
174, -187500.02, 13819.48, -31282.56, -5862.17, -15397.38, -15810.19, -19281.35, 1304.20, 0.00, 0.01, 0.01
175, -187500.02, 13762.24, -31136.63, -5890.85, -14908.50, -15666.34, -17099.87, -1444.73, 0.00, 0.00, 0.00
176, -187500.02, 13163.12, -30096.15, -6455.90, -14212.20, -14592.76, -4525.58, 1495.62, 0.00, 0.00, 0.00
177, -187500.02, 13205.97, -30136.83, -6364.41, -14595.62, -14623.34, -4900.82, 4371.96, 0.00, 0.00, 0.00
178, -187500.02, 13890.49, -31202.05, -5726.40, -15316.46, -15717.88, -17963.25, 1507.16, 0.00, 0.00, 0.00
179, -187500.02, 13996.55, -31301.09, -5680.34, -15000.30, -15824.27, -18701.35, -1737.04, 0.00, 0.00, 0.00
180, -187500.02, 13270.05, -30258.99, -6358.74, -14223.26, -14752.89, -6397.00, 587.25, 0.00, 0.00, 0.00
181, -187500.02, 13132.59, -30022.33, -6493.76, -14423.98, -14502.46, -3511.03, 4104.52, 0.00, 0.00, 0.00
182, -187500.02, 13863.65, -31022.25, -5879.16, -15208.46, -15525.90, -15525.28, 2429.32, 0.00, 0.00, 0.00
183, -187500.02, 14061.68, -31390.99, -5717.00, -15113.22, -15909.88, -19981.10, -1243.03, 0.00, 0.00, 0.00
184, -187500.02, 13446.00, -30415.40, -6252.07, -14295.93, -14910.22, -8518.16, 112.94, 0.00, 0.00, 0.00
185, -187500.02, 13035.94, -29903.88, -6534.17, -14278.92, -14376.82, -2490.23, 4115.81, 0.00, 0.01, 0.01
186, -187500.02, 13505.10, -30794.20, -6031.84, -15085.30, -15286.45, -13185.90, 3479.05, 0.00, 0.00, 0.00
187, -187500.02, 13950.91, -31398.77, -5673.23, -15202.31, -15913.35, -20431.33, -403.54, 0.00, 0.00, 0.00
188, -187500.02, 13514.56, -30586.80, -6164.45, -14414.57, -15082.67, -10625.28, 39.00, 0.00, 0.00, 0.00
189, -187500.02, 13133.79, -29855.87, -6510.50, -14187.57, -14328.63, -2120.09, 4197.86, 0.00, 0.00, 0.00
190, -187500.02, 13569.30, -30610.38, -6094.67, -14973.79, -15099.09, -10851.91, 4518.27, 0.00, 0.00, 0.00
191, -187500.02, 13960.85, -31469.04, -5698.69, -15312.15, -15985.94, -20984.11, 408.46, 0.00, 0.00, 0.00
192, -187500.02, 13608.50, -30872.65, -6097.51, -14591.08, -15379.59, -13847.46, -617.56, 0.00, 0.00, 0.00
193, -187500.02, 13017.68, -30019.53, -6577.85, -14190.50, -14494.35, -3144.35, 3155.55, 0.00, 0.00, 0.00
194, -187500.02, 13291.75, -30525.24, -6244.27, -14845.00, -15005.31, -9332.43, 4320.84, 0.00, 0.00, 0.00
195, -187500.02, 13993.82, -31479.90, -5673.57, -15335.73, -15990.35, -20915.78, 357.16, 0.00, 0.01, 0.01
196, -187500.02, 13757.52, -31122.26, -5900.90, -14735.03, -15628.14, -16355.64, -1579.96, 0.00, 0.00, 0.00
197, -187500.02, 13143.79, -30099.26, -6420.87, -14132.92, -14572.46, -4089.54, 1930.97, 0.00, 0.00, 0.00
198, -187500.02, 13297.05, -30330.40, -6296.64, -14648.86, -14800.54, -6829.62, 4267.42, 0.00, 0.00, 0.00
199, -187500.02, 13986.42, -31363.43, -5765.21, -15299.43, -15863.50, -19180.08, 1148.32, 0.00, 0.00, 0.00
200, -187500.02, 13832.04, -31255.14, -5863.60, -14863.57, -15761.13, -18008.31, -1491.53, 0.00, 0.00, 0.00
201, -187500.02, 13141.53, -30184.71, -6427.62, -14150.00, -14663.46, -5335.85, 1373.09, 0.00, 0.00, 0.00
202, -187500.02, 13083.37, -30157.35, -6465.09, -14503.62, -14625.35, -4783.36, 4511.88, 0.00, 0.00, 0.00
203, -187500.02, 13753.21, -31204.26, -5892.72, -15253.99, -15697.45, -17423.74, 2122.70, 0.00, 0.00, 0.00
204, -187500.02, 13926.66, -31366.49, -5735.77, -14998.82, -15871.53, -19550.22, -1273.65, 0.00, 0.00, 0.00
205, -187500.02, 13201.34, -30366.10, -6331.67, -14226.55, -14840.78, -7153.32, 755.18, 0.00, 0.00, 0.00
206, -187500.02, 12986.16, -30057.55, -6525.48, -14364.15, -14517.32, -3522.88, 4459.42, 0.00, 0.01, 0.01
207, -187500.02, 13642.23, -31054.48, -5929.49, -15177.64, -15539.67, -15434.53, 2914.80, 0.00, 0.00, 0.00
208, -187500.02, 13900.17, -31528.05, -5669.59, -15154.82, -16031.77, -20739.06, -973.80, 0.00, 0.00, 0.00
209, -187500.02, 13259.01, -30633.22, -6238.33, -14352.70, -15116.01, -9635.97, 31.31, 0.00, 0.00, 0.00
210, -187500.02, 13003.62, -30079.30, -6529.99, -14273.80, -14539.29, -3072.56, 4024.99, 0.00, 0.00, 0.00
211, -187500.02, 13601.33, -30926.34, -6022.97, -15060.54, -15405.31, -13703.21, 3347.04, 0.00, 0.00, 0.00
212, -187500.02, 13959.02, -31617.03, -5636.08, -15237.47, -16116.48, -21743.49, -894.49, 0.00, 0.00, 0.00
213, -187500.02, 13461.32, -30851.04, -6088.15, -14447.92, -15330.77, -12509.67, -951.02, 0.00, 0.00, 0.00
214, -187500.02, 13038.15, -30059.09, -6504.51, -14154.44, -14511.11, -3270.93, 3116.19, 0.00, 0.00, 0.00
215, -187500.02, 13434.94, -30716.01, -6116.91, -14892.61, -15177.64, -11124.28, 3753.73, 0.00, 0.00, 0.00
216, -187500.02, 13847.55, -31590.57, -5711.16, -15279.94, -16076.38, -21280.09, -57.27, 0.00, 0.01, 0.01
217, -187500.02, 13395.06, -31045.25, -6090.00, -14590.91, -15519.35, -14624.34, -905.74, 0.00, 0.00, 0.00
218, -187500.02, 12843.16, -30086.81, -6557.98, -14110.90, -14529.15, -3524.33, 3083.22, 0.00, 0.00, 0.00
219, -187500.02, 13222.20, -30505.91, -6270.16, -14739.90, -14952.62, -8706.05, 4792.97, 0.00, 0.00, 0.00
220, -187500.02, 13897.93, -31487.42, -5724.33, -15286.00, -15963.48, -20741.86, 1212.47, 0.00, 0.00, 0.00
221, -187500.02, 13714.11, -31199.90, -5887.58, -14734.07, -15672.46, -17279.28, -905.63, 0.00, 0.00, 0.00
222, -187500.02, 13010.66, -30195.66, -6459.59, -14124.29, -14638.40, -5060.37, 2416.54, 0.00, 0.00, 0.00
223, -187500.02, 12990.77, -30384.94, -6406.57, -14613.84, -14826.90, -7260.58, 4832.96, 0.00, 0.00, 0.00
224, -187500.02, 13743.66, -31452.81, -5820.86, -15302.90, -15925.33, -19953.94, 1715.83, 0.00, 0.00, 0.00
225, -187500.02, 13845.97, -31445.62, -5810.69, -14918.69, -15923.76, -19691.97, -1252.35, 0.00, 0.00, 0.00
226, -187500.02, 13040.45, -30408.12, -6416.49, -14181.53, -14856.29, -7159.82, 1342.89, 0.00, 0.00, 0.00
227, -187500.02, 12930.28, -30300.31, -6458.40, -14463.63, -14733.91, -5921.13, 4533.00, 0.00, 0.01, 0.01
228, -187500.02, 13753.50, -31336.79, -5835.59, -15226.79, -15795.40, -18304.29, 2323.11, 0.00, 0.00, 0.00
229, -187500.02, 13878.56, -31593.99, -5729.47, -15036.22, -16068.33, -21233.26, -1139.80, 0.00, 0.00, 0.00
230, -187500.02, 13132.43, -30574.86, -6307.46, -14227.49, -15026.56, -9337.04, 615.52, 0.00, 0.00, 0.00
231, -187500.02, 12815.55, -30197.68, -6524.16, -14315.11, -14631.05, -4738.59, 4397.55, 0.00, 0.00, 0.00
232, -187500.02, 13486.62, -31135.58, -5975.34, -15108.53, -15590.83, -16281.41, 3193.80, 0.00, 0.00, 0.00
233, -187500.02, 13896.17, -31631.49, -5679.02, -15129.11, -16107.20, -22284.51, -716.31, 0.00, 0.00, 0.00
234, -187500.02, 13250.23, -30773.52, -6226.03, -14344.48, -15227.77, -11600.58, 88.67, 0.00, 0.00, 0.00
235, -187500.02, 12979.61, -30116.56, -6502.61, -14184.55, -14549.89, -4362.46, 4156.40, 0.00, 0.00, 0.00
236, -187500.02, 13584.27, -30915.30, -5989.40, -14975.76, -15368.59, -14048.21, 3876.55, 0.00, 0.00, 0.00
237, -187500.02, 14043.49, -31690.62, -5623.18, -15234.41, -16170.66, -22777.28, -202.55, 0.00, 0.01, 0.01
238, -187500.02, 13351.21, -31001.02, -6126.84, -14477.72, -15467.67, -14337.84, -552.18, 0.00, 0.00, 0.00
239, -187500.02, 12758.51, -30154.94, -6632.37, -14126.28, -14592.42, -4224.86, 3582.25, 0.00, 0.00, 0.00
240, -187500.02, 13164.26, -30733.78, -6209.00, -14832.19, -15181.62, -11516.56, 4551.13, 0.00, 0.00, 0.00
241, -187500.02, 13854.73, -31624.16, -5626.20, -15252.36, -16103.83, -22359.46, 671.02, 0.00, 0.00, 0.00
242, -187500.02, 13593.46, -31146.28, -5934.34, -14597.16, -15620.58, -16593.96, -723.01, 0.00, 0.00, 0.00
243, -187500.02, 12928.27, -30209.92, -6585.38, -14104.13, -14651.37, -4970.67, 2996.01, 0.00, 0.00, 0.00
244, -187500.02, 13264.35, -30567.66, -6334.62, -14692.05, -15010.54, -9227.38, 4916.33, 0.00, 0.00, 0.00
245, -187500.02, 13783.90, -31600.54, -5775.65, -15294.14, -16074.68, -21506.60, 1415.47, 0.00, 0.00, 0.00
246, -187500.02, 13522.85, -31379.66, -5915.39, -14776.80, -15855.39, -18899.79, -987.88, 0.00, 0.00, 0.00
247, -187500.02, 12890.79, -30334.85, -6456.84, -14111.93, -14775.96, -6387.28, 2104.48, 0.00, 0.00, 0.00
248, -187500.02, 12933.28, -30424.01, -6401.70, -14533.98, -14852.76, -7470.67, 4805.13, 0.00, 0.01, 0.01
249, -187500.02, 13683.11, -31462.22, -5788.25, -15236.78, -15919.78, -20113.33, 1931.01, 0.00, 0.00, 0.00
250, -187500.02, 13634.85, -31548.53, -5836.98, -14929.04, -16016.01, -20455.42, -1126.73, 0.00, 0.00, 0.00
251, -187500.02, 12992.20, -30494.75, -6396.20, -14156.68, -14933.78, -7935.41, 1424.32, 0.00, 0.00, 0.00
252, -187500.02, 13024.32, -30279.93, -6458.07, -14375.17, -14708.23, -5874.08, 4812.55, 0.00, 0.00, 0.00
253, -187500.02, 13671.13, -31309.45, -5913.89, -15175.87, -15761.56, -18043.29, 2821.55, 0.00, 0.00, 0.00
254, -187500.02, 13743.57, -31643.99, -5729.11, -15050.37, -16112.28, -21951.18, -863.02, 0.00, 0.00, 0.00
255, -187500.02, 13033.66, -30695.11, -6344.59, -14257.28, -15139.10, -10185.35, 611.43, 0.00, 0.00, 0.00
0, -187500.02, 12856.41, -30224.43, -6546.49, -14261.66, -14651.43, -4971.59, 4448.85, 0.00, 0.00, 0.00
1, -187500.02, 13506.80, -31148.32, -5948.94, -15071.98, -15597.23, -15982.08, 3436.60, 0.00, 0.00, 0.00
2, -187500.02, 13828.60, -31747.23, -5635.97, -15160.32, -16218.96, -22831.50, -603.74, 0.00, 0.01, 0.01
3, -187500.02, 13208.79, -30900.66, -6204.82, -14352.84, -15354.78, -12489.44, -34.02, 0.00, 0.00, 0.00
4, -187500.02, 12782.38, -30181.09, -6548.57, -14144.90, -14615.11, -4535.59, 4071.77, 0.00, 0.00, 0.00
5, -187500.02, 13272.20, -30936.74, -6115.15, -14927.97, -15385.84, -13548.49, 4137.33, 0.00, 0.00, 0.00
6, -187500.02, 13812.30, -31718.33, -5708.43, -15214.85, -16191.00, -22971.83, 118.49, 0.00, 0.00, 0.00
7, -187500.02, 13450.21, -31065.95, -6070.85, -14480.15, -15525.54, -15146.61, -516.35, 0.00, 0.00, 0.00
8, -187500.02, 12763.61, -30225.26, -6624.68, -14116.83, -14655.84, -4748.23, 3460.45, 0.00, 0.00, 0.00
9, -187500.02, 13097.12, -30752.96, -6289.33, -14791.69, -15193.73, -11366.00, 4603.65, 0.00, 0.00, 0.00
10, -187500.02, 13811.95, -31662.34, -5691.63, -15249.34, -16136.71, -22578.30, 742.14, 0.00, 0.00, 0.00
11, -187500.02, 13455.95, -31266.45, -5968.36, -14640.03, -15739.00, -17494.80, -895.46, 0.00, 0.00, 0.00
12, -187500.02, 12746.35, -30293.34, -6563.30, -14094.81, -14736.82, -5605.68, 2722.62, 0.00, 0.01, 0.01
13, -187500.02, 13049.01, -30558.68, -6341.79, -14624.54, -15001.40, -9121.21, 4845.72, 0.00, 0.00, 0.00
14, -187500.02, 13722.70, -31584.73, -5728.08, -15249.48, -16057.89, -21362.12, 1509.32, 0.00, 0.00, 0.00
15, -187500.02, 13487.22, -31445.15, -5875.25, -14790.13, -15923.99, -19522.55, -1029.10, 0.00, 0.00, 0.00
16, -187500.02, 12853.48, -30395.64, -6475.86, -14099.66, -14846.61, -6982.28, 1941.23, 0.00, 0.00, 0.00
17, -187500.02, 12956.68, -30382.21, -6379.37, -14458.18, -14827.19, -7178.73, 4828.60, 0.00, 0.00, 0.00
18, -187500.02, 13597.71, -31463.30, -5781.88, -15220.69, -15937.82, -19729.86, 2158.64, 0.00, 0.00, 0.00
19, -187500.02, 13652.53, -31609.88, -5761.77, -14940.78, -16099.09, -21216.54, -1186.07, 0.00, 0.00, 0.00
20, -187500.02, 13011.62, -30551.37, -6364.93, -14143.58, -15013.42, -8614.67, 1034.95, 0.00, 0.00, 0.00
21, -187500.02, 12850.31, -30285.32, -6529.50, -14323.35, -14731.56, -5490.86, 4591.92, 0.00, 0.00, 0.00
22, -187500.02, 13588.52, -31264.41, -5908.91, -15107.45, -15734.55, -17358.36, 2938.16, 0.00, 0.00, 0.00
23, -187500.02, 13782.51, -31651.50, -5675.60, -15031.26, -16139.19, -21979.30, -850.64, 0.00, 0.01, 0.01
24, -187500.02, 13015.46, -30709.71, -6253.84, -14231.24, -15176.66, -10510.26, 340.80, 0.00, 0.00, 0.00
25, -187500.02, 12775.59, -30181.65, -6540.59, -14195.30, -14631.09, -4256.91, 4308.16, 0.00, 0.00, 0.00
26, -187500.02, 13434.99, -31033.99, -5985.01, -14983.67, -15505.90, -14798.24, 3612.67, 0.00, 0.00, 0.00
27, -187500.02, 13822.47, -31666.83, -5616.99, -15125.04, -16163.64, -22210.82, -454.93, 0.00, 0.00, 0.00
28, -187500.02, 13170.45, -30890.20, -6201.51, -14355.16, -15371.00, -12596.77, -326.42, 0.00, 0.00, 0.00
29, -187500.02, 12717.47, -30148.14, -6532.27, -14107.12, -14602.91, -3723.67, 3724.16, 0.00, 0.00, 0.00
30, -187500.02, 13274.50, -30839.10, -6132.25, -14854.79, -15307.28, -12138.54, 4057.15, 0.00, 0.00, 0.00
31, -187500.02, 13855.98, -31668.26, -5723.68, -15197.91, -16166.28, -21911.06, 30.98, 0.00, 0.00, 0.00
32, -187500.02, 13290.19, -31090.65, -6051.76, -14500.63, -15581.60, -14814.15, -922.17, 0.00, 0.00, 0.00
33, -187500.02, 12718.12, -30180.69, -6515.73, -14058.42, -14642.94, -4048.28, 2905.23, 0.00, 0.01, 0.01
34, -187500.02, 13139.32, -30635.57, -6174.31, -14699.49, -15104.84, -9654.86, 4216.30, 0.00, 0.00, 0.00
35, -187500.02, 13735.95, -31624.23, -5666.21, -15227.15, -16120.39, -21029.73, 599.45, 0.00, 0.00, 0.00
36, -187500.02, 13526.02, -31257.60, -5892.61, -14628.19, -15752.95, -17060.35, -1316.00, 0.00, 0.00, 0.00
37, -187500.02, 12938.69, -30252.77, -6412.25, -14043.71, -14717.53, -4583.60, 2161.66, 0.00, 0.00, 0.00
38, -187500.02, 13020.36, -30463.33, -6295.57, -14541.31, -14925.53, -7208.44, 4652.43, 0.00, 0.00, 0.00
39, -187500.02, 13661.34, -31494.46, -5774.04, -15198.76, -15989.88, -19732.66, 1483.02, 0.00, 0.00, 0.00
40, -187500.02, 13694.60, -31417.99, -5811.03, -14779.69, -15917.37, -18620.81, -1228.72, 0.00, 0.00, 0.00
41, -187500.02, 12939.58, -30380.00, -6399.68, -14069.60, -14848.17, -5971.09, 1648.11, 0.00, 0.00, 0.00
42, -187500.02, 12860.81, -30322.93, -6399.80, -14394.90, -14781.19, -5224.76, 4878.47, 0.00, 0.00, 0.00
43, -187500.02, 13628.93, -31367.90, -5829.60, -15153.25, -15854.32, -17748.16, 2613.79, 0.00, 0.00, 0.00
44, -187500.02, 13734.34, -31575.44, -5728.66, -14933.11, -16075.33, -20123.25, -757.55, 0.00, 0.01, 0.01
45, -187500.02, 12998.52, -30555.26, -6281.44, -14137.21, -15030.03, -8205.84, 1113.16, 0.00, 0.00, 0.00
46, -187500.02, 12779.86, -30239.12, -6522.06, -14272.42, -14699.00, -4240.55, 4700.19, 0.00, 0.00, 0.00
47, -187500.02, 13413.33, -31227.71, -5972.34, -15082.08, -15708.96, -15840.32, 3320.78, 0.00, 0.00, 0.00
48, -187500.02, 13720.35, -31681.41, -5665.63, -15053.41, -16182.08, -21448.71, -562.21, 0.00, 0.00, 0.00
49, -187500.02, 13047.36, -30812.53, -6226.91, -14271.01, -15288.46, -10478.03, 324.52, 0.00, 0.00, 0.00
50, -187500.02, 12769.57, -30246.92, -6507.29, -14175.63, -14700.05, -3737.75, 4304.70, 0.00, 0.00, 0.00
51, -187500.02, 13405.35, -31068.03, -6018.74, -14953.61, -15542.69, -14005.78, 3773.06, 0.00, 0.00, 0.00
52, -187500.02, 13771.31, -31777.70, -5671.78, -15160.54, -16278.10, -22302.73, -479.96, 0.00, 0.00, 0.00
53, -187500.02, 13287.58, -31049.61, -6073.01, -14392.56, -15533.50, -13325.91, -719.30, 0.00, 0.00, 0.00
54, -187500.02, 12666.69, -30302.17, -6552.32, -14113.14, -14755.86, -3894.95, 3254.84, 0.00, 0.01, 0.01
55, -187500.02, 13031.09, -30938.19, -6156.39, -14823.56, -15401.27, -11717.39, 3873.07, 0.00, 0.00, 0.00
56, -187500.02, 13718.90, -31775.82, -5563.62, -15184.54, -16267.71, -22060.68, -106.89, 0.00, 0.00, 0.00
57, -187500.02, 13348.89, -31257.77, -5946.93, -14514.82, -15740.25, -15630.91, -1311.80, 0.00, 0.00, 0.00
58, -187500.02, 12713.72, -30325.97, -6488.04, -14041.34, -14774.19, -4172.44, 2577.63, 0.00, 0.00, 0.00
59, -187500.02, 13032.03, -30712.90, -6236.05, -14644.95, -15164.29, -8991.79, 4393.82, 0.00, 0.00, 0.00
60, -187500.02, 13839.39, -31680.74, -5653.85, -15187.94, -16161.45, -20850.58, 942.98, 0.00, 0.00, 0.00
61, -187500.02, 13724.53, -31396.98, -5810.31, -14645.78, -15877.05, -17471.24, -1127.47, 0.00, 0.00, 0.00
62, -187500.02, 12773.11, -30394.04, -6445.10, -14036.20, -14843.68, -5134.15, 2250.13, 0.00, 0.00, 0.00
63, -187500.02, 12848.34, -30519.85, -6279.07, -14481.81, -14966.42, -6869.54, 4897.42, 0.00, 0.00, 0.00
64, -187500.02, 13719.50, -31545.40, -5596.43, -15154.06, -16020.52, -19220.53, 2094.49, 0.00, 0.00, 0.00
65, -187500.02, 13754.21, -31544.57, -5700.25, -14784.81, -16027.14, -19260.21, -741.14, 0.00, 0.01, 0.01
66, -187500.02, 13030.42, -30515.58, -6374.18, -14065.26, -14970.57, -6805.84, 1814.67, 0.00, 0.00, 0.00
67, -187500.02, 12944.99, -30386.12, -6434.87, -14341.15, -14830.94, -5356.98, 5099.53, 0.00, 0.00, 0.00
68, -187500.02, 13600.39, -31407.93, -5770.57, -15107.52, -15881.63, -17850.82, 2882.75, 0.00, 0.00, 0.00
69, -187500.02, 13737.65, -31695.67, -5568.09, -14942.61, -16186.62, -21071.26, -800.59, 0.00, 0.00, 0.00
70, -187500.02, 13142.31, -30728.19, -6121.63, -14148.16, -15194.65, -9258.16, 770.93, 0.00, 0.00, 0.00
71, -187500.02, 12791.34, -30357.71, -6442.26, -14224.60, -14803.78, -4633.20, 4410.29, 0.00, 0.00, 0.00
72, -187500.02, 13222.31, -31335.18, -5973.06, -15046.10, -15800.40, -16007.56, 3109.57, 0.00, 0.00, 0.00
73, -187500.02, 13580.32, -31877.39, -5676.14, -15088.61, -16363.44, -22255.09, -917.47, 0.00, 0.00, 0.00
74, -187500.02, 13084.08, -31004.08, -6154.78, -14275.83, -15471.94, -11879.42, -356.56, 0.00, 0.00, 0.00
75, -187500.02, 12750.22, -30369.20, -6475.21, -14126.37, -14813.08, -4183.33, 3587.07, 0.00, 0.01, 0.01
76, -187500.02, 13345.20, -31165.08, -6004.28, -14902.56, -15622.91, -13509.62, 3529.43, 0.00, 0.00, 0.00
77, -187500.02, 13679.18, -31924.53, -5690.98, -15156.38, -16405.42, -22414.75, -456.51, 0.00, 0.00, 0.00
78, -187500.02, 13250.25, -31215.57, -6048.31, -14392.06, -15682.32, -14163.99, -889.04, 0.00, 0.00, 0.00
79, -187500.02, 12752.30, -30366.52, -6465.20, -14033.23, -14802.91, -4032.23, 3153.70, 0.00, 0.00, 0.00
80, -187500.02, 13125.46, -30935.19, -6078.33, -14728.17, -15378.36, -10865.41, 4231.27, 0.00, 0.00, 0.00
81, -187500.02, 13713.78, -31821.48, -5589.10, -15152.40, -16293.57, -21767.40, 513.29, 0.00, 0.00, 0.00
82, -187500.02, 13280.60, -31352.03, -5952.02, -14511.56, -15820.63, -16182.62, -874.09, 0.00, 0.00, 0.00
83, -187500.02, 12686.45, -30372.62, -6445.64, -13986.38, -14810.65, -4368.13, 2976.43, 0.00, 0.00, 0.00
84, -187500.02, 12917.92, -30693.73, -6312.29, -14562.52, -15132.76, -8560.36, 5032.92, 0.00, 0.00, 0.00
85, -187500.02, 13673.81, -31683.37, -5745.14, -15158.08, -16154.34, -20694.16, 1683.51, 0.00, 0.00, 0.00
86, -187500.02, 13477.74, -31491.46, -5874.53, -14675.35, -15965.05, -18232.29, -619.75, 0.00, 0.01, 0.01
87, -187500.02, 12695.77, -30464.24, -6453.60, -14019.75, -14909.04, -6007.03, 2474.85, 0.00, 0.00, 0.00
88, -187500.02, 12784.71, -30545.02, -6395.97, -14439.54, -14984.18, -6991.07, 5135.51, 0.00, 0.00, 0.00
89, -187500.02, 13539.64, -31622.26, -5766.48, -15169.99, -16088.43, -19619.15, 2333.14, 0.00, 0.00, 0.00
90, -187500.02, 13540.89, -31724.30, -5725.56, -14859.39, -16200.43, -20617.96, -934.12, 0.00, 0.00, 0.00
91, -187500.02, 12858.31, -30715.36, -6299.41, -14098.41, -15163.22, -8424.44, 1224.99, 0.00, 0.00, 0.00
92, -187500.02, 12753.53, -30513.30, -6376.53, -14305.14, -14947.42, -6215.01, 4373.97, 0.00, 0.00, 0.00
93, -187500.02, 13441.11, -31557.31, -5815.05, -15102.04, -16014.49, -18334.93, 2277.17, 0.00, 0.00, 0.00
94, -187500.02, 13650.63, -31910.60, -5624.68, -14981.10, -16384.81, -22474.37, -1579.24, 0.00, 0.00, 0.00
95, -187500.02, 13036.88, -30960.21, -6171.67, -14178.29, -15410.83, -10853.40, -357.87, 0.00, 0.00, 0.00
96, -187500.02, 12788.26, -30499.29, -6397.09, -14177.69, -14926.96, -5228.18, 3421.00, 0.00, 0.01, 0.01
97, -187500.02, 13453.87, -31384.60, -5816.10, -14955.60, -15832.90, -16036.71, 2487.32, 0.00, 0.00, 0.00
98, -187500.02, 13861.86, -31941.29, -5487.78, -15031.08, -16414.25, -22783.51, -1463.06, 0.00, 0.00, 0.00
99, -187500.02, 13217.86, -31091.74, -6006.34, -14231.15, -15548.34, -12633.41, -989.94, 0.00, 0.00, 0.00
100, -187500.02, 12670.20, -30363.48, -6421.10, -14016.24, -14795.18, -4061.00, 3241.54, 0.00, 0.00, 0.00
101, -187500.02, 13193.14, -31029.83, -5969.35, -14748.15, -15477.51, -12627.08, 3704.89, 0.00, 0.00, 0.00
102, -187500.02, 13676.81, -31791.20, -5603.87, -15056.22, -16268.65, -21710.92, 30.87, 0.00, 0.00, 0.00
103, -187500.02, 13172.13, -31143.71, -6028.58, -14342.35, -15611.42, -13924.35, -278.48, 0.00, 0.00, 0.00
104, -187500.02, 12635.35, -30256.21, -6477.65, -13953.63, -14696.58, -3317.80, 3982.83, 0.00, 0.00, 0.00
105, -187500.02, 13011.06, -30748.06, -6165.53, -14619.72, -15196.39, -9617.87, 5472.40, 0.00, 0.00, 0.00
106, -187500.02, 13658.59, -31683.39, -5666.03, -15116.13, -16165.38, -21145.69, 1742.79, 0.00, 0.00, 0.00
107, -187500.02, 13315.96, -31346.67, -5932.56, -14552.50, -15827.25, -16440.38, -9.16, 0.00, 0.01, 0.01
108, -187500.02, 12588.66, -30392.43, -6440.25, -13999.12, -14845.49, -4834.97, 3423.12, 0.00, 0.00, 0.00
109, -187500.02, 12784.59, -30702.22, -6283.16, -14547.88, -15155.02, -8180.00, 5400.25, 0.00, 0.00, 0.00
110, -187500.02, 13524.57, -31749.76, -5687.56, -15175.65, -16233.42, -20787.32, 1913.69, 0.00, 0.00, 0.00
111, -187500.02, 13580.61, -31623.67, -5721.62, -14711.05, -16114.87, -19424.74, -1028.05, 0.00, 0.00, 0.00
112, -187500.02, 12930.73, -30596.97, -6328.27, -14019.71, -15058.86, -6790.39, 1590.24, 0.00, 0.00, 0.00
113, -187500.02, 12909.52, -30615.12, -6352.14, -14387.39, -15064.99, -6529.21, 4442.43, 0.00, 0.00, 0.00
114, -187500.02, 13486.77, -31677.12, -5757.05, -15128.93, -16152.91, -19019.81, 1894.31, 0.00, 0.00, 0.00
115, -187500.02, 13603.90, -31802.46, -5647.10, -14839.14, -16291.83, -20850.82, -1578.08, 0.00, 0.00, 0.00
116, -187500.02, 12965.22, -30740.38, -6240.14, -14037.99, -15200.75, -8149.27, 488.41, 0.00, 0.00, 0.00
117, -187500.02, 12859.70, -30426.80, -6346.35, -14184.89, -14870.35, -4603.34, 4171.68, 0.00, 0.01, 0.01
118, -187500.02, 13458.68, -31402.17, -5783.76, -14983.36, -15869.67, -16264.65, 2692.22, 0.00, 0.00, 0.00
119, -187500.02, 13602.58, -31811.49, -5620.06, -14933.58, -16297.64, -20926.98, -935.55, 0.00, 0.00, 0.00
120, -187500.02, 13035.80, -30873.46, -6151.24, -14127.20, -15336.25, -9531.59, 401.19, 0.00, 0.00, 0.00
121, -187500.02, 12751.25, -30315.27, -6458.56, -14066.02, -14757.65, -3271.60, 4479.71, 0.00, 0.00, 0.00
122, -187500.02, 13255.05, -31172.28, -5968.09, -14873.57, -15636.10, -13655.93, 3895.33, 0.00, 0.00, 0.00
123, -187500.02, 13679.11, -31827.01, -5571.31, -15034.19, -16316.04, -21290.51, -61.18, 0.00, 0.00, 0.00
124, -187500.02, 13206.35, -31066.33, -5972.88, -14261.17, -15539.31, -11921.24, 73.36, 0.00, 0.00, 0.00
125, -187500.02, 12746.89, -30313.37, -6430.35, -13996.71, -14760.11, -3140.49, 4070.43, 0.00, 0.00, 0.00
126, -187500.02, 13210.04, -31020.46, -6089.42, -14763.48, -15478.43, -11291.14, 4492.37, 0.00, 0.00, 0.00
127, -187500.02, 13700.79, -31866.34, -5607.87, -15114.81, -16352.13, -21444.29, 496.59, 0.00, 0.00, 0.00
128, -187500.02, 13265.29, -31308.76, -5965.23, -14418.80, -15784.15, -14494.12, -519.79, 0.00, 0.01, 0.01
129, -187500.02, 12631.93, -30390.01, -6484.73, -13964.07, -14835.88, -3591.08, 3343.02, 0.00, 0.00, 0.00
130, -187500.02, 12992.87, -30824.87, -6195.75, -14594.10, -15276.41, -9095.91, 4792.97, 0.00, 0.00, 0.00
131, -187500.02, 13698.89, -31805.28, -5655.97, -15132.20, -16284.74, -20667.79, 1149.19, 0.00, 0.00, 0.00
132, -187500.02, 13500.23, -31472.73, -5827.90, -14555.63, -15951.01, -16630.05, -739.62, 0.00, 0.00, 0.00
133, -187500.02, 12647.80, -30477.59, -6436.39, -13963.22, -14925.87, -4519.66, 2687.46, 0.00, 0.00, 0.00
134, -187500.02, 12779.90, -30671.55, -6302.32, -14452.06, -15117.29, -6902.67, 5088.35, 0.00, 0.00, 0.00
135, -187500.02, 13596.54, -31694.35, -5665.88, -15104.88, -16169.12, -19414.21, 2017.00, 0.00, 0.00, 0.00
136, -187500.02, 13533.02, -31665.42, -5766.64, -14721.60, -16146.27, -18648.71, -803.12, 0.00, 0.00, 0.00
137, -187500.02, 12897.83, -30631.50, -6356.46, -14002.96, -15082.87, -6192.60, 1900.86, 0.00, 0.00, 0.00
138, -187500.02, 12988.04, -30572.02, -6317.85, -14320.56, -15012.24, -5527.27, 4939.33, 0.00, 0.01, 0.01
139, -187500.02, 13558.59, -31646.11, -5779.71, -15092.59, -16113.04, -18156.14, 2390.54, 0.00, 0.00, 0.00
140, -187500.02, 13525.55, -31871.60, -5723.16, -14877.12, -16351.71, -20634.77, -1150.69, 0.00, 0.00, 0.00
141, -187500.02, 12834.28, -30891.14, -6289.76, -14097.63, -15345.46, -8690.72, 568.49, 0.00, 0.00, 0.00
142, -187500.02, 12611.10, -30533.91, -6435.00, -14186.63, -14969.97, -4674.08, 4098.26, 0.00, 0.00, 0.00
143, -187500.02, 13222.26, -31513.50, -5879.00, -14995.07, -15968.26, -16061.09, 2644.90, 0.00, 0.00, 0.00
144, -187500.02, 13610.38, -31983.45, -5548.84, -14976.54, -16457.63, -21651.78, -1192.40, 0.00, 0.00, 0.00
145, -187500.02, 13124.47, -31066.49, -6001.96, -14153.50, -15520.96, -10840.55, -344.69, 0.00, 0.00, 0.00
146, -187500.02, 12693.31, -30464.02, -6407.02, -14040.78, -14895.07, -3797.58, 3612.85, 0.00, 0.00, 0.00
147, -187500.02, 13258.65, -31267.09, -5988.41, -14827.88, -15717.01, -13579.73, 3272.72, 0.00, 0.00, 0.00
148, -187500.02, 13781.71, -31955.10, -5585.81, -15038.61, -16431.59, -21843.89, -710.16, 0.00, 0.01, 0.01
149, -187500.02, 13133.57, -31231.96, -6000.12, -14283.37, -15692.02, -12769.37, -766.80, 0.00, 0.00, 0.00
150, -187500.02, 12517.67, -30420.03, -6436.07, -13961.28, -14849.29, -3092.10, 3477.55, 0.00, 0.00, 0.00
151, -187500.02, 13013.39, -31008.13, -6101.76, -14663.73, -15447.18, -10562.63, 4397.66, 0.00, 0.00, 0.00
152, -187500.02, 13608.99, -31864.22, -5629.67, -15062.86, -16332.33, -20904.85, 679.18, 0.00, 0.00, 0.00
153, -187500.02, 13186.39, -31332.05, -5928.26, -14393.00, -15794.99, -14608.12, -347.28, 0.00, 0.00, 0.00
154, -187500.02, 12531.59, -30375.60, -6435.18, -13906.50, -14809.86, -3158.48, 3615.82, 0.00, 0.00, 0.00
155, -187500.02, 12745.77, -30779.96, -6273.89, -14532.08, -15216.98, -7850.78, 5500.29, 0.00, 0.00, 0.00
156, -187500.02, 13410.62, -31792.47, -5748.73, -15113.42, -16259.71, -19814.31, 2083.76, 0.00, 0.00, 0.00
157, -187500.02, 13301.70, -31563.95, -5896.46, -14600.47, -16034.90, -16893.92, -101.79, 0.00, 0.00, 0.00
158, -187500.02, 12546.55, -30580.18, -6472.04, -13984.70, -15024.78, -4962.96, 2953.85, 0.00, 0.00, 0.00
159, -187500.02, 12701.65, -30726.32, -6304.62, -14427.83, -15166.06, -6780.42, 5278.79, 0.00, 0.01, 0.01
160, -187500.02, 13565.50, -31788.27, -5599.58, -15115.37, -16255.19, -19528.07, 2086.00, 0.00, 0.00, 0.00
161, -187500.02, 13520.46, -31862.10, -5693.68, -14780.78, -16337.02, -19831.09, -1177.58, 0.00, 0.00, 0.00
162, -187500.02, 12864.41, -30854.59, -6297.54, -14040.14, -15300.82, -7342.77, 1131.51, 0.00, 0.00, 0.00
163, -187500.02, 12666.96, -30698.58, -6340.56, -14274.32, -15131.62, -5596.68, 4361.16, 0.00, 0.00, 0.00
164, -187500.02, 13276.51, -31707.69, -5720.97, -15033.72, -16166.03, -17881.89, 2225.32, 0.00, 0.00, 0.00
165, -187500.02, 13457.11, -31990.02, -5604.14, -14869.36, -16463.82, -21130.18, -1343.61, 0.00, 0.00, 0.00
166, -187500.02, 12886.45, -30956.47, -6131.35, -14035.69, -15408.08, -9277.96, 322.63, 0.00, 0.00, 0.00
167, -187500.02, 12665.12, -30530.29, -6343.11, -14092.91, -14961.99, -3982.88, 4239.03, 0.00, 0.00, 0.00
168, -187500.02, 13220.36, -31475.21, -5798.40, -14904.95, -15923.87, -15063.13, 3432.24, 0.00, 0.00, 0.00
169, -187500.02, 13651.95, -31980.90, -5437.49, -14931.86, -16452.49, -21681.75, -337.38, 0.00, 0.01, 0.01
170, -187500.02, 12892.89, -31160.39, -6093.58, -14169.73, -15612.89, -11292.84, 275.62, 0.00, 0.00, 0.00
171, -187500.02, 12564.67, -30505.08, -6430.84, -14002.67, -14933.76, -3450.19, 4500.03, 0.00, 0.00, 0.00
172, -187500.02, 13065.26, -31280.66, -5962.26, -14784.43, -15728.41, -13007.02, 4540.47, 0.00, 0.00, 0.00
173, -187500.02, 13412.52, -32064.13, -5554.16, -15061.99, -16539.64, -22297.54, 471.02, 0.00, 0.00, 0.00
174, -187500.02, 13057.62, -31394.30, -5898.04, -14311.82, -15856.42, -14299.35, -111.92, 0.00, 0.00, 0.00
175, -187500.02, 12585.02, -30557.20, -6336.09, -13941.50, -14988.99, -4328.39, 3779.61, 0.00, 0.00, 0.00
176, -187500.02, 12964.48, -31118.52, -6001.35, -14627.85, -15559.74, -11197.64, 4685.17, 0.00, 0.00, 0.00
177, -187500.02, 13537.13, -32066.48, -5538.40, -15093.95, -16535.73, -22022.21, 917.96, 0.00, 0.00, 0.00
178, -187500.02, 13194.97, -31617.53, -5818.92, -14448.21, -16080.65, -16640.87, -462.70, 0.00, 0.00, 0.00
179, -187500.02, 12521.63, -30632.86, -6314.52, -13901.71, -15062.86, -4881.87, 3297.51, 0.00, 0.00, 0.00
180, -187500.02, 12706.50, -30937.70, -6184.41, -14461.51, -15366.22, -8848.25, 5338.85, 0.00, 0.01, 0.01
181, -187500.02, 13454.30, -31931.12, -5555.17, -15058.03, -16391.52, -21099.58, 2004.55, 0.00, 0.00, 0.00
182, -187500.02, 13316.68, -31748.48, -5713.02, -14580.91, -16216.91, -18846.30, -417.84, 0.00, 0.00, 0.00
183, -187500.02, 12678.33, -30703.05, -6239.96, -13903.19, -15143.78, -6123.80, 2763.32, 0.00, 0.00, 0.00
184, -187500.02, 12770.76, -30742.63, -6171.56, -14294.45, -15175.02, -6823.74, 5707.58, 0.00, 0.00, 0.00
185, -187500.02, 13349.15, -31819.56, -5628.21, -15040.62, -16276.54, -19536.52, 3018.11, 0.00, 0.00, 0.00
186, -187500.02, 13331.03, -31924.24, -5596.14, -14737.31, -16391.29, -20726.17, -209.95, 0.00, 0.00, 0.00
187, -187500.02, 12629.70, -30903.68, -6195.68, -13978.58, -15345.34, -8228.59, 1979.34, 0.00, 0.00, 0.00
188, -187500.02, 12507.41, -30680.38, -6276.01, -14173.06, -15107.95, -5635.84, 5407.71, 0.00, 0.00, 0.00
189, -187500.02, 13237.33, -31689.23, -5652.51, -14960.71, -16144.06, -17887.97, 3466.22, 0.00, 0.00, 0.00
190, -187500.02, 13491.83, -32051.21, -5461.89, -14858.21, -16527.84, -22207.20, -423.79, 0.00, 0.01, 0.01
191, -187500.02, 12873.35, -31104.26, -5996.93, -14053.70, -15559.74, -10618.31, 756.45, 0.00, 0.00, 0.00
192, -187500.02, 12464.43, -30627.86, -6288.98, -14042.91, -15061.83, -4858.73, 4499.07, 0.00, 0.00, 0.00
193, -187500.02, 13010.03, -31541.37, -5770.91, -14853.07, -15994.39, -15494.88, 3607.57, 0.00, 0.00, 0.00
194, -187500.02, 13465.76, -32139.37, -5445.35, -14953.85, -16616.96, -22768.78, -445.67, 0.00, 0.00, 0.00
195, -187500.02, 12984.42, -31311.42, -5831.59, -14151.85, -15774.68, -12824.67, -238.69, 0.00, 0.00, 0.00
196, -187500.02, 12531.97, -30578.39, -6178.71, -13914.65, -15015.86, -4129.06, 3775.03, 0.00, 0.00, 0.00
197, -187500.02, 12912.80, -31308.58, -5872.79, -14684.04, -15758.16, -12679.00, 4063.86, 0.00, 0.00, 0.00
198, -187500.02, 13545.56, -32099.45, -5378.43, -14994.87, -16578.31, -22071.25, 208.23, 0.00, 0.00, 0.00
199, -187500.02, 13153.24, -31480.26, -5704.01, -14274.49, -15950.96, -14506.15, -380.47, 0.00, 0.00, 0.00
200, -187500.02, 12453.36, -30594.71, -6224.16, -13857.28, -15036.78, -4002.35, 3535.60, 0.00, 0.00, 0.00
201, -187500.02, 12759.69, -31066.76, -5909.26, -14504.87, -15514.37, -9769.01, 4936.02, 0.00, 0.01, 0.01
202, -187500.02, 13412.63, -32025.38, -5337.86, -15012.35, -16504.10, -21351.23, 1290.14, 0.00, 0.00, 0.00
203, -187500.02, 13165.33, -31665.38, -5570.64, -14422.40, -16145.80, -17110.66, -600.01, 0.00, 0.00, 0.00
204, -187500.02, 12527.42, -30694.42, -6134.03, -13858.35, -15146.91, -5309.63, 2640.14, 0.00, 0.00, 0.00
205, -187500.02, 12717.09, -30945.52, -5975.67, -14374.43, -15396.13, -8290.71, 4682.71, 0.00, 0.00, 0.00
206, -187500.02, 13439.66, -31987.00, -5347.30, -15019.23, -16467.51, -20720.94, 1380.06, 0.00, 0.00, 0.00
207, -187500.02, 13404.36, -31893.26, -5381.05, -14578.50, -16381.86, -19433.28, -1365.16, 0.00, 0.00, 0.00
208, -187500.02, 12742.62, -30847.89, -5973.44, -13863.76, -15311.57, -6999.38, 1328.27, 0.00, 0.00, 0.00
209, -187500.02, 12723.82, -30854.10, -5961.61, -14226.35, -15309.42, -6749.60, 4171.89, 0.00, 0.00, 0.00
210, -187500.02, 13380.71, -31927.05, -5289.12, -14975.58, -16409.24, -19390.14, 1571.35, 0.00, 0.00, 0.00
211, -187500.02, 13528.04, -32103.61, -5137.12, -14709.59, -16600.55, -21407.20, -1907.12, 0.00, 0.01, 0.01
212, -187500.02, 12790.54, -31106.16, -5790.38, -13925.29, -15575.72, -8973.49, 47.74, 0.00, 0.00, 0.00
213, -187500.02, 12587.21, -30798.56, -5956.20, -14049.23, -15248.99, -5390.44, 3694.05, 0.00, 0.00, 0.00
214, -187500.02, 13252.93, -31761.47, -5387.93, -14833.00, -16235.26, -17284.13, 2151.00, 0.00, 0.00, 0.00
215, -187500.02, 13582.06, -32159.67, -5105.38, -14770.90, -16655.69, -22388.87, -1661.61, 0.00, 0.00, 0.00
216, -187500.02, 12917.07, -31222.66, -5647.26, -13961.50, -15699.60, -11055.51, -587.94, 0.00, 0.00, 0.00
217, -187500.02, 12559.15, -30666.86, -5955.42, -13891.81, -15120.31, -4085.00, 3632.78, 0.00, 0.00, 0.00
218, -187500.02, 13208.90, -31482.23, -5445.31, -14667.15, -15955.95, -14489.96, 3374.04, 0.00, 0.00, 0.00
219, -187500.02, 13640.62, -32147.19, -5119.91, -14851.93, -16647.82, -22418.22, -522.74, 0.00, 0.00, 0.00
220, -187500.02, 13129.79, -31371.21, -5549.76, -14073.10, -15858.99, -13353.78, -431.97, 0.00, 0.00, 0.00
221, -187500.02, 12596.86, -30626.43, -5937.03, -13814.63, -15086.49, -4251.64, 3589.73, 0.00, 0.00, 0.00
222, -187500.02, 12982.88, -31315.04, -5494.15, -14555.95, -15784.51, -12516.22, 4124.81, 0.00, 0.01, 0.01
223, -187500.02, 13566.79, -32171.18, -4984.08, -14917.06, -16671.03, -22877.63, 97.16, 0.00, 0.00, 0.00
224, -187500.02, 13203.20, -31641.66, -5362.00, -14233.79, -16135.99, -16282.73, -1027.98, 0.00, 0.00, 0.00
225, -187500.02, 12633.29, -30746.43, -5887.83, -13783.99, -15211.12, -5218.37, 2725.86, 0.00, 0.00, 0.00
226, -187500.02, 12999.30, -31180.59, -5528.79, -14397.29, -15646.62, -10611.67, 4237.87, 0.00, 0.00, 0.00
227, -187500.02, 13621.29, -32184.63, -5047.96, -14944.58, -16679.74, -22492.52, 542.52, 0.00, 0.00, 0.00
228, -187500.02, 13397.12, -31875.24, -5258.92, -14375.01, -16372.21, -18894.17, -1569.43, 0.00, 0.00, 0.00
229, -187500.02, 12726.59, -30838.05, -5786.11, -13742.75, -15306.27, -6552.68, 1717.31, 0.00, 0.00, 0.00
230, -187500.02, 12813.83, -30975.36, -5644.51, -14197.85, -15438.55, -8527.03, 4204.16, 0.00, 0.00, 0.00
231, -187500.02, 13537.24, -32001.75, -5041.26, -14868.78, -16493.20, -20886.27, 1312.78, 0.00, 0.00, 0.00
232, -187500.02, 13426.94, -31948.96, -5124.61, -14476.87, -16453.25, -20399.90, -1422.29, 0.00, 0.01, 0.01
233, -187500.02, 12647.22, -30902.43, -5700.54, -13752.96, -15379.59, -7529.65, 1425.46, 0.00, 0.00, 0.00
234, -187500.02, 12542.44, -30783.34, -5783.76, -14036.92, -15249.63, -6366.87, 4824.38, 0.00, 0.00, 0.00
235, -187500.02, 13343.37, -31815.18, -5214.15, -14813.73, -16310.27, -18825.64, 2729.01, 0.00, 0.00, 0.00
236, -187500.02, 13579.96, -32057.23, -5044.14, -14625.06, -16571.40, -21836.92, -724.26, 0.00, 0.00, 0.00
237, -187500.02, 12778.16, -31085.13, -5616.37, -13848.89, -15576.59, -9766.01, 1020.71, 0.00, 0.00, 0.00
238, -187500.02, 12566.55, -30737.58, -5723.41, -13938.06, -15209.36, -5412.03, 4770.15, 0.00, 0.00, 0.00
239, -187500.02, 13209.50, -31723.32, -5245.22, -14751.53, -16216.64, -17196.76, 3403.12, 0.00, 0.00, 0.00
240, -187500.02, 13405.70, -32243.53, -5029.81, -14773.25, -16758.24, -23421.79, -710.18, 0.00, 0.00, 0.00
241, -187500.02, 12850.35, -31356.46, -5496.32, -13958.64, -15852.73, -12691.72, -151.75, 0.00, 0.00, 0.00
242, -187500.02, 12515.48, -30744.02, -5783.49, -13824.26, -15215.17, -5338.98, 3735.33, 0.00, 0.00, 0.00
243, -187500.02, 13230.11, -31534.40, -5252.15, -14590.44, -16021.42, -15200.21, 3374.11, 0.00, 0.01, 0.01
244, -187500.02, 13733.65, -32253.48, -4807.52, -14813.51, -16766.87, -23685.74, -746.48, 0.00, 0.00, 0.00
245, -187500.02, 13065.49, -31578.12, -5306.95, -14072.01, -16074.64, -14801.62, -963.67, 0.00, 0.00, 0.00
246, -187500.02, 12505.71, -30757.56, -5726.52, -13727.97, -15225.07, -4951.43, 3190.78, 0.00, 0.00, 0.00
247, -187500.02, 13039.36, -31342.93, -5313.81, -14422.28, -15819.42, -12189.70, 4170.90, 0.00, 0.00, 0.00
248, -187500.02, 13751.82, -32191.52, -4780.66, -14811.88, -16700.15, -23000.77, 406.67, 0.00, 0.00, 0.00
249, -187500.02, 13509.28, -31680.49, -5116.87, -14149.21, -16186.06, -16941.21, -851.76, 0.00, 0.00, 0.00
250, -187500.02, 12883.50, -30735.73, -5724.89, -13659.91, -15211.84, -5279.37, 3015.27, 0.00, 0.00, 0.00
251, -187500.02, 13011.64, -31100.98, -5457.87, -14254.78, -15579.92, -9654.30, 5027.96, 0.00, 0.00, 0.00
252, -187500.02, 13591.36, -32097.91, -4817.96, -14832.55, -16610.61, -21894.99, 1670.10, 0.00, 0.00, 0.00
253, -187500.02, 13331.65, -31879.58, -4954.58, -14323.22, -16400.39, -19118.16, -554.82, 0.00, 0.01, 0.01
254, -187500.02, 12509.96, -30870.80, -5607.58, -13682.49, -15365.95, -6857.00, 2601.94, 0.00, 0.00, 0.00
255, -187500.02, 12485.88, -30992.08, -5669.50, -14128.18, -15482.40, -8372.02, 5107.10, 0.00, 0.00, 0.00
0, -187500.02, 13278.63, -32075.71, -5046.60, -14855.13, -16593.67, -20997.34, 2194.96, 0.00, 0.00, 0.00
1, -187500.02, 13443.03, -32118.99, -4994.14, -14507.71, -16648.56, -21577.48, -933.88, 0.00, 0.00, 0.00
2, -187500.02, 12757.55, -31087.03, -5581.97, -13750.21, -15589.92, -9241.02, 1317.93, 0.00, 0.00, 0.00
3, -187500.02, 12653.88, -30922.68, -5613.66, -13988.46, -15410.83, -7185.15, 4474.01, 0.00, 0.00, 0.00
4, -187500.02, 13328.25, -31972.98, -5014.48, -14779.13, -16484.81, -19398.99, 2407.69, 0.00, 0.00, 0.00
5, -187500.02, 13526.22, -32294.71, -4811.55, -14632.61, -16821.23, -23106.92, -1260.91, 0.00, 0.00, 0.00
6, -187500.02, 12886.85, -31321.70, -5350.29, -13819.26, -15825.97, -11185.68, 230.42, 0.00, 0.00, 0.00
7, -187500.02, 12601.67, -30886.40, -5634.63, -13845.16, -15369.68, -5876.83, 4080.29, 0.00, 0.00, 0.00
8, -187500.02, 13146.98, -31796.99, -5206.06, -14645.06, -16299.90, -17018.75, 3103.81, 0.00, 0.01, 0.01
9, -187500.02, 13525.15, -32337.52, -4868.77, -14712.75, -16863.32, -23644.55, -827.82, 0.00, 0.00, 0.00
10, -187500.02, 12895.84, -31474.54, -5324.50, -13908.39, -15982.21, -13238.51, -263.17, 0.00, 0.00, 0.00
11, -187500.02, 12478.80, -30772.07, -5615.32, -13706.47, -15253.57, -5145.08, 3871.10, 0.00, 0.00, 0.00
12, -187500.02, 13025.28, -31514.42, -5224.03, -14475.12, -16008.72, -14402.86, 3913.75, 0.00, 0.00, 0.00
13, -187500.02, 13507.38, -32309.33, -4853.70, -14782.86, -16829.28, -23406.05, -45.13, 0.00, 0.00, 0.00
14, -187500.02, 13072.08, -31644.95, -5160.88, -14036.83, -16154.14, -15321.52, -414.40, 0.00, 0.00, 0.00
15, -187500.02, 12462.62, -30777.70, -5640.44, -13652.31, -15258.73, -4974.31, 3656.10, 0.00, 0.00, 0.00
16, -187500.02, 12772.66, -31334.80, -5413.97, -14350.18, -15821.59, -11691.73, 4802.81, 0.00, 0.00, 0.00
17, -187500.02, 13468.83, -32250.95, -4844.87, -14811.20, -16769.60, -23050.91, 963.90, 0.00, 0.00, 0.00
18, -187500.02, 13265.09, -31844.64, -5078.27, -14198.95, -16362.50, -17806.09, -681.12, 0.00, 0.01, 0.01
19, -187500.02, 12533.72, -30887.81, -5614.18, -13657.27, -15376.90, -6058.26, 2887.64, 0.00, 0.00, 0.00
20, -187500.02, 12714.70, -31216.65, -5428.08, -14222.28, -15705.65, -9833.52, 4809.27, 0.00, 0.00, 0.00
21, -187500.02, 13531.68, -32256.25, -4775.70, -14838.43, -16775.81, -22343.43, 1326.87, 0.00, 0.00, 0.00
22, -187500.02, 13466.30, -32099.05, -4886.90, -14356.06, -16626.61, -20358.06, -1336.57, 0.00, 0.00, 0.00
23, -187500.02, 12712.64, -31052.36, -5519.03, -13661.86, -15553.10, -7751.12, 1528.03, 0.00, 0.00, 0.00
24, -187500.02, 12596.55, -31081.71, -5483.15, -14042.35, -15573.17, -8024.19, 4307.96, 0.00, 0.00, 0.00
25, -187500.02, 13232.54, -32123.99, -4925.59, -14768.40, -16642.15, -20513.18, 1648.35, 0.00, 0.00, 0.00
26, -187500.02, 13299.29, -32183.47, -4881.69, -14449.26, -16711.97, -21344.46, -1362.99, 0.00, 0.00, 0.00
27, -187500.02, 12703.30, -31110.63, -5426.31, -13659.35, -15612.27, -8720.55, 1027.42, 0.00, 0.00, 0.00
28, -187500.02, 12541.76, -30803.36, -5606.58, -13820.40, -15289.38, -5042.31, 4880.12, 0.00, 0.01, 0.01
29, -187500.02, 13235.14, -31760.62, -5084.40, -14616.30, -16273.54, -16675.32, 3457.68, 0.00, 0.00, 0.00
30, -187500.02, 13490.71, -32115.61, -4820.67, -14542.96, -16649.05, -20976.31, 52.57, 0.00, 0.00, 0.00
31, -187500.02, 12712.35, -31084.73, -5421.55, -13700.14, -15604.98, -8141.82, 1042.04, 0.00, 0.00, 0.00
32, -187500.02, 12275.15, -30512.61, -5732.57, -13674.44, -15023.52, -779.76, 3994.99, 0.00, 0.00, 0.00
33, -187500.02, 12952.30, -31441.15, -5174.00, -14536.28, -15966.05, -11792.33, 3287.23, 0.00, 0.00, 0.00
34, -187500.02, 13409.82, -32141.12, -4830.21, -14710.55, -16681.08, -20361.41, 315.07, 0.00, 0.00, 0.00
35, -187500.02, 12876.12, -31328.12, -5328.97, -13901.15, -15855.86, -10412.83, 756.90, 0.00, 0.00, 0.00
36, -187500.02, 12424.57, -30589.70, -5681.19, -13666.01, -15100.32, -855.89, 3821.25, 0.00, 0.00, 0.00
37, -187500.02, 12906.70, -31371.59, -5193.49, -14466.61, -15892.11, -10277.56, 3592.51, 0.00, 0.00, 0.00
38, -187500.02, 13460.67, -32306.14, -4732.98, -14841.22, -16846.46, -21793.29, 151.10, 0.00, 0.00, 0.00
39, -187500.02, 13078.63, -31721.68, -5109.94, -14096.10, -16254.93, -15129.69, -428.46, 0.00, 0.01, 0.01
40, -187500.02, 12623.66, -30805.64, -5571.66, -13641.43, -15315.95, -4161.18, 2888.27, 0.00, 0.00, 0.00
41, -187500.02, 12833.12, -31317.68, -5270.36, -14305.74, -15831.90, -9965.32, 3776.08, 0.00, 0.00, 0.00
42, -187500.02, 13406.08, -32294.04, -4714.43, -14811.72, -16835.74, -21395.18, -92.69, 0.00, 0.00, 0.00
43, -187500.02, 13130.06, -31948.42, -4949.23, -14216.22, -16488.41, -17054.87, -1947.60, 0.00, 0.00, 0.00
44, -187500.02, 12487.49, -30920.62, -5506.71, -13600.19, -15430.01, -4853.82, 1489.70, 0.00, 0.00, 0.00
45, -187500.02, 12795.12, -31070.47, -5298.39, -14060.92, -15572.95, -7229.40, 4001.88, 0.00, 0.00, 0.00
46, -187500.02, 13440.98, -32088.25, -4756.47, -14721.86, -16617.16, -19658.69, 1076.26, 0.00, 0.00, 0.00
47, -187500.02, 13336.64, -31992.43, -4836.34, -14304.89, -16527.42, -18466.59, -1397.57, 0.00, 0.00, 0.00
48, -187500.02, 12653.50, -30923.50, -5420.81, -13583.31, -15430.95, -5853.74, 1589.34, 0.00, 0.00, 0.00
49, -187500.02, 12824.18, -30830.01, -5371.26, -13890.27, -15328.89, -5210.26, 4808.33, 0.00, 0.01, 0.01
50, -187500.02, 13399.67, -31921.08, -4828.54, -14691.09, -16446.32, -17596.32, 2647.12, 0.00, 0.00, 0.00
51, -187500.02, 13374.25, -32129.29, -4803.32, -14465.67, -16671.27, -20075.69, -562.95, 0.00, 0.00, 0.00
52, -187500.02, 12654.73, -31115.62, -5351.68, -13681.26, -15636.54, -7987.55, 1365.60, 0.00, 0.00, 0.00
53, -187500.02, 12415.83, -30827.39, -5570.46, -13828.04, -15331.04, -4202.06, 4973.35, 0.00, 0.00, 0.00
54, -187500.02, 13146.65, -31817.73, -5008.04, -14634.13, -16343.95, -16196.68, 3461.01, 0.00, 0.00, 0.00
55, -187500.02, 13465.58, -32261.54, -4746.71, -14602.53, -16812.67, -21780.77, -511.01, 0.00, 0.00, 0.00
56, -187500.02, 12920.81, -31343.34, -5228.77, -13787.87, -15877.87, -10746.34, 277.59, 0.00, 0.00, 0.00
57, -187500.02, 12546.28, -30798.96, -5532.91, -13710.83, -15310.59, -3813.99, 4171.64, 0.00, 0.00, 0.00
58, -187500.02, 13043.63, -31653.80, -5095.50, -14506.66, -16182.37, -14120.74, 3667.81, 0.00, 0.00, 0.00
59, -187500.02, 13531.66, -32343.91, -4691.68, -14695.31, -16900.76, -22218.53, -399.67, 0.00, 0.00, 0.00
60, -187500.02, 13082.25, -31578.59, -5091.08, -13907.99, -16124.24, -13146.40, -519.81, 0.00, 0.01, 0.01
61, -187500.02, 12528.89, -30815.21, -5589.39, -13629.29, -15331.60, -3668.19, 3428.44, 0.00, 0.00, 0.00
62, -187500.02, 12911.28, -31466.88, -5203.96, -14357.89, -15990.15, -11345.23, 4139.63, 0.00, 0.00, 0.00
63, -187500.02, 13411.83, -32346.64, -4766.40, -14753.36, -16896.94, -21640.53, 326.76, 0.00, 0.00, 0.00
64, -187500.02, 13135.49, -31793.14, -5040.70, -14054.06, -16337.60, -14824.03, -734.84, 0.00, 0.00, 0.00
65, -187500.02, 12485.97, -30804.14, -5568.24, -13542.18, -15320.94, -2603.80, 2669.31, 0.00, 0.00, 0.00
66, -187500.02, 12731.73, -31187.77, -5330.47, -14162.60, -15707.53, -7244.45, 3728.85, 0.00, 0.00, 0.00
67, -187500.02, 13288.98, -32239.95, -4817.56, -14772.13, -16779.10, -20133.24, 449.23, 0.00, 0.00, 0.00
68, -187500.02, 13108.87, -31996.07, -4972.59, -14233.03, -16530.59, -17323.27, -1050.89, 0.00, 0.00, 0.00
69, -187500.02, 12506.07, -30877.62, -5551.19, -13535.41, -15386.76, -3724.02, 2116.17, 0.00, 0.00, 0.00
70, -187500.02, 12598.76, -30998.05, -5497.68, -14010.92, -15507.15, -5009.41, 3999.98, 0.00, 0.01, 0.01
71, -187500.02, 13370.95, -32106.07, -4863.81, -14757.05, -16639.04, -18648.71, 1195.51, 0.00, 0.00, 0.00
72, -187500.02, 13315.96, -32146.88, -4825.16, -14395.28, -16683.47, -19050.64, -980.44, 0.00, 0.00, 0.00
73, -187500.02, 12520.73, -31074.65, -5472.98, -13619.45, -15586.81, -5298.01, 1512.10, 0.00, 0.00, 0.00
74, -187500.02, 12380.00, -30923.17, -5554.59, -13889.02, -15427.55, -3166.59, 3976.31, 0.00, 0.00, 0.00
75, -187500.02, 13186.05, -31996.14, -4951.27, -14696.90, -16521.07, -16682.09, 1726.74, 0.00, 0.00, 0.00
76, -187500.02, 13349.67, -32295.63, -4793.20, -14528.99, -16829.32, -20659.83, -1111.62, 0.00, 0.00, 0.00
77, -187500.02, 12619.64, -31252.63, -5330.67, -13682.75, -15764.55, -7883.10, 764.23, 0.00, 0.00, 0.00
78, -187500.02, 12338.18, -30808.53, -5559.55, -13728.71, -15307.79, -2274.83, 3834.51, 0.00, 0.00, 0.00
79, -187500.02, 12998.12, -31782.71, -5052.86, -14572.44, -16301.93, -14184.91, 2367.92, 0.00, 0.00, 0.00
80, -187500.02, 13371.73, -32347.40, -4737.09, -14630.98, -16882.34, -21144.06, -774.15, 0.00, 0.00, 0.00
81, -187500.02, 12759.20, -31443.00, -5294.19, -13795.81, -15960.78, -10315.44, 311.78, 0.00, 0.01, 0.01
82, -187500.02, 12327.95, -30785.82, -5696.90, -13649.23, -15284.23, -1661.36, 3724.56, 0.00, 0.00, 0.00
83, -187500.02, 12832.54, -31601.54, -5152.17, -14460.68, -16115.67, -11561.98, 3132.13, 0.00, 0.00, 0.00
84, -187500.02, 13313.53, -32396.10, -4699.72, -14730.16, -16930.48, -21488.14, -366.73, 0.00, 0.00, 0.00
85, -187500.02, 12844.23, -31694.71, -5132.23, -13952.65, -16216.37, -13310.40, -266.03, 0.00, 0.00, 0.00
86, -187500.02, 12284.76, -30823.26, -5559.10, -13580.34, -15324.27, -2619.27, 3169.63, 0.00, 0.00, 0.00
87, -187500.02, 12720.06, -31421.66, -5212.25, -14302.79, -15933.46, -9390.44, 3441.79, 0.00, 0.00, 0.00
88, -187500.02, 13317.44, -32389.76, -4702.45, -14771.73, -16924.88, -20958.52, -98.59, 0.00, 0.00, 0.00
89, -187500.02, 12941.17, -31930.79, -5051.47, -14106.50, -16456.56, -15660.82, -865.37, 0.00, 0.00, 0.00
90, -187500.02, 12261.70, -30911.59, -5524.79, -13544.51, -15411.50, -3310.16, 2643.21, 0.00, 0.00, 0.00
91, -187500.02, 12501.75, -31221.03, -5326.44, -14116.13, -15724.92, -6923.07, 3968.46, 0.00, 0.01, 0.01
92, -187500.02, 13188.22, -32276.21, -4764.18, -14753.09, -16803.30, -19353.01, 661.70, 0.00, 0.00, 0.00
93, -187500.02, 13090.14, -32080.29, -4864.10, -14242.84, -16604.15, -17219.22, -1020.74, 0.00, 0.00, 0.00
94, -187500.02, 12396.28, -30996.06, -5455.88, -13539.64, -15493.18, -4265.88, 2243.80, 0.00, 0.00, 0.00
95, -187500.02, 12403.54, -31046.53, -5461.54, -13954.15, -15538.73, -4679.18, 4547.55, 0.00, 0.00, 0.00
96, -187500.02, 13105.59, -32122.29, -4860.34, -14701.28, -16638.32, -17691.96, 1713.06, 0.00, 0.00, 0.00
97, -187500.02, 13164.55, -32203.77, -4844.96, -14384.02, -16729.07, -19264.57, -952.16, 0.00, 0.00, 0.00
98, -187500.02, 12509.85, -31137.01, -5389.56, -13599.18, -15637.46, -6460.70, 1516.92, 0.00, 0.00, 0.00
99, -187500.02, 12437.72, -30911.52, -5459.88, -13810.56, -15399.95, -3439.33, 4459.33, 0.00, 0.00, 0.00
100, -187500.02, 13024.36, -31977.16, -4951.76, -14641.22, -16486.74, -15924.97, 2303.77, 0.00, 0.00, 0.00
101, -187500.02, 13112.45, -32366.20, -4792.82, -14549.49, -16887.19, -20616.51, -970.69, 0.00, 0.00, 0.00
102, -187500.02, 12544.76, -31390.72, -5297.83, -13720.89, -15891.11, -8841.92, 732.06, 0.00, 0.01, 0.01
103, -187500.02, 12372.27, -30880.30, -5500.43, -13694.87, -15367.63, -2872.89, 4115.43, 0.00, 0.00, 0.00
104, -187500.02, 12924.74, -31798.64, -4937.52, -14516.70, -16307.07, -13820.53, 2476.82, 0.00, 0.00, 0.00
105, -187500.02, 13267.48, -32420.85, -4615.03, -14625.66, -16946.35, -20529.09, -1834.50, 0.00, 0.00, 0.00
106, -187500.02, 12704.71, -31590.46, -5110.55, -13819.84, -16093.39, -10129.52, -1394.79, 0.00, 0.00, 0.00
107, -187500.02, 12388.86, -30905.80, -5483.91, -13615.10, -15382.18, -2010.52, 2619.78, 0.00, 0.00, 0.00
108, -187500.02, 12837.23, -31625.50, -5069.08, -14366.52, -16116.19, -10907.90, 2801.01, 0.00, 0.00, 0.00
109, -187500.02, 13314.22, -32387.21, -4604.10, -14653.07, -16908.16, -20244.44, -1068.19, 0.00, 0.00, 0.00
110, -187500.02, 12986.70, -31724.93, -4933.19, -13911.97, -16236.33, -12281.81, -1499.24, 0.00, 0.00, 0.00
111, -187500.02, 12363.26, -30856.69, -5445.33, -13522.34, -15336.40, -1678.30, 2642.53, 0.00, 0.00, 0.00
112, -187500.02, 12685.87, -31374.67, -5129.93, -14192.46, -15857.49, -8045.71, 4077.11, 0.00, 0.01, 0.01
113, -187500.02, 13291.17, -32288.28, -4630.50, -14662.99, -16801.29, -19578.09, 476.81, 0.00, 0.00, 0.00
114, -187500.02, 12889.58, -31898.33, -4951.60, -14070.85, -16407.43, -14625.39, -1110.01, 0.00, 0.00, 0.00
115, -187500.02, 12175.91, -30915.57, -5540.59, -13516.70, -15391.83, -2527.47, 2559.70, 0.00, 0.00, 0.00
116, -187500.02, 12351.33, -31167.70, -5358.54, -14047.69, -15642.44, -5731.57, 4629.20, 0.00, 0.00, 0.00
117, -187500.02, 13109.45, -32238.59, -4754.31, -14715.65, -16739.24, -18854.84, 1629.93, 0.00, 0.00, 0.00
118, -187500.02, 13078.99, -32136.13, -4816.15, -14264.23, -16640.49, -17880.23, -254.16, 0.00, 0.00, 0.00
119, -187500.02, 12331.57, -31050.42, -5408.61, -13530.70, -15533.39, -5042.60, 2540.12, 0.00, 0.00, 0.00
120, -187500.02, 12379.76, -31046.19, -5401.03, -13904.15, -15525.23, -4605.67, 4654.44, 0.00, 0.00, 0.00
121, -187500.02, 13103.91, -32179.34, -4831.31, -14705.26, -16680.93, -17900.44, 2046.44, 0.00, 0.00, 0.00
122, -187500.02, 13160.13, -32386.60, -4738.15, -14451.56, -16893.02, -20448.58, -550.17, 0.00, 0.00, 0.00
123, -187500.02, 12412.77, -31329.30, -5348.71, -13627.17, -15812.27, -7455.58, 1448.24, 0.00, 0.01, 0.01
124, -187500.02, 12254.77, -31026.79, -5476.24, -13775.18, -15498.23, -3511.79, 4099.38, 0.00, 0.00, 0.00
125, -187500.02, 12933.70, -32064.60, -4927.51, -14611.16, -16554.35, -16433.63, 2422.62, 0.00, 0.00, 0.00
126, -187500.02, 13201.14, -32500.02, -4720.78, -14551.57, -17000.94, -21920.38, -455.89, 0.00, 0.00, 0.00
127, -187500.02, 12577.28, -31486.83, -5232.72, -13682.62, -15970.03, -9516.14, 723.53, 0.00, 0.00, 0.00
128, -187500.02, 12300.68, -30901.08, -5472.53, -13617.38, -15366.98, -2001.84, 3807.78, 0.00, 0.00, 0.00
129, -187500.02, 12768.21, -31834.02, -5029.90, -14475.30, -16307.83, -13223.85, 3201.06, 0.00, 0.00, 0.00
130, -187500.02, 13070.50, -32500.44, -4731.39, -14628.97, -16990.19, -22008.11, 234.34, 0.00, 0.00, 0.00
131, -187500.02, 12533.29, -31650.34, -5182.50, -13803.10, -16131.10, -11711.49, 590.06, 0.00, 0.00, 0.00
132, -187500.02, 12063.68, -30861.77, -5603.63, -13538.94, -15322.59, -1430.31, 3809.59, 0.00, 0.00, 0.00
133, -187500.02, 12576.72, -31575.10, -5206.79, -14323.31, -16045.11, -10299.08, 3882.86, 0.00, 0.01, 0.01
134, -187500.02, 13045.68, -32489.31, -4762.93, -14724.64, -16979.70, -21512.73, 607.65, 0.00, 0.00, 0.00
135, -187500.02, 12700.48, -31930.96, -5045.44, -14013.05, -16411.48, -15218.70, 303.11, 0.00, 0.00, 0.00
136, -187500.02, 12218.00, -31054.30, -5508.30, -13574.35, -15507.66, -4701.64, 4178.08, 0.00, 0.00, 0.00
137, -187500.02, 12601.58, -31548.79, -5272.49, -14224.56, -16007.07, -10704.81, 5382.19, 0.00, 0.00, 0.00
138, -187500.02, 13193.25, -32541.72, -4736.02, -14753.63, -17030.49, -22871.58, 1368.35, 0.00, 0.00, 0.00
139, -187500.02, 12758.67, -32251.31, -4953.17, -14196.67, -16740.00, -18846.57, -1008.49, 0.00, 0.00, 0.00
140, -187500.02, 12025.48, -31281.04, -5500.41, -13595.20, -15735.14, -6324.63, 2249.21, 0.00, 0.00, 0.00
141, -187500.02, 12250.99, -31460.55, -5346.92, -14054.53, -15909.23, -8892.02, 4515.52, 0.00, 0.00, 0.00
142, -187500.02, 13027.62, -32506.45, -4709.56, -14721.24, -16983.44, -21467.98, 1275.77, 0.00, 0.00, 0.00
143, -187500.02, 12932.45, -32439.62, -4748.00, -14296.42, -16925.50, -20421.54, -1554.83, 0.00, 0.01, 0.01
144, -187500.02, 12280.45, -31346.69, -5320.88, -13539.79, -15805.12, -7460.65, 1285.67, 0.00, 0.00, 0.00
145, -187500.02, 12227.68, -31262.18, -5365.85, -13852.74, -15707.62, -6500.80, 4504.37, 0.00, 0.00, 0.00
146, -187500.02, 12766.29, -32304.44, -4787.59, -14622.20, -16774.89, -19052.09, 2352.74, 0.00, 0.00, 0.00
147, -187500.02, 12853.77, -32520.04, -4708.77, -14415.00, -17005.74, -21529.42, -803.30, 0.00, 0.00, 0.00
148, -187500.02, 12237.78, -31441.24, -5260.66, -13573.12, -15902.86, -7965.18, 913.92, 0.00, 0.00, 0.00
149, -187500.02, 12012.68, -31035.71, -5466.52, -13667.08, -15482.54, -2824.66, 3756.08, 0.00, 0.00, 0.00
150, -187500.02, 12665.44, -32035.28, -4904.35, -14516.05, -16497.67, -14980.00, 2477.04, 0.00, 0.00, 0.00
151, -187500.02, 12943.31, -32535.18, -4656.47, -14526.80, -17011.22, -21629.65, -393.32, 0.00, 0.00, 0.00
152, -187500.02, 12243.82, -31592.33, -5207.71, -13691.38, -16053.27, -10112.51, 675.49, 0.00, 0.00, 0.00
153, -187500.02, 11916.79, -30954.13, -5530.38, -13575.31, -15401.63, -2065.52, 3767.68, 0.00, 0.00, 0.00
154, -187500.02, 12529.65, -31830.29, -5057.31, -14419.83, -16292.83, -12537.29, 3110.76, 0.00, 0.01, 0.01
155, -187500.02, 12866.04, -32624.54, -4732.89, -14678.99, -17101.61, -21911.32, -72.53, 0.00, 0.00, 0.00
156, -187500.02, 12363.78, -31842.05, -5098.72, -13853.10, -16306.58, -12899.21, 170.43, 0.00, 0.00, 0.00
157, -187500.02, 11882.41, -30962.19, -5544.10, -13498.08, -15407.82, -2127.64, 3379.16, 0.00, 0.00, 0.00
158, -187500.02, 12385.12, -31603.60, -5205.30, -14255.85, -16057.65, -9640.46, 3612.80, 0.00, 0.00, 0.00
159, -187500.02, 13037.62, -32538.26, -4690.71, -14696.50, -17011.82, -21124.14, 526.56, 0.00, 0.00, 0.00
160, -187500.02, 12587.36, -32015.12, -5009.18, -14004.08, -16482.44, -14915.63, 13.52, 0.00, 0.00, 0.00
161, -187500.02, 11898.08, -31012.46, -5595.58, -13479.26, -15456.32, -2403.24, 3234.61, 0.00, 0.00, 0.00
162, -187500.02, 12210.40, -31393.09, -5352.57, -14103.66, -15839.32, -6916.01, 4318.04, 0.00, 0.00, 0.00
163, -187500.02, 12871.21, -32451.80, -4772.39, -14718.82, -16919.91, -20127.39, 1341.95, 0.00, 0.00, 0.00
164, -187500.02, 12623.55, -32203.41, -4979.50, -14179.83, -16673.98, -17253.98, -67.52, 0.00, 0.01, 0.01
165, -187500.02, 11897.68, -31104.73, -5670.32, -13495.22, -15555.65, -3849.66, 2781.88, 0.00, 0.00, 0.00
166, -187500.02, 12146.32, -31204.51, -5523.12, -13954.35, -15652.43, -4991.52, 4532.33, 0.00, 0.00, 0.00
167, -187500.02, 12905.38, -32335.20, -4822.48, -14710.17, -16803.50, -18944.40, 1819.61, 0.00, 0.00, 0.00
168, -187500.02, 12952.99, -32371.96, -4732.58, -14337.33, -16844.45, -19462.00, -369.38, 0.00, 0.00, 0.00
169, -187500.02, 12237.67, -31269.49, -5390.97, -13534.41, -15718.28, -5655.86, 2020.22, 0.00, 0.00, 0.00
170, -187500.02, 12065.38, -31108.64, -5549.58, -13803.23, -15548.32, -3433.50, 4419.34, 0.00, 0.00, 0.00
171, -187500.02, 12845.52, -32214.05, -4913.45, -14642.72, -16671.14, -16802.03, 2367.14, 0.00, 0.00, 0.00
172, -187500.02, 13051.61, -32540.58, -4753.03, -14486.10, -17006.68, -21383.78, -440.24, 0.00, 0.00, 0.00
173, -187500.02, 12395.36, -31502.62, -5353.60, -13637.27, -15949.35, -8889.45, 979.41, 0.00, 0.00, 0.00
174, -187500.02, 12190.40, -31044.36, -5481.68, -13670.08, -15477.78, -2868.31, 3727.56, 0.00, 0.00, 0.00
175, -187500.02, 12827.62, -32026.49, -4847.91, -14512.12, -16474.17, -14335.72, 2291.97, 0.00, 0.01, 0.01
176, -187500.02, 13112.05, -32628.49, -4537.20, -14585.34, -17089.00, -21835.51, -901.02, 0.00, 0.00, 0.00
177, -187500.02, 12411.30, -31779.57, -5096.56, -13768.76, -16219.61, -11564.61, 380.27, 0.00, 0.00, 0.00
178, -187500.02, 11861.53, -31099.88, -5591.83, -13579.24, -15515.89, -2872.44, 4169.96, 0.00, 0.00, 0.00
179, -187500.02, 12383.13, -31892.43, -5212.54, -14388.29, -16323.86, -12477.28, 3511.26, 0.00, 0.00, 0.00
180, -187500.02, 13009.05, -32688.55, -4732.47, -14671.13, -17137.98, -22453.58, -14.69, 0.00, 0.00, 0.00
181, -187500.02, 12651.51, -31968.11, -5095.33, -13883.14, -16406.83, -14035.71, -82.59, 0.00, 0.00, 0.00
182, -187500.02, 12226.92, -31047.49, -5531.70, -13476.83, -15463.81, -2660.37, 3327.30, 0.00, 0.00, 0.00
183, -187500.02, 12512.24, -31639.94, -5221.05, -14217.77, -16063.44, -9136.74, 3698.43, 0.00, 0.00, 0.00
184, -187500.02, 12867.43, -32612.94, -4799.05, -14702.53, -17058.67, -20798.68, 310.58, 0.00, 0.00, 0.00
185, -187500.02, 12490.36, -32155.78, -5058.31, -14050.22, -16597.35, -15584.46, -575.18, 0.00, 0.01, 0.01
186, -187500.02, 11960.57, -31128.40, -5543.50, -13478.95, -15544.61, -3064.47, 2971.73, 0.00, 0.00, 0.00
187, -187500.02, 12239.88, -31422.44, -5366.34, -14045.32, -15842.07, -6739.48, 4345.54, 0.00, 0.00, 0.00
188, -187500.02, 12987.03, -32488.35, -4767.27, -14698.33, -16933.39, -19674.65, 1061.69, 0.00, 0.00, 0.00
189, -187500.02, 12752.47, -32350.64, -4890.70, -14226.04, -16793.54, -18067.16, -625.83, 0.00, 0.00, 0.00
190, -187500.02, 12069.16, -31317.18, -5492.14, -13538.94, -15730.91, -5978.09, 2768.96, 0.00, 0.00, 0.00
191, -187500.02, 12222.45, -31370.63, -5422.82, -13929.76, -15775.35, -6876.20, 5552.20, 0.00, 0.00, 0.00
192, -187500.02, 12934.91, -32440.11, -4820.47, -14667.57, -16872.82, -19845.87, 2765.80, 0.00, 0.00, 0.00
193, -187500.02, 12916.25, -32552.28, -4778.45, -14370.18, -16997.94, -21156.39, -301.53, 0.00, 0.00, 0.00
194, -187500.02, 12191.54, -31505.36, -5401.63, -13584.74, -15929.31, -7779.44, 1737.31, 0.00, 0.00, 0.00
195, -187500.02, 11955.63, -31264.63, -5558.88, -13782.24, -15679.19, -4352.82, 4302.35, 0.00, 0.00, 0.00
196, -187500.02, 12700.55, -32318.21, -4943.09, -14607.20, -16752.61, -16893.36, 2106.45, 0.00, 0.01, 0.01
197, -187500.02, 13035.38, -32693.87, -4651.98, -14498.70, -17140.01, -22111.60, -1166.98, 0.00, 0.00, 0.00
198, -187500.02, 12388.57, -31737.38, -5175.84, -13674.26, -16159.98, -10049.70, 227.50, 0.00, 0.00, 0.00
199, -187500.02, 12085.45, -31244.23, -5497.55, -13656.27, -15648.34, -3431.51, 3283.85, 0.00, 0.00, 0.00
200, -187500.02, 12694.56, -32180.19, -4965.46, -14490.41, -16600.19, -14764.53, 1942.10, 0.00, 0.00, 0.00
201, -187500.02, 13117.37, -32831.63, -4559.44, -14613.70, -17267.28, -22990.06, -1529.02, 0.00, 0.00, 0.00
202, -187500.02, 12571.02, -32001.64, -5038.64, -13789.28, -16420.69, -12845.06, -986.81, 0.00, 0.00, 0.00
203, -187500.02, 12170.41, -31249.48, -5411.16, -13537.78, -15646.71, -3226.90, 2298.74, 0.00, 0.00, 0.00
204, -187500.02, 12661.39, -31973.48, -4923.17, -14302.75, -16380.27, -12007.38, 1993.06, 0.00, 0.00, 0.00
205, -187500.02, 13209.46, -32817.07, -4447.91, -14638.92, -17243.83, -22730.83, -1489.70, 0.00, 0.00, 0.00
206, -187500.02, 12708.46, -32200.44, -4858.13, -13901.91, -16616.26, -15154.73, -1740.26, 0.00, 0.01, 0.01
207, -187500.02, 12015.18, -31243.83, -5424.79, -13440.57, -15636.48, -3217.18, 1660.20, 0.00, 0.00, 0.00
208, -187500.02, 12471.29, -31682.99, -5100.87, -14089.35, -16083.78, -8834.21, 2432.34, 0.00, 0.00, 0.00
209, -187500.02, 13305.19, -32633.95, -4464.29, -14603.15, -17057.55, -20733.99, -567.13, 0.00, 0.00, 0.00
210, -187500.02, 12985.31, -32232.71, -4724.89, -13985.64, -16649.28, -16091.67, -1312.29, 0.00, 0.00, 0.00
211, -187500.02, 12316.48, -31142.68, -5357.18, -13364.15, -15536.54, -2821.28, 2105.71, 0.00, 0.00, 0.00
212, -187500.02, 12412.39, -31374.90, -5277.76, -13919.71, -15772.64, -5363.75, 3812.94, 0.00, 0.00, 0.00
213, -187500.02, 12889.02, -32472.70, -4714.47, -14628.86, -16894.39, -18811.14, 1023.78, 0.00, 0.00, 0.00
214, -187500.02, 12784.71, -32387.14, -4775.76, -14193.98, -16811.53, -17891.43, -638.77, 0.00, 0.00, 0.00
215, -187500.02, 12162.41, -31289.47, -5365.67, -13451.21, -15690.81, -4570.62, 2210.92, 0.00, 0.00, 0.00
216, -187500.02, 12214.85, -31247.80, -5371.66, -13805.31, -15648.10, -4090.91, 4393.46, 0.00, 0.00, 0.00
217, -187500.02, 13039.31, -32372.81, -4732.56, -14614.91, -16795.37, -17745.96, 1871.71, 0.00, 0.01, 0.01
218, -187500.02, 13060.33, -32587.66, -4623.48, -14373.00, -17018.89, -20786.61, -787.43, 0.00, 0.00, 0.00
219, -187500.02, 12248.62, -31557.38, -5213.75, -13562.95, -15966.81, -7987.22, 1154.60, 0.00, 0.00, 0.00
220, -187500.02, 12106.80, -31259.92, -5379.13, -13704.68, -15655.29, -3751.43, 3873.80, 0.00, 0.00, 0.00
221, -187500.02, 12909.38, -32296.08, -4766.55, -14534.58, -16709.74, -16483.65, 2036.09, 0.00, 0.00, 0.00
222, -187500.02, 13207.96, -32777.22, -4523.46, -14503.64, -17203.42, -22754.54, -1149.51, 0.00, 0.00, 0.00
223, -187500.02, 12544.98, -31833.40, -5060.50, -13661.03, -16240.02, -11328.00, 4.07, 0.00, 0.00, 0.00
224, -187500.02, 12145.13, -31243.71, -5365.25, -13568.92, -15635.00, -3910.53, 3061.23, 0.00, 0.00, 0.00
225, -187500.02, 12841.93, -32136.15, -4839.38, -14399.17, -16542.32, -14394.21, 2105.22, 0.00, 0.00, 0.00
226, -187500.02, 13287.75, -32850.47, -4456.96, -14584.58, -17270.61, -23215.64, -1163.43, 0.00, 0.00, 0.00
227, -187500.02, 12711.59, -32049.85, -4873.40, -13761.43, -16455.91, -13826.72, -694.96, 0.00, 0.01, 0.01
228, -187500.02, 12136.86, -31238.78, -5269.49, -13454.27, -15623.42, -3708.65, 2652.86, 0.00, 0.00, 0.00
229, -187500.02, 12651.60, -31904.43, -4887.37, -14204.91, -16299.83, -11889.54, 2612.38, 0.00, 0.00, 0.00
230, -187500.02, 13323.52, -32786.12, -4398.13, -14594.64, -17201.77, -23049.03, -748.83, 0.00, 0.00, 0.00
231, -187500.02, 12878.69, -32225.69, -4797.49, -13887.83, -16629.68, -16145.92, -1071.86, 0.00, 0.00, 0.00
232, -187500.02, 12204.90, -31242.75, -5325.06, -13394.26, -15623.60, -4045.71, 2321.97, 0.00, 0.00, 0.00
233, -187500.02, 12473.14, -31687.82, -5088.98, -14052.74, -16070.99, -9106.46, 3233.67, 0.00, 0.00, 0.00
234, -187500.02, 13146.54, -32725.84, -4513.47, -14634.07, -17132.34, -21970.09, 84.69, 0.00, 0.00, 0.00
235, -187500.02, 12909.32, -32439.11, -4692.35, -14068.03, -16844.70, -18509.35, -1170.02, 0.00, 0.00, 0.00
236, -187500.02, 12230.83, -31354.00, -5260.35, -13401.21, -15740.05, -5377.07, 1783.02, 0.00, 0.00, 0.00
237, -187500.02, 12452.11, -31504.98, -5109.74, -13880.41, -15891.51, -7213.38, 3357.52, 0.00, 0.00, 0.00
238, -187500.02, 13139.65, -32623.15, -4608.97, -14615.63, -17029.26, -20575.81, 621.47, 0.00, 0.01, 0.01
239, -187500.02, 13157.87, -32590.72, -4656.18, -14209.76, -17000.00, -20468.68, -1309.28, 0.00, 0.00, 0.00
240, -187500.02, 12466.53, -31463.41, -5227.04, -13425.98, -15852.44, -6670.41, 1211.08, 0.00, 0.00, 0.00
241, -187500.02, 12227.34, -31346.13, -5296.74, -13732.69, -15727.60, -4629.31, 3635.09, 0.00, 0.00, 0.00
242, -187500.02, 12769.86, -32441.79, -4830.19, -14556.06, -16843.56, -17979.63, 1621.06, 0.00, 0.00, 0.00
243, -187500.02, 12982.59, -32687.23, -4707.46, -14360.19, -17101.83, -21344.71, -857.55, 0.00, 0.00, 0.00
244, -187500.02, 12415.70, -31584.18, -5224.03, -13499.04, -15983.62, -8486.62, 968.30, 0.00, 0.00, 0.00
245, -187500.02, 12166.32, -31175.68, -5476.78, -13594.42, -15563.34, -3169.95, 3781.42, 0.00, 0.00, 0.00
246, -187500.02, 12915.80, -32169.77, -4919.66, -14451.48, -16575.70, -15468.52, 2422.73, 0.00, 0.00, 0.00
247, -187500.02, 13144.46, -32725.05, -4696.30, -14502.59, -17147.50, -22199.44, -549.99, 0.00, 0.00, 0.00
248, -187500.02, 12559.74, -31795.76, -5187.79, -13656.60, -16206.40, -10683.46, 491.72, 0.00, 0.01, 0.01
249, -187500.02, 12079.28, -31157.04, -5604.65, -13530.38, -15551.83, -2359.32, 3578.02, 0.00, 0.00, 0.00
250, -187500.02, 12546.24, -31988.01, -5243.50, -14353.37, -16395.38, -11730.06, 2560.82, 0.00, 0.00, 0.00
251, -187500.02, 13007.64, -32721.19, -4804.31, -14593.19, -17148.37, -20041.11, -1700.61, 0.00, 0.00, 0.00
252, -187500.02, 12514.90, -31970.28, -5125.14, -13806.63, -16380.41, -10700.83, -1831.37, 0.00, 0.00, 0.00
253, -187500.02, 12017.95, -31140.94, -5577.01, -13469.63, -15519.84, -885.51, 2321.54, 0.00, 0.00, 0.00
254, -187500.02, 12497.78, -31723.47, -5294.28, -14179.52, -16109.48, -8392.77, 3162.57, 0.00, 0.00, 0.00
255, -187500.02, 13098.86, -32596.26, -4859.69, -14608.70, -17011.09, -18947.24, -656.22, 0.00, 0.00, 0.00
0, -187500.02, 12768.97, -32094.58, -5107.35, -13955.11, -16503.28, -12545.01, -1751.17, 0.00, 0.00, 0.00
1, -187500.02, 12074.75, -31133.23, -5662.55, -13451.44, -15512.16, -933.63, 2139.06, 0.00, 0.00, 0.00
2, -187500.02, 12317.17, -31487.93, -5505.93, -14048.58, -15868.15, -5310.57, 4117.03, 0.00, 0.00, 0.00
3, -187500.02, 12926.26, -32467.34, -4994.77, -14630.38, -16875.61, -17421.37, 839.96, 0.00, 0.01, 0.01
4, -187500.02, 12699.55, -32188.84, -5108.69, -14102.30, -16603.12, -14463.52, -1286.32, 0.00, 0.00, 0.00
5, -187500.02, 12036.28, -31137.59, -5691.56, -13458.05, -15527.20, -1752.80, 1984.48, 0.00, 0.00, 0.00
6, -187500.02, 12040.59, -31264.10, -5740.42, -13920.38, -15647.49, -2989.75, 4797.11, 0.00, 0.00, 0.00
7, -187500.02, 12760.57, -32314.25, -5122.17, -14638.92, -16726.84, -15765.04, 2130.41, 0.00, 0.00, 0.00
8, -187500.02, 12835.18, -32347.49, -5076.89, -14304.38, -16773.84, -16322.83, -871.74, 0.00, 0.00, 0.00
9, -187500.02, 12158.37, -31334.53, -5704.59, -13575.13, -15735.34, -3721.61, 1520.90, 0.00, 0.00, 0.00
10, -187500.02, 12070.86, -31200.44, -5864.99, -13838.61, -15587.84, -1928.31, 4800.53, 0.00, 0.00, 0.00
11, -187500.02, 12672.68, -32265.28, -5308.40, -14646.87, -16673.82, -14398.03, 2784.45, 0.00, 0.00, 0.00
12, -187500.02, 12726.81, -32589.00, -5180.04, -14509.39, -17014.19, -18220.34, -827.84, 0.00, 0.00, 0.00
13, -187500.02, 12156.42, -31589.18, -5682.75, -13684.74, -15993.95, -6498.61, 609.53, 0.00, 0.01, 0.01
14, -187500.02, 11906.08, -31167.74, -5964.25, -13725.56, -15550.96, -1392.31, 4306.94, 0.00, 0.00, 0.00
15, -187500.02, 12527.68, -32109.42, -5475.06, -14545.06, -16509.54, -12645.70, 3284.75, 0.00, 0.00, 0.00
16, -187500.02, 12897.67, -32676.39, -5144.92, -14626.56, -17097.68, -19201.56, -514.31, 0.00, 0.00, 0.00
17, -187500.02, 12364.74, -31841.94, -5620.73, -13833.36, -16244.35, -9058.63, 96.02, 0.00, 0.00, 0.00
18, -187500.02, 11945.22, -31199.90, -6028.06, -13664.65, -15576.15, -1394.17, 4035.00, 0.00, 0.00, 0.00
19, -187500.02, 12494.92, -31995.09, -5658.77, -14456.64, -16383.38, -10922.45, 3973.07, 0.00, 0.00, 0.00
20, -187500.02, 13029.14, -32780.53, -5165.73, -14745.33, -17197.01, -20330.12, -68.60, 0.00, 0.00, 0.00
21, -187500.02, 12440.04, -32167.56, -5581.36, -14025.36, -16572.70, -12457.88, -649.34, 0.00, 0.00, 0.00
22, -187500.02, 11934.56, -31334.13, -6071.31, -13644.82, -15706.70, -2583.55, 3136.69, 0.00, 0.00, 0.00
23, -187500.02, 12356.80, -31906.58, -5854.50, -14341.66, -16281.19, -9550.32, 4013.10, 0.00, 0.01, 0.01
24, -187500.02, 12956.05, -32862.72, -5333.62, -14825.15, -17263.68, -20809.59, 175.19, 0.00, 0.00, 0.00
25, -187500.02, 12562.78, -32455.56, -5609.84, -14204.18, -16852.88, -15788.91, -1425.39, 0.00, 0.00, 0.00
26, -187500.02, 11931.00, -31488.47, -6225.32, -13655.04, -15855.41, -4124.68, 2060.88, 0.00, 0.00, 0.00
27, -187500.02, 12289.91, -31784.74, -6005.47, -14202.68, -16148.89, -7939.59, 4030.44, 0.00, 0.00, 0.00
28, -187500.02, 12927.58, -32834.71, -5500.23, -14843.44, -17224.01, -20394.16, 718.07, 0.00, 0.00, 0.00
29, -187500.02, 12729.68, -32686.09, -5639.48, -14376.17, -17076.69, -18350.87, -1675.31, 0.00, 0.00, 0.00
30, -187500.02, 12124.44, -31637.48, -6183.63, -13684.05, -15997.39, -5877.30, 1361.96, 0.00, 0.00, 0.00
31, -187500.02, 12184.23, -31673.40, -6246.17, -14074.92, -16022.89, -6626.93, 4138.89, 0.00, 0.00, 0.00
32, -187500.02, 12774.89, -32756.44, -5744.67, -14840.62, -17130.87, -19424.16, 1461.85, 0.00, 0.00, 0.00
33, -187500.02, 12834.57, -32850.96, -5679.87, -14538.94, -17235.52, -20842.04, -1725.20, 0.00, 0.00, 0.00
34, -187500.02, 12221.22, -31817.01, -6284.82, -13769.95, -16172.20, -8060.02, 453.14, 0.00, 0.01, 0.01
35, -187500.02, 12115.85, -31566.41, -6434.40, -13952.88, -15901.21, -4816.22, 3818.80, 0.00, 0.00, 0.00
36, -187500.02, 12731.24, -32609.00, -5966.02, -14792.41, -16963.68, -17875.72, 2269.15, 0.00, 0.00, 0.00
37, -187500.02, 12938.96, -33040.91, -5861.43, -14744.89, -17407.34, -23310.95, -464.85, 0.00, 0.00, 0.00
38, -187500.02, 12279.56, -32036.96, -6423.71, -13898.92, -16386.42, -11491.75, 1049.10, 0.00, 0.00, 0.00
39, -187500.02, 11953.60, -31497.68, -6720.97, -13870.64, -15834.33, -4782.25, 4090.28, 0.00, 0.00, 0.00
40, -187500.02, 12652.29, -32424.31, -6225.50, -14722.24, -16777.93, -16201.91, 3062.35, 0.00, 0.00, 0.00
41, -187500.02, 12929.10, -33123.99, -6016.40, -14906.53, -17495.71, -24796.18, -170.99, 0.00, 0.00, 0.00
42, -187500.02, 12322.58, -32330.84, -6473.27, -14109.74, -16687.46, -14768.89, 505.91, 0.00, 0.00, 0.00
43, -187500.02, 11895.80, -31565.49, -6891.96, -13848.83, -15900.07, -5321.66, 3894.70, 0.00, 0.00, 0.00
44, -187500.02, 12492.86, -32288.64, -6554.36, -14633.15, -16633.03, -14117.16, 3606.48, 0.00, 0.01, 0.01
45, -187500.02, 13073.33, -33134.76, -6066.42, -14990.62, -17501.24, -24829.28, -106.53, 0.00, 0.00, 0.00
46, -187500.02, 12498.33, -32563.74, -6396.76, -14287.39, -16919.85, -17852.61, -480.47, 0.00, 0.00, 0.00
47, -187500.02, 11902.19, -31651.19, -6958.25, -13840.89, -15982.19, -6824.12, 3166.37, 0.00, 0.00, 0.00
48, -187500.02, 12301.37, -32147.02, -6704.09, -14517.03, -16484.14, -12522.16, 3939.09, 0.00, 0.00, 0.00
49, -187500.02, 12922.84, -33166.55, -6204.20, -15069.88, -17528.71, -24732.61, 316.25, 0.00, 0.00, 0.00
50, -187500.02, 12541.43, -32848.10, -6501.90, -14493.92, -17204.45, -20865.58, -1068.95, 0.00, 0.00, 0.00
51, -187500.02, 11956.31, -31803.65, -7056.89, -13869.37, -16129.40, -8261.14, 2269.57, 0.00, 0.00, 0.00
52, -187500.02, 12278.01, -32002.87, -6941.51, -14378.00, -16325.02, -11091.29, 3983.33, 0.00, 0.00, 0.00
53, -187500.02, 13042.15, -33110.02, -6355.20, -15091.47, -17450.21, -24592.66, 1242.78, 0.00, 0.00, 0.00
54, -187500.02, 12719.95, -33025.64, -6435.20, -14651.10, -17368.56, -23522.86, -742.57, 0.00, 0.00, 0.00
55, -187500.02, 11930.71, -31903.40, -7068.02, -13891.18, -16225.51, -9569.59, 1521.86, 0.00, 0.01, 0.01
56, -187500.02, 12017.01, -31837.69, -7128.62, -14240.09, -16149.87, -8665.37, 3820.00, 0.00, 0.00, 0.00
57, -187500.02, 12765.53, -32952.53, -6585.72, -15057.10, -17279.55, -22374.74, 1958.50, 0.00, 0.00, 0.00
58, -187500.02, 12816.22, -33159.59, -6559.90, -14830.20, -17493.12, -25085.45, -338.87, 0.00, 0.00, 0.00
59, -187500.02, 12183.13, -32068.47, -7153.72, -13998.99, -16382.53, -11847.79, 1587.44, 0.00, 0.00, 0.00
60, -187500.02, 12112.23, -31709.55, -7324.78, -14128.67, -16010.82, -7304.80, 4363.37, 0.00, 0.00, 0.00
61, -187500.02, 12738.57, -32769.69, -6854.16, -15009.87, -17083.57, -20003.94, 3002.04, 0.00, 0.00, 0.00
62, -187500.02, 12894.92, -33256.24, -6725.37, -15001.46, -17582.26, -26232.41, 157.33, 0.00, 0.00, 0.00
63, -187500.02, 12231.68, -32265.39, -7318.81, -14148.74, -16578.04, -14125.50, 1130.53, 0.00, 0.00, 0.00
64, -187500.02, 11882.34, -31661.38, -7723.27, -14081.20, -15956.95, -6494.12, 4085.56, 0.00, 0.00, 0.00
65, -187500.02, 12557.34, -32597.11, -7291.72, -14967.53, -16901.49, -17442.79, 3582.69, 0.00, 0.01, 0.01
66, -187500.02, 12995.26, -33344.04, -6986.86, -15189.49, -17665.99, -26833.47, 522.56, 0.00, 0.00, 0.00
67, -187500.02, 12357.99, -32560.39, -7555.07, -14393.20, -16872.68, -17136.32, 474.89, 0.00, 0.00, 0.00
68, -187500.02, 11857.40, -31755.26, -8080.16, -14111.88, -16047.57, -6777.34, 3372.92, 0.00, 0.00, 0.00
69, -187500.02, 12495.88, -32486.45, -7688.80, -14923.39, -16784.55, -15701.47, 3496.44, 0.00, 0.00, 0.00
70, -187500.02, 13040.50, -33431.86, -7295.03, -15347.80, -17751.24, -27820.34, 170.61, 0.00, 0.00, 0.00
71, -187500.02, 12538.12, -32875.26, -7695.68, -14639.07, -17189.94, -20649.23, -813.13, 0.00, 0.00, 0.00
72, -187500.02, 11945.60, -31884.27, -8279.31, -14139.31, -16174.10, -7899.69, 1978.46, 0.00, 0.00, 0.00
73, -187500.02, 12286.93, -32329.90, -8123.79, -14812.39, -16616.44, -13248.53, 2907.58, 0.00, 0.00, 0.00
74, -187500.02, 12946.44, -33397.68, -7647.67, -15425.74, -17698.69, -26192.67, 75.55, 0.00, 0.00, 0.00
75, -187500.02, 12664.97, -33081.59, -8059.17, -14858.41, -17380.07, -22403.42, -1377.92, 0.00, 0.00, 0.00
76, -187500.02, 11856.79, -32044.04, -9377.32, -14278.74, -16314.67, -8255.82, 1193.11, 0.00, 0.01, 0.01
77, -187500.02, 12011.54, -32229.96, -10055.49, -14859.89, -16486.04, -9225.26, 3062.84, 0.00, 0.00, 0.00
78, -187500.02, 12741.12, -33370.71, -10085.42, -15711.67, -17639.21, -22845.40, 612.62, 0.00, 0.00, 0.00
79, -187500.02, 12752.97, -33405.93, -10585.70, -15447.33, -17669.37, -23200.89, -1269.40, 0.00, 0.00, 0.00
80, -187500.02, 12108.48, -32340.27, -11556.54, -14776.58, -16570.71, -9531.28, 1335.67, 0.00, 0.00, 0.00
81, -187500.02, 11990.50, -32249.61, -12107.29, -15175.11, -16462.39, -7474.49, 3794.16, 0.00, 0.00, 0.00
82, -187500.02, 12660.61, -33379.45, -11948.04, -16103.72, -17604.05, -20910.39, 1607.67, 0.00, 0.00, 0.00
83, -187500.02, 12886.43, -33695.25, -12129.38, -16025.10, -17920.91, -24774.72, -1075.10, 0.00, 0.00, 0.00
84, -187500.02, 12180.87, -32676.82, -13066.40, -15280.75, -16873.76, -12152.75, 645.56, 0.00, 0.00, 0.00
85, -187500.02, 11941.29, -32283.94, -13548.13, -15437.72, -16456.67, -6635.50, 3429.94, 0.00, 0.00, 0.00
86, -187500.02, 12664.25, -33311.88, -13291.44, -16378.60, -17491.89, -18688.11, 1954.17, 0.00, 0.01, 0.01
87, -187500.02, 12937.68, -33898.03, -13373.70, -16515.90, -18083.77, -26061.69, -1252.70, 0.00, 0.00, 0.00
88, -187500.02, 12316.68, -32986.84, -14133.54, -15746.89, -17148.08, -15069.17, -462.77, 0.00, 0.00, 0.00
89, -187500.02, 12011.78, -32334.14, -14698.46, -15668.80, -16465.77, -6291.66, 2569.69, 0.00, 0.00, 0.00
90, -187500.02, 12685.04, -33178.62, -14475.53, -16566.15, -17313.41, -16253.07, 1918.65, 0.00, 0.00, 0.00
91, -187500.02, 13181.18, -34004.89, -14333.01, -16928.67, -18147.78, -26216.90, -1433.82, 0.00, 0.00, 0.00
92, -187500.02, 12736.34, -33267.33, -14922.83, -16183.87, -17388.61, -17343.75, -1300.22, 0.00, 0.00, 0.00
93, -187500.02, 12322.25, -32348.31, -15556.46, -15852.50, -16441.88, -5880.68, 1939.44, 0.00, 0.00, 0.00
94, -187500.02, 12766.20, -32972.33, -15558.24, -16674.02, -17061.22, -13203.00, 2524.29, 0.00, 0.00, 0.00
95, -187500.02, 13289.63, -33943.00, -15447.83, -17225.95, -18042.82, -25034.60, -349.92, 0.00, 0.00, 0.00
96, -187500.02, 12935.60, -33431.35, -15847.92, -16602.81, -17519.39, -18680.71, -1066.51, 0.00, 0.00, 0.00
97, -187500.02, 12170.46, -32372.12, -16630.39, -16102.51, -16429.85, -5216.83, 2060.00, 0.00, 0.01, 0.01
98, -187500.02, 12419.59, -32764.64, -16679.18, -16811.78, -16810.93, -9537.09, 3594.50, 0.00, 0.00, 0.00
99, -187500.02, 13096.13, -33860.34, -16400.73, -17527.16, -17918.92, -23341.21, 1045.88, 0.00, 0.00, 0.00
100, -187500.02, 12945.19, -33664.61, -16814.81, -17083.17, -17716.26, -20781.29, -548.00, 0.00, 0.00, 0.00
101, -187500.02, 12267.51, -32583.57, -17585.95, -16452.22, -16607.39, -7304.17, 1910.76, 0.00, 0.00, 0.00
102, -187500.02, 12411.63, -32693.49, -17722.45, -16964.01, -16704.75, -8758.96, 3723.55, 0.00, 0.00, 0.00
103, -187500.02, 13216.03, -33864.81, -17322.06, -17811.81, -17886.13, -22996.61, 1367.03, 0.00, 0.00, 0.00
104, -187500.02, 13198.97, -33957.77, -17499.31, -17533.56, -17979.77, -24318.47, -987.77, 0.00, 0.00, 0.00
105, -187500.02, 12514.12, -32872.06, -18202.12, -16784.37, -16869.08, -10892.90, 774.60, 0.00, 0.00, 0.00
106, -187500.02, 12433.36, -32714.48, -18462.90, -17091.46, -16691.12, -8367.96, 3137.27, 0.00, 0.00, 0.00
107, -187500.02, 13224.50, -33836.50, -18028.58, -17982.47, -17816.71, -22007.84, 1545.67, 0.00, 0.01, 0.01
108, -187500.02, 13456.46, -34198.77, -17995.01, -17896.64, -18181.56, -26868.29, -1154.15, 0.00, 0.00, 0.00
109, -187500.02, 12819.49, -33165.00, -18607.69, -17078.28, -17124.03, -14048.56, 101.79, 0.00, 0.00, 0.00
110, -187500.02, 12479.34, -32687.17, -19048.42, -17134.73, -16622.54, -7994.37, 3018.96, 0.00, 0.00, 0.00
111, -187500.02, 13238.25, -33624.11, -18576.24, -18006.74, -17563.66, -20046.88, 2296.22, 0.00, 0.00, 0.00
112, -187500.02, 13506.11, -34253.20, -18517.19, -18166.13, -18201.05, -27787.55, -551.10, 0.00, 0.00, 0.00
113, -187500.02, 12809.90, -33380.18, -19234.75, -17384.00, -17309.62, -16744.00, 29.33, 0.00, 0.00, 0.00
114, -187500.02, 12381.77, -32654.40, -19735.63, -17223.94, -16560.45, -7633.01, 3156.63, 0.00, 0.00, 0.00
115, -187500.02, 12974.58, -33461.68, -19428.31, -18090.00, -17370.88, -17597.37, 3176.41, 0.00, 0.00, 0.00
116, -187500.02, 13574.68, -34316.95, -19087.52, -18457.58, -18239.00, -28325.45, 215.40, 0.00, 0.00, 0.00
117, -187500.02, 13071.03, -33668.63, -19629.93, -17744.78, -17578.24, -20123.99, -122.33, 0.00, 0.00, 0.00
118, -187500.02, 12522.18, -32758.16, -20166.41, -17365.36, -16644.47, -9143.25, 2745.89, 0.00, 0.01, 0.01
119, -187500.02, 12964.15, -33358.84, -19934.69, -18135.06, -17242.96, -16309.44, 3267.36, 0.00, 0.00, 0.00
120, -187500.02, 13565.43, -34404.83, -19596.58, -18697.66, -18299.62, -28955.52, 264.18, 0.00, 0.00, 0.00
121, -187500.02, 13236.19, -34000.82, -19975.04, -18084.75, -17886.31, -23926.13, -954.89, 0.00, 0.00, 0.00
122, -187500.02, 12624.04, -32940.37, -20566.44, -17505.55, -16797.47, -11154.41, 1582.82, 0.00, 0.00, 0.00
123, -187500.02, 12915.51, -33243.84, -20481.82, -18109.96, -17091.13, -14538.80, 2851.66, 0.00, 0.00, 0.00
124, -187500.02, 13581.39, -34332.55, -20081.79, -18806.40, -18190.56, -27595.82, 374.01, 0.00, 0.00, 0.00
125, -187500.02, 13410.80, -34164.19, -20320.69, -18348.59, -18018.63, -25634.05, -1255.83, 0.00, 0.00, 0.00
126, -187500.02, 12701.56, -33023.67, -20955.81, -17638.34, -16855.36, -11814.17, 1096.22, 0.00, 0.00, 0.00
127, -187500.02, 12644.34, -33030.56, -21152.80, -18070.18, -16851.20, -11599.39, 3179.11, 0.00, 0.00, 0.00
128, -187500.02, 13445.11, -34119.71, -20635.76, -18878.06, -17949.77, -24992.13, 1300.11, 0.00, 0.01, 0.01
129, -187500.02, 13517.31, -34232.01, -20643.65, -18618.02, -18063.96, -26756.11, -909.65, 0.00, 0.00, 0.00
130, -187500.02, 12791.12, -33130.85, -21295.31, -17834.95, -16941.66, -13148.46, 835.82, 0.00, 0.00, 0.00
131, -187500.02, 12642.46, -32854.02, -21552.69, -18051.85, -16648.21, -9485.99, 3407.99, 0.00, 0.00, 0.00
132, -187500.02, 13383.22, -33915.29, -21092.33, -18932.51, -17720.33, -22702.08, 2042.17, 0.00, 0.00, 0.00
133, -187500.02, 13609.33, -34342.47, -20981.04, -18903.05, -18155.61, -28178.75, -714.70, 0.00, 0.00, 0.00
134, -187500.02, 12897.09, -33350.57, -21619.08, -18086.36, -17144.84, -15830.22, 238.92, 0.00, 0.00, 0.00
135, -187500.02, 12629.47, -32790.72, -21953.90, -18061.51, -16563.58, -8907.35, 3025.76, 0.00, 0.00, 0.00
136, -187500.02, 13273.47, -33722.43, -21533.47, -18940.02, -17498.00, -20131.03, 2329.52, 0.00, 0.00, 0.00
137, -187500.02, 13687.34, -34404.23, -21277.90, -19126.63, -18189.13, -28380.37, -572.56, 0.00, 0.00, 0.00
138, -187500.02, 13150.16, -33535.13, -21781.73, -18307.89, -17309.41, -18158.15, -263.17, 0.00, 0.01, 0.01
139, -187500.02, 12733.30, -32737.71, -22209.99, -18065.44, -16491.65, -8155.95, 2728.21, 0.00, 0.00, 0.00
140, -187500.02, 13256.86, -33427.41, -21926.84, -18857.54, -17185.67, -16530.21, 2613.19, 0.00, 0.00, 0.00
141, -187500.02, 13755.78, -34308.63, -21625.78, -19276.19, -18080.48, -27108.22, -581.95, 0.00, 0.00, 0.00
142, -187500.02, 13314.46, -33724.51, -22049.01, -18587.87, -17481.12, -19924.10, -562.12, 0.00, 0.00, 0.00
143, -187500.02, 12732.92, -32740.21, -22590.77, -18123.84, -16470.46, -8230.16, 2985.95, 0.00, 0.00, 0.00
144, -187500.02, 13034.11, -33192.38, -22460.78, -18811.45, -16923.40, -13355.48, 3873.31, 0.00, 0.00, 0.00
145, -187500.02, 13744.53, -34164.59, -21952.63, -19380.68, -17918.19, -25885.73, 696.46, 0.00, 0.00, 0.00
146, -187500.02, 13557.32, -33818.30, -22098.99, -18820.95, -17568.40, -22055.94, -418.92, 0.00, 0.00, 0.00
147, -187500.02, 12741.19, -32805.48, -22848.13, -18243.63, -16527.37, -8871.61, 2807.24, 0.00, 0.00, 0.00
148, -187500.02, 12825.30, -33020.36, -22934.81, -18784.99, -16736.67, -10929.24, 4474.17, 0.00, 0.00, 0.00
149, -187500.02, 13607.00, -34101.47, -22381.11, -19514.66, -17840.18, -24281.79, 1540.17, 0.00, 0.01, 0.01
150, -187500.02, 13557.74, -34111.82, -22500.12, -19165.93, -17852.54, -24113.75, -461.97, 0.00, 0.00, 0.00
151, -187500.02, 12825.50, -33044.75, -23124.26, -18430.64, -16760.50, -11303.34, 2016.42, 0.00, 0.00, 0.00
152, -187500.02, 12803.77, -32953.11, -23199.23, -18752.40, -16657.01, -9826.99, 4164.67, 0.00, 0.00, 0.00
153, -187500.02, 13539.70, -34017.66, -22699.13, -19559.14, -17737.79, -22734.29, 1773.25, 0.00, 0.00, 0.00
154, -187500.02, 13655.98, -34255.75, -22653.96, -19378.09, -17983.59, -25744.31, -913.90, 0.00, 0.00, 0.00
155, -187500.02, 12928.09, -33190.80, -23281.82, -18561.11, -16894.43, -12505.13, 926.01, 0.00, 0.00, 0.00
156, -187500.02, 12715.64, -32806.91, -23567.01, -18683.29, -16491.59, -7687.23, 3675.43, 0.00, 0.00, 0.00
157, -187500.02, 13458.68, -33811.06, -23057.61, -19548.97, -17505.75, -20124.33, 2536.95, 0.00, 0.00, 0.00
158, -187500.02, 13733.16, -34279.62, -22908.86, -19558.87, -17985.17, -26138.11, -158.18, 0.00, 0.00, 0.00
159, -187500.02, 13050.65, -33305.51, -23476.62, -18732.06, -16994.72, -13963.11, 825.54, 0.00, 0.01, 0.01
160, -187500.02, 12629.81, -32674.43, -23861.89, -18648.19, -16344.96, -6008.57, 3871.90, 0.00, 0.00, 0.00
161, -187500.02, 13239.70, -33543.64, -23464.73, -19509.36, -17222.67, -16905.25, 3470.51, 0.00, 0.00, 0.00
162, -187500.02, 13622.11, -34302.19, -23230.30, -19774.86, -17997.20, -26137.53, 491.20, 0.00, 0.00, 0.00
163, -187500.02, 13094.08, -33524.75, -23695.40, -18992.12, -17210.53, -16505.44, 548.53, 0.00, 0.00, 0.00
164, -187500.02, 12621.76, -32698.54, -24143.21, -18695.67, -16363.55, -5930.86, 3507.35, 0.00, 0.00, 0.00
165, -187500.02, 13046.82, -33400.30, -23928.44, -19497.56, -17068.98, -14183.14, 3785.96, 0.00, 0.00, 0.00
166, -187500.02, 13624.33, -34338.07, -23545.91, -19945.18, -18025.92, -26053.95, 722.81, 0.00, 0.00, 0.00
167, -187500.02, 13173.56, -33802.70, -23930.09, -19264.74, -17484.29, -19286.00, -140.97, 0.00, 0.00, 0.00
168, -187500.02, 12578.53, -32794.12, -24469.01, -18759.51, -16453.10, -6756.17, 2590.19, 0.00, 0.00, 0.00
169, -187500.02, 12881.27, -33216.43, -24329.69, -19424.07, -16873.35, -11888.09, 3535.24, 0.00, 0.00, 0.00
170, -187500.02, 13538.34, -34283.30, -23883.96, -20056.58, -17957.64, -24854.76, 700.26, 0.00, 0.01, 0.01
171, -187500.02, 13283.33, -33971.66, -24100.37, -19493.60, -17646.14, -21160.87, -751.85, 0.00, 0.00, 0.00
172, -187500.02, 12600.35, -32827.96, -24678.16, -18813.15, -16479.87, -7210.87, 1800.72, 0.00, 0.00, 0.00
173, -187500.02, 12739.35, -32940.70, -24643.85, -19306.65, -16583.21, -8320.88, 3665.66, 0.00, 0.00, 0.00
174, -187500.02, 13440.48, -34044.77, -24169.57, -20073.18, -17702.20, -21629.16, 1576.89, 0.00, 0.00, 0.00
175, -187500.02, 13368.98, -34015.31, -24256.89, -19702.28, -17676.81, -21618.65, -279.64, 0.00, 0.00, 0.00
176, -187500.02, 12567.02, -32879.17, -24949.73, -18937.56, -16519.44, -7581.13, 1892.66, 0.00, 0.00, 0.00
177, -187500.02, 12476.05, -32724.94, -25106.89, -19248.27, -16353.85, -5449.96, 4368.22, 0.00, 0.00, 0.00
178, -187500.02, 13219.11, -33820.42, -24592.71, -20107.70, -17462.72, -18778.44, 2783.89, 0.00, 0.00, 0.00
179, -187500.02, 13346.38, -34116.94, -24479.90, -19965.45, -17768.41, -22584.87, 329.58, 0.00, 0.00, 0.00
180, -187500.02, 12651.67, -33065.40, -25057.00, -19138.32, -16698.18, -9612.50, 1728.97, 0.00, 0.01, 0.01
181, -187500.02, 12386.11, -32646.93, -25335.70, -19222.52, -16263.04, -4243.08, 4434.83, 0.00, 0.00, 0.00
182, -187500.02, 13083.91, -33664.88, -24879.35, -20108.08, -17290.44, -16608.64, 3382.06, 0.00, 0.00, 0.00
183, -187500.02, 13395.36, -34238.58, -24676.26, -20188.23, -17878.91, -24088.50, 385.30, 0.00, 0.00, 0.00
184, -187500.02, 12761.53, -33334.07, -25183.55, -19368.21, -16961.58, -12835.67, 799.10, 0.00, 0.00, 0.00
185, -187500.02, 12382.73, -32669.11, -25551.44, -19219.50, -16274.84, -3994.79, 3645.97, 0.00, 0.00, 0.00
186, -187500.02, 12996.49, -33503.34, -25143.45, -20052.55, -17116.09, -14351.07, 3331.89, 0.00, 0.00, 0.00
187, -187500.02, 13411.40, -34318.24, -24830.98, -20353.74, -17945.30, -24349.45, 209.53, 0.00, 0.00, 0.00
188, -187500.02, 12887.66, -33581.02, -25227.94, -19564.88, -17195.13, -15307.12, -17.70, 0.00, 0.00, 0.00
189, -187500.02, 12374.10, -32683.55, -25712.64, -19196.95, -16272.34, -3708.74, 2957.78, 0.00, 0.00, 0.00
190, -187500.02, 12804.73, -33287.20, -25483.65, -19949.65, -16876.06, -10802.02, 3507.06, 0.00, 0.00, 0.00
191, -187500.02, 13492.94, -34234.27, -24946.09, -20429.43, -17841.63, -22754.46, 511.65, 0.00, 0.01, 0.01
192, -187500.02, 13134.31, -33752.12, -25217.39, -19773.22, -17353.20, -17378.97, -232.84, 0.00, 0.00, 0.00
193, -187500.02, 12380.21, -32744.79, -25894.56, -19239.24, -16317.15, -4664.52, 3095.34, 0.00, 0.00, 0.00
194, -187500.02, 12546.32, -33065.80, -25843.51, -19845.24, -16635.15, -8061.83, 4349.54, 0.00, 0.00, 0.00
195, -187500.02, 13211.29, -34121.37, -25374.24, -20508.26, -17711.34, -20927.74, 1173.60, 0.00, 0.00, 0.00
196, -187500.02, 13200.90, -33917.74, -25372.49, -20015.94, -17505.28, -18953.99, -460.65, 0.00, 0.00, 0.00
197, -187500.02, 12473.21, -32854.49, -25984.01, -19338.93, -16417.22, -5667.15, 2564.93, 0.00, 0.00, 0.00
198, -187500.02, 12524.20, -32879.71, -26011.15, -19743.88, -16437.43, -5957.12, 4634.57, 0.00, 0.00, 0.00
199, -187500.02, 13250.40, -33984.71, -25488.03, -20535.64, -17563.17, -19157.03, 1875.29, 0.00, 0.00, 0.00
200, -187500.02, 13280.47, -34106.39, -25467.62, -20253.32, -17688.25, -20760.57, -534.47, 0.00, 0.00, 0.00
201, -187500.02, 12504.37, -33053.22, -26105.61, -19475.32, -16605.87, -7867.21, 1854.32, 0.00, 0.01, 0.01
202, -187500.02, 12465.03, -32806.01, -26225.48, -19678.61, -16345.23, -4677.04, 4584.59, 0.00, 0.00, 0.00
203, -187500.02, 13138.67, -33852.07, -25741.21, -20520.31, -17411.94, -17439.14, 2476.37, 0.00, 0.00, 0.00
204, -187500.02, 13345.26, -34240.57, -25548.58, -20444.60, -17810.56, -22509.86, -612.71, 0.00, 0.00, 0.00
205, -187500.02, 12723.62, -33234.52, -26046.80, -19604.24, -16781.29, -10613.23, 980.82, 0.00, 0.00, 0.00
206, -187500.02, 12469.57, -32726.13, -26363.95, -19599.46, -16253.88, -4092.02, 4165.27, 0.00, 0.00, 0.00
207, -187500.02, 12915.64, -33697.54, -26113.01, -20482.36, -17239.72, -15225.14, 2908.97, 0.00, 0.00, 0.00
208, -187500.02, 13370.43, -34337.82, -25727.82, -20625.12, -17895.12, -23257.39, -501.84, 0.00, 0.00, 0.00
209, -187500.02, 12781.98, -33523.37, -26175.46, -19829.86, -17060.84, -13315.16, 226.51, 0.00, 0.00, 0.00
210, -187500.02, 12308.41, -32789.20, -26622.63, -19602.46, -16305.42, -4267.37, 3614.01, 0.00, 0.00, 0.00
211, -187500.02, 12882.74, -33551.82, -26279.77, -20408.88, -17077.02, -13175.79, 3154.52, 0.00, 0.00, 0.00
212, -187500.02, 13425.75, -34412.27, -25829.16, -20760.14, -17953.19, -23559.27, -409.51, 0.00, 0.01, 0.01
213, -187500.02, 12978.72, -33769.68, -26113.01, -20010.22, -17295.58, -16051.99, -637.23, 0.00, 0.00, 0.00
214, -187500.02, 12399.88, -32805.90, -26607.61, -19554.22, -16305.64, -4362.46, 2592.31, 0.00, 0.00, 0.00
215, -187500.02, 12707.73, -33366.62, -26510.98, -20294.24, -16865.98, -10660.98, 3173.59, 0.00, 0.00, 0.00
216, -187500.02, 13327.21, -34403.45, -26076.62, -20851.85, -17916.64, -23082.96, 252.44, 0.00, 0.00, 0.00
217, -187500.02, 13142.78, -33954.89, -26149.10, -20188.81, -17463.66, -18113.90, -819.35, 0.00, 0.00, 0.00
218, -187500.02, 12503.48, -32851.79, -26679.04, -19566.04, -16339.48, -4832.13, 1847.89, 0.00, 0.00, 0.00
219, -187500.02, 12720.11, -33118.94, -26620.41, -20142.50, -16600.06, -7835.58, 3317.36, 0.00, 0.00, 0.00
220, -187500.02, 13413.53, -34226.98, -26136.03, -20851.88, -17724.44, -21474.62, 834.95, 0.00, 0.00, 0.00
221, -187500.02, 13209.54, -34103.08, -26250.83, -20397.66, -17602.94, -19947.19, -956.21, 0.00, 0.00, 0.00
222, -187500.02, 12407.32, -32981.12, -26905.84, -19663.86, -16461.59, -6166.31, 1240.03, 0.00, 0.01, 0.01
223, -187500.02, 12431.55, -33001.66, -27060.72, -20084.65, -16473.75, -5937.25, 3215.14, 0.00, 0.00, 0.00
224, -187500.02, 13254.27, -34154.36, -26457.33, -20913.10, -17642.28, -20057.99, 1075.48, 0.00, 0.00, 0.00
225, -187500.02, 13422.22, -34343.86, -26189.20, -20654.78, -17841.18, -22626.02, -1533.69, 0.00, 0.00, 0.00
226, -187500.02, 12709.67, -33306.64, -26725.53, -19847.61, -16783.52, -9173.51, -182.57, 0.00, 0.00, 0.00
227, -187500.02, 12559.71, -33075.69, -26957.52, -20037.13, -16535.44, -5666.08, 2054.21, 0.00, 0.00, 0.00
228, -187500.02, 13315.69, -34182.95, -26423.38, -20904.00, -17655.22, -19498.52, 245.44, 0.00, 0.00, 0.00
229, -187500.02, 13518.51, -34684.16, -26239.85, -20870.09, -18164.35, -25535.68, -3062.81, 0.00, 0.00, 0.00
230, -187500.02, 12924.81, -33697.69, -26689.37, -19991.40, -17156.62, -13052.05, -2507.84, 0.00, 0.00, 0.00
231, -187500.02, 12653.57, -33099.71, -26914.96, -19894.71, -16536.65, -5498.64, 113.17, 0.00, 0.00, 0.00
232, -187500.02, 13330.38, -33978.99, -26459.88, -20716.00, -17420.10, -16404.75, -575.58, 0.00, 0.00, 0.00
233, -187500.02, 13751.60, -34626.92, -26128.09, -20874.20, -18081.31, -24724.09, -3538.82, 0.00, 0.01, 0.01
234, -187500.02, 13139.56, -33735.06, -26540.51, -20020.39, -17176.35, -13797.53, -3200.03, 0.00, 0.00, 0.00
235, -187500.02, 12617.02, -32848.88, -26979.85, -19709.41, -16267.80, -3134.70, 7.04, 0.00, 0.00, 0.00
236, -187500.02, 13179.42, -33505.55, -26671.87, -20496.13, -16927.02, -11441.66, 474.17, 0.00, 0.00, 0.00
237, -187500.02, 13674.93, -34379.57, -26356.06, -20911.82, -17817.56, -22209.34, -2165.19, 0.00, 0.00, 0.00
238, -187500.02, 13101.07, -33743.13, -26724.66, -20188.18, -17175.24, -14563.48, -2431.58, 0.00, 0.00, 0.00
239, -187500.02, 12420.46, -32724.99, -27293.42, -19713.14, -16135.66, -1960.90, 737.29, 0.00, 0.00, 0.00
240, -187500.02, 12755.69, -33184.27, -27128.40, -20412.66, -16593.35, -7390.92, 2019.23, 0.00, 0.00, 0.00
241, -187500.02, 13467.55, -34193.05, -26583.20, -20993.03, -17618.90, -20318.99, -413.46, 0.00, 0.00, 0.00
242, -187500.02, 13193.47, -33822.43, -26738.36, -20403.10, -17249.04, -16142.07, -1484.60, 0.00, 0.00, 0.00
243, -187500.02, 12415.97, -32723.91, -27336.81, -19767.46, -16130.34, -2385.58, 1349.37, 0.00, 0.01, 0.01
244, -187500.02, 12589.62, -32923.05, -27339.96, -20306.25, -16324.04, -4494.65, 3266.08, 0.00, 0.00, 0.00
245, -187500.02, 13378.59, -34033.79, -26803.90, -21047.05, -17453.34, -18383.44, 1156.10, 0.00, 0.00, 0.00
246, -187500.02, 13256.17, -33973.06, -26793.17, -20637.95, -17400.16, -17959.67, -618.83, 0.00, 0.00, 0.00
247, -187500.02, 12398.76, -32868.08, -27409.88, -19883.84, -16277.39, -4200.38, 1628.97, 0.00, 0.00, 0.00
248, -187500.02, 12331.32, -32796.20, -27586.28, -20229.71, -16194.82, -2981.28, 3947.03, 0.00, 0.00, 0.00
249, -187500.02, 13099.35, -33932.38, -27119.68, -21078.21, -17344.97, -16756.59, 2216.91, 0.00, 0.00, 0.00
250, -187500.02, 13218.89, -34174.70, -26954.53, -20876.51, -17597.46, -20228.24, -204.32, 0.00, 0.00, 0.00
251, -187500.02, 12353.45, -33119.23, -27580.71, -20056.53, -16527.53, -7243.75, 1232.81, 0.00, 0.00, 0.00
252, -187500.02, 12103.87, -32776.98, -27896.59, -20191.87, -16169.30, -2309.38, 3878.92, 0.00, 0.00, 0.00
253, -187500.02, 12967.57, -33793.91, -27311.95, -21046.02, -17197.81, -14807.02, 2839.36, 0.00, 0.00, 0.00
254, -187500.02, 13370.77, -34283.30, -26953.90, -21044.14, -17702.85, -21527.46, 99.04, 0.00, 0.01, 0.01
255, -187500.02, 12587.54, -33318.38, -27467.54, -20193.04, -16727.80, -9825.38, 890.69, 0.00, 0.00, 0.00
0, -187500.02, 12132.39, -32667.41, -27896.85, -20074.64, -16061.72, -1556.28, 3890.97, 0.00, 0.00, 0.00
1, -187500.02, 12741.59, -33527.23, -27573.54, -20927.09, -16931.18, -12219.97, 3633.70, 0.00, 0.00, 0.00
2, -187500.02, 13216.68, -34280.64, -27227.38, -21184.56, -17700.39, -21855.69, 739.84, 0.00, 0.00, 0.00
3, -187500.02, 12789.09, -33485.95, -27449.04, -20373.14, -16897.40, -12407.54, 822.48, 0.00, 0.00, 0.00
4, -187500.02, 12298.62, -32640.52, -27865.38, -20044.62, -16033.04, -1850.05, 3822.22, 0.00, 0.00, 0.00
5, -187500.02, 12670.47, -33353.12, -27725.79, -20849.44, -16747.47, -10322.57, 4143.12, 0.00, 0.00, 0.00
6, -187500.02, 13190.64, -34347.28, -27341.37, -21327.59, -17756.72, -22632.12, 1052.28, 0.00, 0.00, 0.00
7, -187500.02, 12888.89, -33825.99, -27445.24, -20623.75, -17231.25, -16446.57, 103.62, 0.00, 0.00, 0.00
8, -187500.02, 12185.88, -32851.72, -27878.88, -20100.61, -16233.76, -4020.10, 2731.00, 0.00, 0.01, 0.01
9, -187500.02, 12428.89, -33319.68, -27748.15, -20760.34, -16696.51, -9280.33, 3635.51, 0.00, 0.00, 0.00
10, -187500.02, 13047.34, -34445.38, -27329.28, -21399.34, -17838.93, -22858.10, 728.15, 0.00, 0.00, 0.00
11, -187500.02, 12880.37, -34182.63, -27376.13, -20828.40, -17579.56, -19972.58, -966.80, 0.00, 0.00, 0.00
12, -187500.02, 12171.53, -33059.12, -27778.30, -20109.06, -16434.68, -6200.35, 1366.90, 0.00, 0.00, 0.00
13, -187500.02, 12321.55, -33159.62, -27735.59, -20554.08, -16526.19, -7319.10, 3106.07, 0.00, 0.00, 0.00
14, -187500.02, 13027.65, -34280.55, -27216.64, -21308.79, -17657.97, -20797.81, 931.06, 0.00, 0.00, 0.00
15, -187500.02, 12939.67, -34270.86, -27083.16, -20918.19, -17653.45, -20985.34, -1003.30, 0.00, 0.00, 0.00
16, -187500.02, 12123.72, -33105.77, -27615.71, -20088.88, -16467.11, -6833.42, 1188.02, 0.00, 0.00, 0.00
17, -187500.02, 12147.88, -32856.71, -27668.02, -20314.18, -16208.63, -4164.67, 3830.53, 0.00, 0.00, 0.00
18, -187500.02, 12882.38, -33930.42, -27151.69, -21162.94, -17300.38, -17414.82, 2435.07, 0.00, 0.01, 0.01
19, -187500.02, 13028.88, -34233.48, -26896.39, -21014.82, -17613.96, -21513.80, 96.69, 0.00, 0.00, 0.00
20, -187500.02, 12281.90, -33164.94, -27365.66, -20155.04, -16531.17, -8717.05, 1568.94, 0.00, 0.00, 0.00
21, -187500.02, 11880.04, -32730.35, -27748.86, -20217.51, -16084.07, -3107.16, 4391.92, 0.00, 0.00, 0.00
22, -187500.02, 12584.81, -33742.73, -27299.21, -21100.07, -17108.96, -15480.84, 3491.23, 0.00, 0.00, 0.00
23, -187500.02, 12929.01, -34367.53, -26929.98, -21201.72, -17749.72, -23026.68, 635.24, 0.00, 0.00, 0.00
24, -187500.02, 12283.96, -33471.33, -27305.16, -20346.21, -16842.31, -12018.73, 1254.63, 0.00, 0.00, 0.00
25, -187500.02, 11931.76, -32776.48, -27618.69, -20155.10, -16130.56, -3543.71, 4142.09, 0.00, 0.00, 0.00
26, -187500.02, 12479.18, -33647.89, -27272.12, -21001.12, -17006.57, -13866.28, 3825.34, 0.00, 0.00, 0.00
27, -187500.02, 13094.57, -34469.00, -26712.50, -21283.51, -17845.88, -24576.10, 669.88, 0.00, 0.00, 0.00
28, -187500.02, 12519.21, -33798.43, -27013.69, -20507.03, -17166.18, -16172.09, 322.09, 0.00, 0.00, 0.00
29, -187500.02, 11853.26, -32934.38, -27542.18, -20115.72, -16277.75, -5100.04, 3123.16, 0.00, 0.01, 0.01
30, -187500.02, 12363.22, -33529.38, -27300.17, -20835.89, -16876.55, -12164.56, 3400.50, 0.00, 0.00, 0.00
31, -187500.02, 13163.03, -34486.41, -26626.49, -21305.86, -17856.34, -24398.81, 117.75, 0.00, 0.00, 0.00
32, -187500.02, 12765.55, -34041.10, -26769.48, -20643.33, -17409.42, -19555.00, -837.12, 0.00, 0.00, 0.00
33, -187500.02, 11952.55, -33048.26, -27418.19, -20077.77, -16391.23, -6744.57, 2394.32, 0.00, 0.00, 0.00
34, -187500.02, 12215.18, -33343.97, -27318.90, -20636.45, -16688.04, -9873.35, 3750.06, 0.00, 0.00, 0.00
35, -187500.02, 12934.35, -34383.62, -26785.82, -21274.93, -17751.51, -22959.73, 630.30, 0.00, 0.00, 0.00
36, -187500.02, 12792.04, -34204.14, -26757.14, -20782.81, -17570.44, -21381.95, -1106.34, 0.00, 0.00, 0.00
37, -187500.02, 12068.02, -33100.34, -27250.38, -20052.78, -16439.44, -8003.27, 1888.45, 0.00, 0.00, 0.00
38, -187500.02, 12094.44, -33122.45, -27390.86, -20453.66, -16455.89, -7802.14, 4075.59, 0.00, 0.00, 0.00
39, -187500.02, 12899.15, -34188.13, -26876.07, -21212.97, -17546.03, -21073.13, 1447.54, 0.00, 0.01, 0.01
40, -187500.02, 13010.70, -34273.02, -26632.75, -20910.66, -17642.25, -22784.45, -959.20, 0.00, 0.00, 0.00
41, -187500.02, 12240.69, -33203.16, -27119.21, -20105.66, -16551.13, -9634.45, 1543.23, 0.00, 0.00, 0.00
42, -187500.02, 12088.83, -32936.05, -27316.38, -20286.93, -16274.73, -6080.50, 4466.12, 0.00, 0.00, 0.00
43, -187500.02, 12818.59, -33955.52, -26861.07, -21114.40, -17317.33, -18631.83, 2587.19, 0.00, 0.00, 0.00
44, -187500.02, 13002.97, -34354.94, -26497.52, -21048.35, -17732.69, -23925.69, -411.76, 0.00, 0.00, 0.00
45, -187500.02, 12260.45, -33380.70, -26641.65, -20196.79, -16740.43, -12406.76, 1151.03, 0.00, 0.00, 0.00
46, -187500.02, 11995.82, -32848.17, -26669.74, -20121.62, -16191.85, -5877.44, 4346.10, 0.00, 0.00, 0.00
47, -187500.02, 12744.92, -33759.87, -26030.97, -20919.36, -17121.90, -16637.45, 3245.32, 0.00, 0.00, 0.00
48, -187500.02, 13085.14, -34404.83, -25563.94, -21031.47, -17789.78, -25115.60, -173.99, 0.00, 0.00, 0.00
49, -187500.02, 12402.74, -33558.48, -25798.54, -20172.81, -16932.38, -15290.89, 293.72, 0.00, 0.00, 0.00
50, -187500.02, 11969.09, -32767.84, -26054.27, -19873.90, -16124.68, -5493.66, 3474.56, 0.00, 0.01, 0.01
51, -187500.02, 12509.51, -33530.10, -25653.57, -20662.33, -16897.00, -14488.56, 3577.71, 0.00, 0.00, 0.00
52, -187500.02, 12916.33, -34422.18, -25168.26, -21014.26, -17807.90, -25185.21, 732.40, 0.00, 0.00, 0.00
53, -187500.02, 12526.99, -33741.30, -25224.10, -20200.72, -17125.77, -17525.96, 437.62, 0.00, 0.00, 0.00
54, -187500.02, 11993.79, -32748.95, -25569.12, -19698.70, -16119.21, -5857.65, 3323.50, 0.00, 0.00, 0.00
55, -187500.02, 12294.82, -33293.88, -25337.29, -20397.53, -16669.17, -12111.43, 4096.43, 0.00, 0.00, 0.00
56, -187500.02, 12971.48, -34320.97, -24701.22, -20925.19, -17717.82, -24792.08, 1357.00, 0.00, 0.00, 0.00
57, -187500.02, 12718.95, -33906.81, -24689.76, -20251.04, -17306.51, -20381.59, 212.19, 0.00, 0.00, 0.00
58, -187500.02, 11896.47, -32858.52, -25254.79, -19620.96, -16238.52, -7066.62, 2757.53, 0.00, 0.00, 0.00
59, -187500.02, 12053.20, -33133.35, -25187.76, -20159.64, -16508.26, -9669.77, 4205.61, 0.00, 0.00, 0.00
60, -187500.02, 12851.92, -34217.17, -24563.72, -20825.43, -17613.64, -23494.46, 1571.08, 0.00, 0.01, 0.01
61, -187500.02, 12845.28, -34104.38, -24388.05, -20351.29, -17508.21, -22984.50, -263.04, 0.00, 0.00, 0.00
62, -187500.02, 12032.30, -33014.55, -24824.88, -19584.11, -16399.47, -9685.73, 2351.92, 0.00, 0.00, 0.00
63, -187500.02, 12024.48, -32933.75, -24831.24, -19880.45, -16314.72, -8387.49, 4569.48, 0.00, 0.00, 0.00
64, -187500.02, 12720.13, -33994.68, -24309.51, -20650.08, -17401.79, -21186.30, 1999.50, 0.00, 0.00, 0.00
65, -187500.02, 12781.02, -34179.64, -24063.91, -20402.43, -17599.58, -23772.40, -679.74, 0.00, 0.00, 0.00
66, -187500.02, 11997.83, -33129.93, -24526.19, -19569.49, -16528.06, -10890.04, 1531.83, 0.00, 0.00, 0.00
67, -187500.02, 11805.48, -32777.40, -24754.58, -19668.19, -16164.02, -6367.68, 4591.14, 0.00, 0.00, 0.00
68, -187500.02, 12560.41, -33768.70, -24256.20, -20492.30, -17175.82, -18096.42, 2906.60, 0.00, 0.00, 0.00
69, -187500.02, 12843.25, -34232.97, -23912.70, -20472.52, -17656.07, -24000.25, -272.89, 0.00, 0.00, 0.00
70, -187500.02, 12210.74, -33272.49, -24189.26, -19612.25, -16678.76, -12854.53, 1100.80, 0.00, 0.00, 0.00
71, -187500.02, 11842.89, -32673.82, -24485.51, -19497.05, -16066.23, -5406.22, 4609.04, 0.00, 0.01, 0.01
72, -187500.02, 12374.24, -33540.11, -24166.26, -20314.61, -16952.14, -15667.41, 3734.73, 0.00, 0.00, 0.00
73, -187500.02, 12805.34, -34251.30, -23721.48, -20517.80, -17687.98, -24457.28, 118.71, 0.00, 0.00, 0.00
74, -187500.02, 12333.56, -33480.92, -23895.00, -19708.94, -16908.78, -15548.74, 441.07, 0.00, 0.00, 0.00
75, -187500.02, 11790.08, -32710.03, -24332.67, -19403.50, -16115.52, -5513.71, 3977.45, 0.00, 0.00, 0.00
76, -187500.02, 12165.07, -33429.91, -24172.94, -20178.17, -16845.53, -13487.51, 3947.00, 0.00, 0.00, 0.00
77, -187500.02, 12808.29, -34358.96, -23639.90, -20588.53, -17797.11, -24795.08, 301.64, 0.00, 0.00, 0.00
78, -187500.02, 12482.58, -33814.99, -23680.71, -19860.89, -17247.37, -18747.84, -383.15, 0.00, 0.00, 0.00
79, -187500.02, 11782.07, -32866.61, -24126.27, -19342.91, -16276.20, -7018.43, 2848.62, 0.00, 0.00, 0.00
80, -187500.02, 12085.88, -33296.68, -24008.97, -19967.39, -16713.72, -11927.09, 3552.88, 0.00, 0.00, 0.00
81, -187500.02, 12763.72, -34339.36, -23475.66, -20550.82, -17781.53, -24296.37, 191.51, 0.00, 0.01, 0.01
82, -187500.02, 12479.22, -34039.49, -23537.37, -19965.56, -17482.08, -21069.07, -1191.77, 0.00, 0.00, 0.00
83, -187500.02, 11758.29, -32955.01, -24030.94, -19282.54, -16375.16, -7808.31, 1819.16, 0.00, 0.00, 0.00
84, -187500.02, 11949.87, -33072.80, -23997.26, -19730.94, -16492.73, -9113.68, 3455.98, 0.00, 0.00, 0.00
85, -187500.02, 12692.84, -34114.08, -23442.53, -20430.77, -17558.12, -21856.32, 740.65, 0.00, 0.00, 0.00
86, -187500.02, 12687.48, -34043.96, -23137.05, -20009.46, -17496.83, -21976.70, -1212.36, 0.00, 0.00, 0.00
87, -187500.02, 11897.25, -32885.52, -23064.92, -19169.10, -16318.52, -8259.95, 1479.77, 0.00, 0.00, 0.00
88, -187500.02, 11761.73, -32671.23, -22655.17, -19358.20, -16102.08, -5973.73, 4025.46, 0.00, 0.00, 0.00
89, -187500.02, 12502.25, -33713.92, -21730.57, -20111.29, -17170.27, -18876.43, 1866.53, 0.00, 0.00, 0.00
90, -187500.02, 12594.22, -33985.54, -21202.30, -19876.91, -17456.00, -22638.63, -759.33, 0.00, 0.00, 0.00
91, -187500.02, 11887.01, -32923.38, -21332.71, -18962.15, -16380.63, -10295.10, 1062.11, 0.00, 0.00, 0.00
92, -187500.02, 11630.57, -32522.61, -21337.29, -18974.87, -15972.71, -5137.70, 3833.35, 0.00, 0.01, 0.01
93, -187500.02, 12325.91, -33533.07, -20610.81, -19771.39, -17006.37, -17340.95, 2107.68, 0.00, 0.00, 0.00
94, -187500.02, 12748.96, -34083.97, -19855.37, -19747.03, -17579.36, -24616.53, -1278.23, 0.00, 0.00, 0.00
95, -187500.02, 12136.57, -33186.10, -19906.44, -18830.03, -16669.30, -13823.48, -443.10, 0.00, 0.00, 0.00
96, -187500.02, 11601.49, -32563.47, -20183.20, -18619.36, -16031.21, -5632.33, 2530.96, 0.00, 0.00, 0.00
97, -187500.02, 12254.99, -33378.46, -19567.19, -19357.77, -16862.51, -15554.02, 1641.85, 0.00, 0.00, 0.00
98, -187500.02, 12749.19, -34127.25, -18882.55, -19543.89, -17632.87, -25151.86, -1867.96, 0.00, 0.00, 0.00
99, -187500.02, 12218.58, -33369.86, -18952.18, -18677.99, -16865.84, -16206.06, -1687.13, 0.00, 0.00, 0.00
100, -187500.02, 11705.63, -32454.20, -19228.45, -18222.64, -15930.38, -4832.38, 1823.19, 0.00, 0.00, 0.00
101, -187500.02, 12163.51, -32956.80, -18803.31, -18850.41, -16448.11, -11480.10, 2267.27, 0.00, 0.00, 0.00
102, -187500.02, 12722.34, -33829.59, -18120.36, -19251.65, -17351.48, -22497.57, -760.09, 0.00, 0.01, 0.01
